PE UV       SUBTECH     SPECTRUM    ASCII       PEDS        4.00        
   -1
001-3SJB01-x-F001-9387.Sample.asc
23/12/20
10:05:20.00
23/12/20
10:05:20.00
Administrator

250.000000
1
Lambda 750
750N8071901
PerkinElmer UV WinLab 6.0.4.0738 / 1.61.00 Lambda 900

0
0
3350/servo 860.8/2
0
0
UV/VIS
1
1
1
CommonBeamDepol,150mm sphere / downward view
0
0
0
0
Program
Program
3350/servo 860.8/2
3350/0.2 860.8/0.2
3350/0.2 860.8/0.2
0
1
 
 
 
0
 
860.8
319.2
860.8
Front
100
on
 
 
0
0
0
 
0
 
 
 
0
 
 
0
0
0
0
0
 
 
 
 
0
0


0
0
#HDR
-1
-1
#GR
nm
%R
1.0
0.0
2300.000000
-10.000000
206
8
57.486205
8.882082
#DATA
2300.000000	9.379410
2290.000000	9.889510
2280.000000	11.265413
2270.000000	11.815129
2260.000000	13.330373
2250.000000	13.522309
2240.000000	13.101619
2230.000000	13.981872
2220.000000	13.052239
2210.000000	12.185981
2200.000000	12.658125
2190.000000	12.043383
2180.000000	12.926064
2170.000000	14.029453
2160.000000	14.200625
2150.000000	15.581083
2140.000000	15.660807
2130.000000	15.822510
2120.000000	15.746910
2110.000000	15.956911
2100.000000	14.759247
2090.000000	15.016539
2080.000000	13.772062
2070.000000	12.556038
2060.000000	12.142363
2050.000000	12.566697
2040.000000	12.866050
2030.000000	13.124705
2020.000000	12.574568
2010.000000	11.679581
2000.000000	10.808433
1990.000000	10.119877
1980.000000	9.671014
1970.000000	9.411819
1960.000000	9.300079
1950.000000	9.946472
1940.000000	10.376176
1930.000000	12.539242
1920.000000	16.058937
1910.000000	20.889360
1900.000000	25.715343
1890.000000	29.771095
1880.000000	32.237172
1870.000000	33.427941
1860.000000	33.462672
1850.000000	33.356160
1840.000000	32.736864
1830.000000	32.383527
1820.000000	31.744470
1810.000000	31.299711
1800.000000	31.008813
1790.000000	30.662684
1780.000000	30.153502
1770.000000	29.492627
1760.000000	28.855337
1750.000000	28.530634
1740.000000	28.859676
1730.000000	30.221765
1720.000000	30.977525
1710.000000	31.084703
1700.000000	32.298056
1690.000000	34.381689
1680.000000	36.416773
1670.000000	37.036831
1660.000000	37.077251
1650.000000	36.595476
1640.000000	35.835365
1630.000000	34.920033
1620.000000	33.937155
1610.000000	33.015268
1600.000000	32.164151
1590.000000	31.347219
1580.000000	30.686504
1570.000000	30.228311
1560.000000	29.660882
1550.000000	28.513414
1540.000000	27.549105
1530.000000	26.940346
1520.000000	26.581017
1510.000000	26.257763
1500.000000	26.231231
1490.000000	26.324870
1480.000000	26.694698
1470.000000	27.191622
1460.000000	28.081571
1450.000000	29.454078
1440.000000	31.407184
1430.000000	34.083917
1420.000000	37.650710
1410.000000	41.311246
1400.000000	44.319204
1390.000000	46.064567
1380.000000	47.170125
1370.000000	48.308607
1360.000000	49.386089
1350.000000	50.436034
1340.000000	51.413925
1330.000000	52.207087
1320.000000	52.687696
1310.000000	52.753731
1300.000000	52.634556
1290.000000	52.460405
1280.000000	52.477110
1270.000000	52.670284
1260.000000	52.645205
1250.000000	52.391078
1240.000000	51.981113
1230.000000	51.592405
1220.000000	50.930876
1210.000000	50.346218
1200.000000	50.168867
1190.000000	50.683757
1180.000000	51.827551
1170.000000	53.145091
1160.000000	54.281056
1150.000000	55.213319
1140.000000	55.789905
1130.000000	56.064472
1120.000000	56.137544
1110.000000	56.178244
1100.000000	56.237063
1090.000000	56.215712
1080.000000	56.152918
1070.000000	55.993664
1060.000000	55.904015
1050.000000	55.781039
1040.000000	55.678909
1030.000000	55.622646
1020.000000	55.684658
1010.000000	55.868297
1000.000000	55.892300
990.000000	56.097113
980.000000	56.169001
970.000000	56.458861
960.000000	56.630750
950.000000	56.779424
940.000000	56.820626
930.000000	56.870484
920.000000	56.742519
910.000000	56.730137
900.000000	57.343156
890.000000	57.089337
880.000000	56.776030
870.000000	57.099790
860.000000	57.486205
850.000000	57.144727
840.000000	56.516112
830.000000	56.681812
820.000000	56.732551
810.000000	56.365530
800.000000	56.406844
790.000000	56.197032
780.000000	56.368188
770.000000	56.328196
760.000000	56.046080
750.000000	55.948235
740.000000	55.723680
730.000000	55.523421
720.000000	55.439340
710.000000	55.140432
700.000000	54.752696
690.000000	54.466682
680.000000	54.083367
670.000000	53.638153
660.000000	53.254307
650.000000	52.567937
640.000000	51.931786
630.000000	51.140247
620.000000	50.465187
610.000000	49.779595
600.000000	49.124592
590.000000	48.506216
580.000000	47.751721
570.000000	46.976651
560.000000	46.284687
550.000000	45.412345
540.000000	44.519660
530.000000	43.612404
520.000000	42.709727
510.000000	41.606937
500.000000	40.368412
490.000000	38.774407
480.000000	37.099645
470.000000	35.266965
460.000000	33.117287
450.000000	30.548368
440.000000	28.043448
430.000000	25.229932
420.000000	22.490008
410.000000	20.389994
400.000000	19.420922
390.000000	18.607132
380.000000	17.575527
370.000000	16.277024
360.000000	15.119354
350.000000	14.440882
340.000000	13.379345
330.000000	12.508938
320.000000	11.777264
310.000000	11.927033
300.000000	10.205508
290.000000	9.041301
280.000000	8.882082
270.000000	9.410543
260.000000	9.932219
250.000000	10.367917
