PE UV       SUBTECH     SPECTRUM    ASCII       PEDS        4.00        
   -1
001-3SJB01-x-F001-9566.Sample.asc
23/12/20
10:12:36.00
23/12/20
10:12:36.00
Administrator

250.000000
1
Lambda 750
750N8071901
PerkinElmer UV WinLab 6.0.4.0738 / 1.61.00 Lambda 900

0
0
3350/servo 860.8/2
0
0
UV/VIS
1
1
1
CommonBeamDepol,150mm sphere / downward view
0
0
0
0
Program
Program
3350/servo 860.8/2
3350/0.2 860.8/0.2
3350/0.2 860.8/0.2
0
1
 
 
 
0
 
860.8
319.2
860.8
Front
100
on
 
 
0
0
0
 
0
 
 
 
0
 
 
0
0
0
0
0
 
 
 
 
0
0


0
0
#HDR
-1
-1
#GR
nm
%R
1.0
0.0
2300.000000
-10.000000
206
8
61.669176
8.703245
#DATA
2300.000000	10.193157
2290.000000	11.165016
2280.000000	11.705874
2270.000000	12.402834
2260.000000	13.076785
2250.000000	13.382768
2240.000000	13.643944
2230.000000	13.952657
2220.000000	13.557660
2210.000000	12.264089
2200.000000	12.817012
2190.000000	12.662236
2180.000000	13.705203
2170.000000	14.088540
2160.000000	14.839160
2150.000000	15.577812
2140.000000	16.277942
2130.000000	16.160745
2120.000000	16.549800
2110.000000	16.838604
2100.000000	15.713252
2090.000000	15.859377
2080.000000	14.352065
2070.000000	13.316644
2060.000000	12.570760
2050.000000	12.787741
2040.000000	13.110841
2030.000000	13.626563
2020.000000	12.693574
2010.000000	11.870577
2000.000000	11.126634
1990.000000	10.245301
1980.000000	9.938551
1970.000000	9.630787
1960.000000	9.393368
1950.000000	9.990676
1940.000000	10.565181
1930.000000	12.863830
1920.000000	16.658296
1910.000000	21.798087
1900.000000	27.194717
1890.000000	31.959075
1880.000000	34.866086
1870.000000	36.095575
1860.000000	36.119240
1850.000000	35.746619
1840.000000	35.265228
1830.000000	34.717529
1820.000000	34.055306
1810.000000	33.518508
1800.000000	33.188399
1790.000000	32.751368
1780.000000	31.965659
1770.000000	31.431508
1760.000000	30.798110
1750.000000	30.267072
1740.000000	30.792209
1730.000000	32.216739
1720.000000	33.032942
1710.000000	33.138692
1700.000000	34.593582
1690.000000	37.008314
1680.000000	39.220903
1670.000000	39.967641
1660.000000	40.010336
1650.000000	39.455256
1640.000000	38.484961
1630.000000	37.593673
1620.000000	36.355389
1610.000000	35.230431
1600.000000	34.269185
1590.000000	33.425027
1580.000000	32.675805
1570.000000	32.211534
1560.000000	31.455246
1550.000000	30.256404
1540.000000	29.117065
1530.000000	28.473409
1520.000000	28.031410
1510.000000	27.757600
1500.000000	27.657698
1490.000000	27.837419
1480.000000	28.163811
1470.000000	28.760981
1460.000000	29.762394
1450.000000	31.248754
1440.000000	33.407919
1430.000000	36.457473
1420.000000	40.436424
1410.000000	44.591124
1400.000000	48.032822
1390.000000	50.083588
1380.000000	51.282232
1370.000000	52.608077
1360.000000	53.907540
1350.000000	55.119076
1340.000000	56.119745
1330.000000	56.983288
1320.000000	57.589972
1310.000000	57.758546
1300.000000	57.685102
1290.000000	57.449553
1280.000000	57.426232
1270.000000	57.589683
1260.000000	57.410228
1250.000000	57.141478
1240.000000	56.734615
1230.000000	56.260673
1220.000000	55.402874
1210.000000	54.719689
1200.000000	54.548771
1190.000000	55.168712
1180.000000	56.368610
1170.000000	57.917014
1160.000000	59.151012
1150.000000	60.140072
1140.000000	60.838615
1130.000000	61.096768
1120.000000	61.249090
1110.000000	61.316026
1100.000000	61.377941
1090.000000	61.189076
1080.000000	61.037371
1070.000000	60.846135
1060.000000	60.680409
1050.000000	60.599838
1040.000000	60.486757
1030.000000	60.400568
1020.000000	60.387290
1010.000000	60.579418
1000.000000	60.655073
990.000000	60.702902
980.000000	60.899607
970.000000	61.183080
960.000000	61.333305
950.000000	61.369463
940.000000	61.405681
930.000000	61.288856
920.000000	61.286206
910.000000	61.469754
900.000000	61.669176
890.000000	61.519144
880.000000	61.502176
870.000000	61.441360
860.000000	61.525750
850.000000	61.047887
840.000000	60.656003
830.000000	61.090150
820.000000	61.067357
810.000000	60.747069
800.000000	60.566844
790.000000	60.644551
780.000000	60.401001
770.000000	60.375367
760.000000	60.005503
750.000000	59.989322
740.000000	59.654769
730.000000	59.416518
720.000000	59.280342
710.000000	58.921648
700.000000	58.353311
690.000000	58.002142
680.000000	57.562168
670.000000	56.929082
660.000000	56.447753
650.000000	55.678933
640.000000	54.876964
630.000000	54.044503
620.000000	53.224798
610.000000	52.397828
600.000000	51.675781
590.000000	50.931140
580.000000	50.041206
570.000000	49.213371
560.000000	48.419085
550.000000	47.463811
540.000000	46.447021
530.000000	45.446176
520.000000	44.400211
510.000000	43.241741
500.000000	41.798708
490.000000	40.194290
480.000000	38.295306
470.000000	36.350422
460.000000	34.020190
450.000000	31.324346
440.000000	28.568674
430.000000	25.744661
420.000000	22.838664
410.000000	20.647571
400.000000	19.673612
390.000000	18.875832
380.000000	17.787484
370.000000	16.449803
360.000000	15.370084
350.000000	14.401171
340.000000	13.209991
330.000000	12.709584
320.000000	11.994116
310.000000	11.316659
300.000000	10.021971
290.000000	8.703245
280.000000	8.854206
270.000000	9.282850
260.000000	9.919826
250.000000	10.191167
