PE UV       SUBTECH     SPECTRUM    ASCII       PEDS        4.00        
   -1
001-3SJB01-x-F001-9238.Sample.asc
23/12/20
10:09:54.00
23/12/20
10:09:54.00
Administrator

250.000000
1
Lambda 750
750N8071901
PerkinElmer UV WinLab 6.0.4.0738 / 1.61.00 Lambda 900

0
0
3350/servo 860.8/2
0
0
UV/VIS
1
1
1
CommonBeamDepol,150mm sphere / downward view
0
0
0
0
Program
Program
3350/servo 860.8/2
3350/0.2 860.8/0.2
3350/0.2 860.8/0.2
0
1
 
 
 
0
 
860.8
319.2
860.8
Front
100
on
 
 
0
0
0
 
0
 
 
 
0
 
 
0
0
0
0
0
 
 
 
 
0
0


0
0
#HDR
-1
-1
#GR
nm
%R
1.0
0.0
2300.000000
-10.000000
206
8
58.857382
8.747289
#DATA
2300.000000	9.429159
2290.000000	11.213077
2280.000000	11.312750
2270.000000	12.444275
2260.000000	13.342232
2250.000000	13.709208
2240.000000	13.023452
2230.000000	14.259414
2220.000000	13.210549
2210.000000	13.101895
2200.000000	12.655837
2190.000000	12.150038
2180.000000	13.300821
2170.000000	13.798406
2160.000000	14.033057
2150.000000	15.979592
2140.000000	16.503840
2130.000000	16.095272
2120.000000	15.607783
2110.000000	15.972030
2100.000000	15.613043
2090.000000	15.273198
2080.000000	14.102845
2070.000000	13.152937
2060.000000	12.434589
2050.000000	12.880493
2040.000000	13.093157
2030.000000	13.202127
2020.000000	12.614657
2010.000000	11.890283
2000.000000	11.154270
1990.000000	10.244029
1980.000000	10.020262
1970.000000	9.702927
1960.000000	9.011037
1950.000000	9.820719
1940.000000	10.522388
1930.000000	12.962982
1920.000000	16.277577
1910.000000	21.149032
1900.000000	26.561787
1890.000000	30.874055
1880.000000	33.404650
1870.000000	34.501566
1860.000000	34.680959
1850.000000	34.328456
1840.000000	33.867402
1830.000000	33.280464
1820.000000	32.795057
1810.000000	32.299197
1800.000000	32.014230
1790.000000	31.581269
1780.000000	30.808181
1770.000000	30.362446
1760.000000	29.785811
1750.000000	29.255693
1740.000000	29.792597
1730.000000	30.977702
1720.000000	31.863262
1710.000000	32.015686
1700.000000	33.237170
1690.000000	35.472975
1680.000000	37.623963
1670.000000	38.174466
1660.000000	38.332514
1650.000000	37.765133
1640.000000	37.026519
1630.000000	36.082519
1620.000000	34.972024
1610.000000	33.989697
1600.000000	33.068116
1590.000000	32.242123
1580.000000	31.593265
1570.000000	31.136592
1560.000000	30.458152
1550.000000	29.340026
1540.000000	28.262204
1530.000000	27.643674
1520.000000	27.250955
1510.000000	26.917701
1500.000000	26.887618
1490.000000	27.055632
1480.000000	27.386803
1470.000000	27.871602
1460.000000	28.876702
1450.000000	30.284428
1440.000000	32.286360
1430.000000	35.157806
1420.000000	38.865678
1410.000000	42.642200
1400.000000	45.822936
1390.000000	47.744651
1380.000000	48.770649
1370.000000	49.986179
1360.000000	51.128163
1350.000000	52.295009
1340.000000	53.261343
1330.000000	54.087570
1320.000000	54.631038
1310.000000	54.723557
1300.000000	54.644128
1290.000000	54.602926
1280.000000	54.506859
1270.000000	54.630829
1260.000000	54.452076
1250.000000	54.240122
1240.000000	53.829118
1230.000000	53.464526
1220.000000	52.732719
1210.000000	52.124568
1200.000000	51.947989
1190.000000	52.453226
1180.000000	53.715263
1170.000000	55.094631
1160.000000	56.201249
1150.000000	57.135930
1140.000000	57.687133
1130.000000	57.976067
1120.000000	58.076398
1110.000000	58.173211
1100.000000	58.223690
1090.000000	58.136935
1080.000000	58.003936
1070.000000	57.849180
1060.000000	57.696300
1050.000000	57.659700
1040.000000	57.527008
1030.000000	57.430409
1020.000000	57.457945
1010.000000	57.610402
1000.000000	57.652555
990.000000	57.823197
980.000000	57.903886
970.000000	58.223822
960.000000	58.464026
950.000000	58.462707
940.000000	58.527198
930.000000	58.418742
920.000000	58.422588
910.000000	58.589978
900.000000	58.779263
890.000000	58.624949
880.000000	58.350582
870.000000	58.761151
860.000000	58.857382
850.000000	58.572625
840.000000	58.056182
830.000000	58.427151
820.000000	58.161709
810.000000	58.228521
800.000000	58.004956
790.000000	57.821300
780.000000	57.818386
770.000000	57.818870
760.000000	57.525869
750.000000	57.355870
740.000000	57.048807
730.000000	56.973081
720.000000	56.851284
710.000000	56.496131
700.000000	56.040415
690.000000	55.764005
680.000000	55.351741
670.000000	54.889667
660.000000	54.304373
650.000000	53.490190
640.000000	52.937403
630.000000	52.152344
620.000000	51.390956
610.000000	50.596825
600.000000	49.985621
590.000000	49.257937
580.000000	48.410059
570.000000	47.735375
560.000000	46.963956
550.000000	46.010719
540.000000	45.134668
530.000000	44.221412
520.000000	43.265615
510.000000	42.127547
500.000000	40.842245
490.000000	39.178433
480.000000	37.463240
470.000000	35.528323
460.000000	33.399295
450.000000	30.790062
440.000000	28.216251
430.000000	25.409151
420.000000	22.562208
410.000000	20.492101
400.000000	19.427801
390.000000	18.733163
380.000000	17.666172
370.000000	16.373656
360.000000	15.407865
350.000000	14.373645
340.000000	13.276853
330.000000	13.003835
320.000000	12.229303
310.000000	11.061757
300.000000	9.931086
290.000000	8.762496
280.000000	8.747289
270.000000	9.301879
260.000000	9.779537
250.000000	10.182979
