PE UV       SUBTECH     SPECTRUM    ASCII       PEDS        4.00        
   -1
DE55E_9566_bis.Sample.asc
23/12/20
09:41:52.00
23/12/20
09:41:52.00
Administrator

250.000000
1
Lambda 750
750N8071901
PerkinElmer UV WinLab 6.0.4.0738 / 1.61.00 Lambda 900

0
0
3350/servo 860.8/2
0
0
UV/VIS
1
1
1
CommonBeamDepol,150mm sphere / downward view
0
0
0
0
Program
Program
3350/servo 860.8/2
3350/0.2 860.8/0.2
3350/0.2 860.8/0.2
0
1
 
 
 
0
 
860.8
319.2
860.8
Front
100
on
 
 
0
0
0
 
0
 
 
 
0
 
 
0
0
0
0
0
 
 
 
 
0
0


0
0
#HDR
-1
-1
#GR
nm
%R
1.0
0.0
2300.000000
-10.000000
206
8
34.721452
20.803735
#DATA
2300.000000	34.067719
2290.000000	33.921809
2280.000000	34.130381
2270.000000	34.384254
2260.000000	33.594911
2250.000000	33.901121
2240.000000	32.717000
2230.000000	33.837207
2220.000000	33.767349
2210.000000	33.378451
2200.000000	33.833638
2190.000000	33.905123
2180.000000	34.721452
2170.000000	34.578207
2160.000000	33.873867
2150.000000	34.555275
2140.000000	34.177874
2130.000000	33.901947
2120.000000	33.704676
2110.000000	34.048381
2100.000000	33.427384
2090.000000	33.758408
2080.000000	33.279713
2070.000000	33.152333
2060.000000	33.014511
2050.000000	33.103301
2040.000000	32.588014
2030.000000	32.761703
2020.000000	32.470538
2010.000000	32.131353
2000.000000	32.204206
1990.000000	32.004132
1980.000000	31.940923
1970.000000	32.052746
1960.000000	31.822955
1950.000000	32.058014
1940.000000	31.595947
1930.000000	31.790357
1920.000000	31.789658
1910.000000	31.451234
1900.000000	31.392955
1890.000000	31.423388
1880.000000	31.278326
1870.000000	31.370160
1860.000000	31.279391
1850.000000	31.221740
1840.000000	30.970192
1830.000000	30.885943
1820.000000	30.832225
1810.000000	30.724918
1800.000000	30.835753
1790.000000	30.737733
1780.000000	30.651484
1770.000000	30.578441
1760.000000	30.660300
1750.000000	30.452965
1740.000000	30.403725
1730.000000	30.473828
1720.000000	30.419004
1710.000000	30.206666
1700.000000	30.153103
1690.000000	30.092960
1680.000000	30.081365
1670.000000	29.910468
1660.000000	29.886912
1650.000000	29.822086
1640.000000	29.729497
1630.000000	29.669774
1620.000000	29.605865
1610.000000	29.465796
1600.000000	29.440109
1590.000000	29.352999
1580.000000	29.253670
1570.000000	29.232394
1560.000000	29.170429
1550.000000	29.106127
1540.000000	28.996783
1530.000000	28.982070
1520.000000	28.856883
1510.000000	28.849240
1500.000000	28.749656
1490.000000	28.718729
1480.000000	28.631784
1470.000000	28.596796
1460.000000	28.524039
1450.000000	28.416330
1440.000000	28.299237
1430.000000	28.132574
1420.000000	28.125549
1410.000000	28.175098
1400.000000	28.151424
1390.000000	28.168498
1380.000000	27.964343
1370.000000	27.877705
1360.000000	27.785974
1350.000000	27.614324
1340.000000	27.587813
1330.000000	27.819343
1320.000000	27.874069
1310.000000	27.791309
1300.000000	27.631869
1290.000000	27.524136
1280.000000	27.341857
1270.000000	27.228666
1260.000000	27.101290
1250.000000	27.086779
1240.000000	27.053388
1230.000000	27.013373
1220.000000	26.816062
1210.000000	26.798567
1200.000000	26.733453
1190.000000	26.743776
1180.000000	26.544771
1170.000000	26.487919
1160.000000	26.377066
1150.000000	26.441896
1140.000000	26.293877
1130.000000	26.171229
1120.000000	26.008304
1110.000000	25.922613
1100.000000	25.956351
1090.000000	25.831889
1080.000000	25.768373
1070.000000	25.734928
1060.000000	25.694677
1050.000000	25.631080
1040.000000	25.436265
1030.000000	25.283999
1020.000000	25.260803
1010.000000	25.322088
1000.000000	25.150879
990.000000	25.095028
980.000000	24.989948
970.000000	24.973576
960.000000	24.925352
950.000000	24.864454
940.000000	24.889389
930.000000	24.635728
920.000000	24.653751
910.000000	24.611442
900.000000	24.792847
890.000000	24.098394
880.000000	24.413138
870.000000	24.106597
860.000000	24.513055
850.000000	23.936573
840.000000	23.719231
830.000000	23.764237
820.000000	23.681269
810.000000	23.667470
800.000000	23.569322
790.000000	23.478683
780.000000	23.380581
770.000000	23.211706
760.000000	23.163901
750.000000	23.250618
740.000000	23.072127
730.000000	22.954798
720.000000	22.923202
710.000000	22.809506
700.000000	22.737817
690.000000	22.680082
680.000000	22.628476
670.000000	22.461958
660.000000	22.463453
650.000000	22.325369
640.000000	22.273730
630.000000	22.219040
620.000000	22.178211
610.000000	22.021627
600.000000	21.967971
590.000000	21.892417
580.000000	21.806624
570.000000	21.779994
560.000000	21.657540
550.000000	21.584911
540.000000	21.534879
530.000000	21.482538
520.000000	21.399529
510.000000	21.322242
500.000000	21.275561
490.000000	21.161876
480.000000	21.127242
470.000000	21.142082
460.000000	21.070531
450.000000	20.936949
440.000000	20.922086
430.000000	20.924922
420.000000	20.886241
410.000000	20.803735
400.000000	20.827687
390.000000	20.874337
380.000000	20.919488
370.000000	20.988801
360.000000	21.322113
350.000000	21.066906
340.000000	21.236235
330.000000	22.467552
320.000000	22.939585
310.000000	22.513328
300.000000	22.848697
290.000000	23.383354
280.000000	24.129028
270.000000	24.380314
260.000000	25.231253
250.000000	26.678407
