PE UV       SUBTECH     SPECTRUM    ASCII       PEDS        4.00        
   -1
OE17D_9667.Sample.asc
23/12/20
08:57:23.00
23/12/20
08:57:23.00
Administrator

250.000000
1
Lambda 750
750N8071901
PerkinElmer UV WinLab 6.0.4.0738 / 1.61.00 Lambda 900

0
0
3350/servo 860.8/2
0
0
UV/VIS
1
1
1
CommonBeamDepol,150mm sphere / downward view
0
0
0
0
Program
Program
3350/servo 860.8/2
3350/0.2 860.8/0.2
3350/0.2 860.8/0.2
0
1
 
 
 
0
 
860.8
319.2
860.8
Front
100
on
 
 
0
0
0
 
0
 
 
 
0
 
 
0
0
0
0
0
 
 
 
 
0
0


0
0
#HDR
-1
-1
#GR
nm
%R
1.0
0.0
2300.000000
-10.000000
206
8
103.286381
99.619961
#DATA
2300.000000	99.647840
2290.000000	100.184387
2280.000000	100.451419
2270.000000	100.064011
2260.000000	100.128684
2250.000000	100.268500
2240.000000	100.056890
2230.000000	99.772265
2220.000000	99.841705
2210.000000	99.955798
2200.000000	99.629455
2190.000000	100.052595
2180.000000	100.542308
2170.000000	100.072219
2160.000000	99.792170
2150.000000	100.093000
2140.000000	100.460905
2130.000000	100.026341
2120.000000	100.144706
2110.000000	99.889661
2100.000000	100.131960
2090.000000	99.914461
2080.000000	100.077716
2070.000000	99.619961
2060.000000	99.838196
2050.000000	100.202280
2040.000000	100.014094
2030.000000	100.199040
2020.000000	100.008148
2010.000000	100.009767
2000.000000	100.115547
1990.000000	100.068162
1980.000000	100.097160
1970.000000	100.148717
1960.000000	100.102410
1950.000000	100.067198
1940.000000	100.249146
1930.000000	100.108755
1920.000000	100.183703
1910.000000	99.936200
1900.000000	100.074032
1890.000000	99.726312
1880.000000	100.054898
1870.000000	100.200940
1860.000000	100.136982
1850.000000	100.063273
1840.000000	100.018882
1830.000000	100.083720
1820.000000	100.053544
1810.000000	100.006231
1800.000000	100.108647
1790.000000	100.122289
1780.000000	100.013544
1770.000000	100.171101
1760.000000	100.039039
1750.000000	99.930683
1740.000000	100.268440
1730.000000	100.169927
1720.000000	99.984877
1710.000000	100.001351
1700.000000	100.046743
1690.000000	100.096730
1680.000000	100.096646
1670.000000	100.159037
1660.000000	100.030021
1650.000000	100.012409
1640.000000	100.068321
1630.000000	100.067701
1620.000000	99.973850
1610.000000	99.947690
1600.000000	100.034534
1590.000000	100.122783
1580.000000	100.069091
1570.000000	100.047749
1560.000000	100.047956
1550.000000	99.966079
1540.000000	100.016148
1530.000000	100.044920
1520.000000	100.000538
1510.000000	100.089318
1500.000000	100.011557
1490.000000	100.021772
1480.000000	100.039202
1470.000000	100.064453
1460.000000	100.021725
1450.000000	100.053341
1440.000000	99.986095
1430.000000	99.986931
1420.000000	100.056338
1410.000000	100.037478
1400.000000	100.044264
1390.000000	100.056855
1380.000000	100.035008
1370.000000	100.037620
1360.000000	100.150809
1350.000000	100.072101
1340.000000	100.009034
1330.000000	100.041834
1320.000000	100.132686
1310.000000	100.095614
1300.000000	100.152632
1290.000000	100.099758
1280.000000	100.064092
1270.000000	100.150767
1260.000000	100.109116
1250.000000	100.107246
1240.000000	100.085481
1230.000000	100.078734
1220.000000	100.122726
1210.000000	100.066431
1200.000000	100.063376
1190.000000	99.956751
1180.000000	100.093478
1170.000000	100.081315
1160.000000	100.109189
1150.000000	100.073939
1140.000000	100.090464
1130.000000	100.042727
1120.000000	100.041678
1110.000000	100.058248
1100.000000	100.119607
1090.000000	100.049286
1080.000000	100.064612
1070.000000	100.135484
1060.000000	100.022383
1050.000000	100.093076
1040.000000	100.118012
1030.000000	100.112723
1020.000000	100.008256
1010.000000	100.109012
1000.000000	100.094545
990.000000	100.099104
980.000000	100.048591
970.000000	100.131544
960.000000	100.143278
950.000000	99.989995
940.000000	100.063935
930.000000	100.035324
920.000000	100.151617
910.000000	100.015386
900.000000	99.984470
890.000000	100.050927
880.000000	100.200947
870.000000	100.145747
860.000000	99.893589
850.000000	99.707543
840.000000	99.667246
830.000000	100.162895
820.000000	99.747278
810.000000	100.068161
800.000000	99.969079
790.000000	99.830421
780.000000	100.227650
770.000000	99.998491
760.000000	99.850677
750.000000	100.254688
740.000000	100.083847
730.000000	99.919031
720.000000	99.989299
710.000000	100.100623
700.000000	100.163044
690.000000	100.160168
680.000000	100.050880
670.000000	99.917134
660.000000	100.022002
650.000000	100.014313
640.000000	100.114243
630.000000	100.200246
620.000000	99.996175
610.000000	99.878114
600.000000	99.808544
590.000000	99.943899
580.000000	99.909323
570.000000	100.004296
560.000000	100.103993
550.000000	100.054719
540.000000	100.009075
530.000000	100.033385
520.000000	100.049989
510.000000	99.974806
500.000000	99.989741
490.000000	99.969307
480.000000	100.013054
470.000000	100.032060
460.000000	99.876680
450.000000	99.986564
440.000000	99.892518
430.000000	100.155476
420.000000	100.073978
410.000000	99.962684
400.000000	99.908573
390.000000	100.177789
380.000000	100.357768
370.000000	99.937015
360.000000	100.811809
350.000000	101.023911
340.000000	101.159440
330.000000	101.371599
320.000000	101.624202
310.000000	103.286381
300.000000	100.691143
290.000000	99.664002
280.000000	100.106987
270.000000	100.352438
260.000000	99.979791
250.000000	100.366897
