PE UV       SUBTECH     SPECTRUM    ASCII       PEDS        4.00        
   -1
OE17D_9667_bis.Sample.asc
23/12/20
09:45:19.00
23/12/20
09:45:19.00
Administrator

250.000000
1
Lambda 750
750N8071901
PerkinElmer UV WinLab 6.0.4.0738 / 1.61.00 Lambda 900

0
0
3350/servo 860.8/2
0
0
UV/VIS
1
1
1
CommonBeamDepol,150mm sphere / downward view
0
0
0
0
Program
Program
3350/servo 860.8/2
3350/0.2 860.8/0.2
3350/0.2 860.8/0.2
0
1
 
 
 
0
 
860.8
319.2
860.8
Front
100
on
 
 
0
0
0
 
0
 
 
 
0
 
 
0
0
0
0
0
 
 
 
 
0
0


0
0
#HDR
-1
-1
#GR
nm
%R
1.0
0.0
2300.000000
-10.000000
206
8
101.723906
99.706265
#DATA
2300.000000	100.318036
2290.000000	100.763693
2280.000000	100.374138
2270.000000	100.291090
2260.000000	100.337864
2250.000000	100.057488
2240.000000	100.011458
2230.000000	100.012089
2220.000000	100.700067
2210.000000	100.054700
2200.000000	100.343706
2190.000000	100.501533
2180.000000	100.584418
2170.000000	100.088378
2160.000000	100.229010
2150.000000	100.491846
2140.000000	100.238964
2130.000000	99.983063
2120.000000	100.200596
2110.000000	100.297594
2100.000000	100.259884
2090.000000	100.373894
2080.000000	100.093395
2070.000000	100.220878
2060.000000	100.006293
2050.000000	100.438810
2040.000000	100.302389
2030.000000	100.267321
2020.000000	100.170441
2010.000000	100.291800
2000.000000	100.222614
1990.000000	99.954461
1980.000000	100.169533
1970.000000	100.070610
1960.000000	99.997451
1950.000000	100.001016
1940.000000	100.118701
1930.000000	99.817673
1920.000000	100.105769
1910.000000	99.936030
1900.000000	100.112335
1890.000000	99.906760
1880.000000	100.174451
1870.000000	100.026537
1860.000000	100.200315
1850.000000	100.157853
1840.000000	100.139454
1830.000000	100.097838
1820.000000	100.108751
1810.000000	100.094573
1800.000000	100.167992
1790.000000	100.181790
1780.000000	100.190927
1770.000000	100.216757
1760.000000	100.134517
1750.000000	100.117419
1740.000000	100.047673
1730.000000	100.198611
1720.000000	100.162470
1710.000000	100.087905
1700.000000	100.094898
1690.000000	100.107281
1680.000000	100.136071
1670.000000	100.139514
1660.000000	100.168720
1650.000000	100.069294
1640.000000	100.144275
1630.000000	100.112433
1620.000000	100.085671
1610.000000	100.051592
1600.000000	100.151589
1590.000000	100.165404
1580.000000	100.091436
1570.000000	100.115245
1560.000000	100.137094
1550.000000	100.072825
1540.000000	100.040178
1530.000000	100.144610
1520.000000	100.125945
1510.000000	100.100848
1500.000000	100.095755
1490.000000	100.063654
1480.000000	100.099053
1470.000000	100.117203
1460.000000	100.079463
1450.000000	100.099662
1440.000000	100.086584
1430.000000	100.042946
1420.000000	100.066285
1410.000000	100.171882
1400.000000	100.128300
1390.000000	100.138892
1380.000000	100.116086
1370.000000	100.118606
1360.000000	100.118384
1350.000000	100.099042
1340.000000	100.083143
1330.000000	100.116321
1320.000000	100.093661
1310.000000	100.037195
1300.000000	100.106211
1290.000000	100.112872
1280.000000	100.110853
1270.000000	100.074683
1260.000000	100.055331
1250.000000	100.118646
1240.000000	100.168578
1230.000000	100.195092
1220.000000	100.156473
1210.000000	100.117259
1200.000000	100.091718
1190.000000	100.113431
1180.000000	100.065059
1170.000000	100.100298
1160.000000	100.123900
1150.000000	100.094231
1140.000000	100.072385
1130.000000	100.055322
1120.000000	100.055574
1110.000000	100.104644
1100.000000	100.127224
1090.000000	100.099656
1080.000000	100.094455
1070.000000	100.191474
1060.000000	100.087327
1050.000000	100.105364
1040.000000	100.064369
1030.000000	100.121495
1020.000000	100.045431
1010.000000	100.122398
1000.000000	100.082121
990.000000	100.040838
980.000000	100.036595
970.000000	100.110010
960.000000	100.077032
950.000000	100.084034
940.000000	100.102828
930.000000	100.083905
920.000000	100.209135
910.000000	100.144580
900.000000	100.082057
890.000000	99.885641
880.000000	99.792113
870.000000	100.021357
860.000000	99.911173
850.000000	100.908143
840.000000	99.955844
830.000000	100.343476
820.000000	100.099823
810.000000	99.755658
800.000000	100.090147
790.000000	100.259476
780.000000	100.142502
770.000000	100.152841
760.000000	100.078715
750.000000	100.328761
740.000000	99.962208
730.000000	99.960201
720.000000	100.140492
710.000000	100.153974
700.000000	99.899302
690.000000	100.086213
680.000000	100.121399
670.000000	100.110685
660.000000	100.111518
650.000000	100.098804
640.000000	100.140918
630.000000	100.211642
620.000000	99.933822
610.000000	99.929558
600.000000	99.954085
590.000000	100.101179
580.000000	99.923371
570.000000	100.086601
560.000000	100.045413
550.000000	99.947675
540.000000	100.006721
530.000000	100.122669
520.000000	100.031800
510.000000	100.034773
500.000000	100.174969
490.000000	100.076750
480.000000	99.924749
470.000000	100.159558
460.000000	100.102049
450.000000	99.864121
440.000000	99.933935
430.000000	99.989471
420.000000	100.179335
410.000000	99.890039
400.000000	99.706265
390.000000	100.087288
380.000000	99.956932
370.000000	99.847928
360.000000	101.196405
350.000000	100.833696
340.000000	100.233356
330.000000	101.723906
320.000000	101.456431
310.000000	100.310093
300.000000	100.024883
290.000000	100.066160
280.000000	100.316501
270.000000	99.990986
260.000000	100.288013
250.000000	100.698975
