PE UV       SUBTECH     SPECTRUM    ASCII       PEDS        4.00        
   -1
OE17D_9667.Sample.asc
23/12/20
09:22:08.00
23/12/20
09:22:08.00
Administrator

250.000000
1
Lambda 750
750N8071901
PerkinElmer UV WinLab 6.0.4.0738 / 1.61.00 Lambda 900

0
0
3350/servo 860.8/2
0
0
UV/VIS
1
1
1
CommonBeamDepol,150mm sphere / downward view
0
0
0
0
Program
Program
3350/servo 860.8/2
3350/0.2 860.8/0.2
3350/0.2 860.8/0.2
0
1
 
 
 
0
 
860.8
319.2
860.8
Front
100
on
 
 
0
0
0
 
0
 
 
 
0
 
 
0
0
0
0
0
 
 
 
 
0
0


0
0
#HDR
-1
-1
#GR
nm
%R
1.0
0.0
2300.000000
-10.000000
206
8
101.759657
98.267622
#DATA
2300.000000	100.359097
2290.000000	99.390511
2280.000000	100.779795
2270.000000	99.882770
2260.000000	99.857041
2250.000000	100.699400
2240.000000	100.306048
2230.000000	100.070143
2220.000000	99.693472
2210.000000	99.649806
2200.000000	100.046430
2190.000000	100.272514
2180.000000	99.592942
2170.000000	99.539757
2160.000000	100.099629
2150.000000	100.738548
2140.000000	100.664463
2130.000000	99.972123
2120.000000	100.033393
2110.000000	99.939155
2100.000000	100.063462
2090.000000	99.873589
2080.000000	99.761905
2070.000000	100.324640
2060.000000	100.376878
2050.000000	99.953094
2040.000000	100.001513
2030.000000	99.983848
2020.000000	100.049598
2010.000000	99.992662
2000.000000	100.232332
1990.000000	100.133853
1980.000000	99.966315
1970.000000	100.193711
1960.000000	99.986992
1950.000000	99.903582
1940.000000	99.865612
1930.000000	100.094178
1920.000000	100.296297
1910.000000	99.987584
1900.000000	100.113852
1890.000000	99.989399
1880.000000	100.192168
1870.000000	100.093546
1860.000000	100.140117
1850.000000	100.044877
1840.000000	100.073542
1830.000000	100.081662
1820.000000	100.083277
1810.000000	100.057478
1800.000000	100.028922
1790.000000	100.012950
1780.000000	100.108857
1770.000000	100.083536
1760.000000	100.007353
1750.000000	100.053534
1740.000000	100.116306
1730.000000	100.051017
1720.000000	100.060575
1710.000000	100.046616
1700.000000	100.085162
1690.000000	100.086660
1680.000000	100.067680
1670.000000	99.994681
1660.000000	99.947087
1650.000000	100.081639
1640.000000	100.018231
1630.000000	100.069086
1620.000000	100.048078
1610.000000	100.042804
1600.000000	100.089445
1590.000000	100.087441
1580.000000	99.973145
1570.000000	100.036481
1560.000000	100.016965
1550.000000	99.941293
1540.000000	100.042018
1530.000000	99.974455
1520.000000	100.109824
1510.000000	99.995449
1500.000000	100.012645
1490.000000	100.072599
1480.000000	100.056367
1470.000000	100.061217
1460.000000	100.001011
1450.000000	100.046967
1440.000000	100.054426
1430.000000	99.945742
1420.000000	100.028668
1410.000000	99.990928
1400.000000	99.996465
1390.000000	100.081151
1380.000000	100.093720
1370.000000	100.020868
1360.000000	100.082245
1350.000000	100.075043
1340.000000	100.099530
1330.000000	100.083993
1320.000000	100.031665
1310.000000	100.116183
1300.000000	100.124742
1290.000000	100.065165
1280.000000	100.028340
1270.000000	100.071978
1260.000000	100.094073
1250.000000	99.988573
1240.000000	100.134244
1230.000000	100.060047
1220.000000	100.013657
1210.000000	100.046333
1200.000000	100.067687
1190.000000	99.980438
1180.000000	100.026389
1170.000000	100.015812
1160.000000	99.991974
1150.000000	99.959215
1140.000000	100.018980
1130.000000	100.010481
1120.000000	100.033684
1110.000000	100.087007
1100.000000	100.012941
1090.000000	100.081937
1080.000000	99.961165
1070.000000	99.973352
1060.000000	100.016014
1050.000000	100.015457
1040.000000	99.993879
1030.000000	100.007339
1020.000000	99.951613
1010.000000	99.994635
1000.000000	100.054921
990.000000	99.980632
980.000000	100.042398
970.000000	100.072698
960.000000	100.146481
950.000000	100.038467
940.000000	100.126552
930.000000	99.992962
920.000000	100.024919
910.000000	100.111069
900.000000	99.908036
890.000000	99.967328
880.000000	99.953963
870.000000	100.062288
860.000000	99.937500
850.000000	99.752304
840.000000	99.945044
830.000000	100.274997
820.000000	100.029999
810.000000	99.632247
800.000000	99.963617
790.000000	100.222695
780.000000	100.204480
770.000000	99.947012
760.000000	99.979861
750.000000	100.151940
740.000000	100.093642
730.000000	99.947502
720.000000	100.169932
710.000000	100.146878
700.000000	100.143705
690.000000	99.915912
680.000000	100.014822
670.000000	100.017498
660.000000	100.161297
650.000000	100.126719
640.000000	100.143191
630.000000	100.046656
620.000000	99.986164
610.000000	100.040249
600.000000	100.039697
590.000000	100.075215
580.000000	100.086417
570.000000	99.945566
560.000000	100.000721
550.000000	100.037249
540.000000	100.001922
530.000000	100.040977
520.000000	100.096510
510.000000	100.126119
500.000000	99.912266
490.000000	100.033118
480.000000	100.187480
470.000000	100.130621
460.000000	100.212557
450.000000	100.274186
440.000000	100.088566
430.000000	100.256261
420.000000	100.077187
410.000000	100.099742
400.000000	99.885881
390.000000	100.134473
380.000000	99.996161
370.000000	99.928624
360.000000	100.232268
350.000000	100.032881
340.000000	99.116659
330.000000	99.325973
320.000000	98.267622
310.000000	101.759657
300.000000	100.380370
290.000000	100.040983
280.000000	100.444275
270.000000	100.060442
260.000000	100.493202
250.000000	99.757821
