PE UV       SUBTECH     SPECTRUM    ASCII       PEDS        4.00        
   -1
noir.Sample.asc
23/09/07
12:26:50.00
23/09/07
12:26:50.00
Administrator

250.000000
1
Lambda 750
750N8071901
PerkinElmer UV WinLab 6.0.4.0738 / 1.61.00 Lambda 900

0
0
3350/servo 860.8/2
0
0
UV/VIS
1
1
1
CommonBeamDepol,150mm sphere / downward view
0
0
0
0
Program
Program
3350/servo 860.8/2
3350/0.2 860.8/0.2
3350/0.2 860.8/0.2
0
1
 
 
 
0
 
860.8
319.2
860.8
Front
100
on
 
 
0
0
0
 
0
 
 
 
0
 
 
0
0
0
0
0
 
 
 
 
0
0


0
0
#HDR
-1
-1
#GR
nm
%R
1.0
0.0
2500.000000
-10.000000
226
8
2.933843
-1.092150
#DATA
2500.000000	0.412480
2490.000000	-0.098858
2480.000000	-0.265920
2470.000000	2.933843
2460.000000	0.692018
2450.000000	-0.313693
2440.000000	1.029192
2430.000000	1.125784
2420.000000	-0.427404
2410.000000	-0.718037
2400.000000	0.095062
2390.000000	2.706210
2380.000000	1.450077
2370.000000	0.282690
2360.000000	0.397483
2350.000000	0.186762
2340.000000	-1.092150
2330.000000	-0.177770
2320.000000	0.820664
2310.000000	-0.441977
2300.000000	0.122255
2290.000000	1.252397
2280.000000	-0.601253
2270.000000	0.367483
2260.000000	0.155769
2250.000000	0.219001
2240.000000	0.344833
2230.000000	0.657820
2220.000000	0.276042
2210.000000	0.412872
2200.000000	0.752748
2190.000000	0.583782
2180.000000	0.948380
2170.000000	0.416394
2160.000000	0.671577
2150.000000	0.125579
2140.000000	0.477619
2130.000000	0.080711
2120.000000	0.490037
2110.000000	0.333752
2100.000000	0.301353
2090.000000	-0.036837
2080.000000	0.078762
2070.000000	0.446039
2060.000000	-0.053712
2050.000000	0.481457
2040.000000	0.418538
2030.000000	0.507983
2020.000000	0.130317
2010.000000	0.314752
2000.000000	0.286932
1990.000000	0.135792
1980.000000	0.155447
1970.000000	0.310770
1960.000000	0.526633
1950.000000	0.479806
1940.000000	0.427038
1930.000000	0.269726
1920.000000	0.075164
1910.000000	0.485302
1900.000000	0.044011
1890.000000	0.713118
1880.000000	0.322265
1870.000000	0.106605
1860.000000	0.403672
1850.000000	0.643290
1840.000000	0.616919
1830.000000	0.495164
1820.000000	0.376235
1810.000000	0.258708
1800.000000	0.422354
1790.000000	0.347529
1780.000000	0.354699
1770.000000	0.371169
1760.000000	0.278304
1750.000000	0.255835
1740.000000	0.360671
1730.000000	0.396306
1720.000000	0.287746
1710.000000	0.457002
1700.000000	0.307930
1690.000000	0.210437
1680.000000	0.254149
1670.000000	0.240738
1660.000000	0.389941
1650.000000	0.261506
1640.000000	0.347075
1630.000000	0.328247
1620.000000	0.311164
1610.000000	0.308353
1600.000000	0.281853
1590.000000	0.328003
1580.000000	0.334897
1570.000000	0.361947
1560.000000	0.355655
1550.000000	0.353942
1540.000000	0.327106
1530.000000	0.343606
1520.000000	0.330658
1510.000000	0.332093
1500.000000	0.328895
1490.000000	0.319442
1480.000000	0.310781
1470.000000	0.246541
1460.000000	0.301788
1450.000000	0.324742
1440.000000	0.288322
1430.000000	0.303051
1420.000000	0.350547
1410.000000	0.293626
1400.000000	0.367743
1390.000000	0.364408
1380.000000	0.297535
1370.000000	0.324471
1360.000000	0.326148
1350.000000	0.287258
1340.000000	0.227995
1330.000000	0.329785
1320.000000	0.228842
1310.000000	0.201300
1300.000000	0.202400
1290.000000	0.299914
1280.000000	0.405646
1270.000000	0.306909
1260.000000	0.261582
1250.000000	0.274805
1240.000000	0.272466
1230.000000	0.264233
1220.000000	0.309140
1210.000000	0.206596
1200.000000	0.245756
1190.000000	0.294486
1180.000000	0.279646
1170.000000	0.265016
1160.000000	0.341147
1150.000000	0.295013
1140.000000	0.252174
1130.000000	0.276874
1120.000000	0.283726
1110.000000	0.294239
1100.000000	0.256135
1090.000000	0.216656
1080.000000	0.305172
1070.000000	0.318860
1060.000000	0.231122
1050.000000	0.321045
1040.000000	0.271536
1030.000000	0.281035
1020.000000	0.258751
1010.000000	0.331640
1000.000000	0.267544
990.000000	0.336769
980.000000	0.190552
970.000000	0.329990
960.000000	0.312334
950.000000	0.315461
940.000000	0.210553
930.000000	0.372968
920.000000	0.384912
910.000000	0.312848
900.000000	0.433159
890.000000	0.173966
880.000000	0.240480
870.000000	0.025270
860.000000	-0.135525
850.000000	0.146331
840.000000	0.100968
830.000000	0.200643
820.000000	0.190235
810.000000	0.182119
800.000000	0.139723
790.000000	0.137022
780.000000	0.136791
770.000000	0.114280
760.000000	0.193601
750.000000	0.189663
740.000000	0.138544
730.000000	0.137221
720.000000	0.169691
710.000000	0.178325
700.000000	0.160772
690.000000	0.127215
680.000000	0.133112
670.000000	0.110648
660.000000	0.142891
650.000000	0.122234
640.000000	0.126438
630.000000	0.117139
620.000000	0.154463
610.000000	0.107441
600.000000	0.113951
590.000000	0.109229
580.000000	0.132572
570.000000	0.130790
560.000000	0.107422
550.000000	0.128865
540.000000	0.104363
530.000000	0.107098
520.000000	0.117771
510.000000	0.114358
500.000000	0.083956
490.000000	0.101267
480.000000	0.096447
470.000000	0.115748
460.000000	0.125202
450.000000	0.089964
440.000000	0.126035
430.000000	0.108620
420.000000	0.103276
410.000000	0.074979
400.000000	0.080233
390.000000	0.077383
380.000000	0.137660
370.000000	0.087903
360.000000	0.150259
350.000000	0.120027
340.000000	0.004712
330.000000	0.378357
320.000000	-0.084556
310.000000	0.317184
300.000000	-0.232760
290.000000	-0.208865
280.000000	-0.301439
270.000000	-0.254771
260.000000	-0.277662
250.000000	-0.270592
