PE UV       SUBTECH     SPECTRUM    ASCII       PEDS        4.00        
   -1
017-2S-XXX-NR005-C001.Sample.asc
24/01/17
15:10:46.00
24/01/17
15:10:46.00
Administrator

250.000000
1
Lambda 750
750N8071901
PerkinElmer UV WinLab 6.0.4.0738 / 1.61.00 Lambda 900

0
0
3350/servo 860.8/2
0
0
UV/VIS
1
1
1
CommonBeamDepol,150mm sphere / downward view
0
0
0
0
Program
Program
3350/servo 860.8/2
3350/0.2 860.8/0.2
3350/0.2 860.8/0.2
0
1
 
 
 
0
 
860.8
319.2
860.8
Front
100
on
 
 
0
0
0
 
0
 
 
 
0
 
 
0
0
0
0
0
 
 
 
 
0
0


0
0
#HDR
-1
-1
#GR
nm
%R
1.0
0.0
2500.000000
-10.000000
226
8
65.832894
18.782225
#DATA
2500.000000	29.749178
2490.000000	29.060971
2480.000000	31.566828
2470.000000	30.847441
2460.000000	31.152389
2450.000000	32.099442
2440.000000	33.255069
2430.000000	34.834451
2420.000000	35.571288
2410.000000	36.881141
2400.000000	33.416977
2390.000000	35.761064
2380.000000	33.698623
2370.000000	34.592450
2360.000000	34.540656
2350.000000	35.843822
2340.000000	34.209324
2330.000000	33.960991
2320.000000	32.914684
2310.000000	31.629609
2300.000000	32.811813
2290.000000	32.409692
2280.000000	32.279217
2270.000000	34.523547
2260.000000	37.428341
2250.000000	38.208689
2240.000000	37.898206
2230.000000	37.331191
2220.000000	37.035487
2210.000000	36.248453
2200.000000	35.843013
2190.000000	35.472367
2180.000000	37.003877
2170.000000	38.376842
2160.000000	39.395624
2150.000000	40.588752
2140.000000	41.481058
2130.000000	41.779034
2120.000000	41.424683
2110.000000	41.417968
2100.000000	41.410745
2090.000000	40.530186
2080.000000	39.297874
2070.000000	37.515316
2060.000000	36.917136
2050.000000	37.620480
2040.000000	38.481125
2030.000000	38.427430
2020.000000	37.562416
2010.000000	36.661941
2000.000000	35.586145
1990.000000	34.197577
1980.000000	33.421184
1970.000000	32.666418
1960.000000	32.269658
1950.000000	32.738870
1940.000000	34.957797
1930.000000	37.744790
1920.000000	42.253540
1910.000000	46.877920
1900.000000	50.780335
1890.000000	53.388021
1880.000000	54.918777
1870.000000	55.466754
1860.000000	55.570669
1850.000000	55.258373
1840.000000	55.043893
1830.000000	54.825973
1820.000000	54.405729
1810.000000	54.323999
1800.000000	53.930839
1790.000000	53.471841
1780.000000	53.163158
1770.000000	52.738569
1760.000000	52.267630
1750.000000	51.980503
1740.000000	52.386958
1730.000000	53.163346
1720.000000	53.701028
1710.000000	53.768197
1700.000000	54.480379
1690.000000	55.863202
1680.000000	57.007790
1670.000000	57.516615
1660.000000	57.491452
1650.000000	57.298189
1640.000000	56.931633
1630.000000	56.546452
1620.000000	55.960424
1610.000000	55.350404
1600.000000	54.937839
1590.000000	54.507293
1580.000000	54.123382
1570.000000	53.961003
1560.000000	53.656603
1550.000000	52.923176
1540.000000	52.247781
1530.000000	51.790106
1520.000000	51.539071
1510.000000	51.498611
1500.000000	51.691393
1490.000000	52.092691
1480.000000	52.506974
1470.000000	52.997628
1460.000000	53.611854
1450.000000	54.403156
1440.000000	55.452626
1430.000000	56.763409
1420.000000	58.321976
1410.000000	59.870007
1400.000000	61.044015
1390.000000	61.759447
1380.000000	62.186506
1370.000000	62.633202
1360.000000	63.249472
1350.000000	63.784287
1340.000000	64.153255
1330.000000	64.223383
1320.000000	64.098183
1310.000000	63.945253
1300.000000	63.831567
1290.000000	63.787498
1280.000000	63.913066
1270.000000	64.018227
1260.000000	64.028025
1250.000000	63.945441
1240.000000	63.764876
1230.000000	63.567518
1220.000000	63.403852
1210.000000	63.171137
1200.000000	63.135259
1190.000000	63.282094
1180.000000	63.675884
1170.000000	64.176410
1160.000000	64.518725
1150.000000	64.791310
1140.000000	64.968484
1130.000000	64.958056
1120.000000	65.003829
1110.000000	64.991952
1100.000000	65.027033
1090.000000	65.068014
1080.000000	65.031094
1070.000000	64.952241
1060.000000	64.953244
1050.000000	64.901217
1040.000000	64.899789
1030.000000	64.779164
1020.000000	64.790108
1010.000000	64.837448
1000.000000	64.969477
990.000000	65.099725
980.000000	65.032376
970.000000	65.207524
960.000000	65.291898
950.000000	65.285302
940.000000	65.282835
930.000000	65.365359
920.000000	65.531992
910.000000	65.588757
900.000000	65.524175
890.000000	65.690357
880.000000	65.617713
870.000000	65.743276
860.000000	65.832894
850.000000	65.181681
840.000000	65.008730
830.000000	65.368826
820.000000	65.285425
810.000000	64.939731
800.000000	65.295460
790.000000	65.339200
780.000000	65.355673
770.000000	64.912850
760.000000	65.350500
750.000000	65.431903
740.000000	65.266769
730.000000	65.227994
720.000000	65.368177
710.000000	65.334657
700.000000	65.124485
690.000000	65.219275
680.000000	65.384909
670.000000	65.223983
660.000000	65.250631
650.000000	65.380268
640.000000	65.299304
630.000000	65.328343
620.000000	65.158850
610.000000	65.158927
600.000000	65.232475
590.000000	65.056734
580.000000	65.089681
570.000000	64.958674
560.000000	64.799682
550.000000	64.707999
540.000000	64.576737
530.000000	64.368727
520.000000	64.123867
510.000000	63.820901
500.000000	63.606721
490.000000	63.227856
480.000000	62.921647
470.000000	62.459782
460.000000	61.978457
450.000000	61.274330
440.000000	60.521458
430.000000	59.465355
420.000000	58.142272
410.000000	56.527603
400.000000	54.737732
390.000000	52.688908
380.000000	50.560455
370.000000	48.141148
360.000000	45.037576
350.000000	42.695424
340.000000	40.307945
330.000000	35.700980
320.000000	32.802775
310.000000	29.863312
300.000000	27.370590
290.000000	22.332142
280.000000	18.782225
270.000000	19.169212
260.000000	20.129084
250.000000	20.596667
