PE UV       SUBTECH     SPECTRUM    ASCII       PEDS        4.00        
   -1
017-2G-XXX-NR006-C001.Sample.asc
24/01/17
15:32:29.00
24/01/17
15:32:29.00
Administrator

250.000000
1
Lambda 750
750N8071901
PerkinElmer UV WinLab 6.0.4.0738 / 1.61.00 Lambda 900

0
0
3350/servo 860.8/2
0
0
UV/VIS
1
1
1
CommonBeamDepol,150mm sphere / downward view
0
0
0
0
Program
Program
3350/servo 860.8/2
3350/0.2 860.8/0.2
3350/0.2 860.8/0.2
0
1
 
 
 
0
 
860.8
319.2
860.8
Front
100
on
 
 
0
0
0
 
0
 
 
 
0
 
 
0
0
0
0
0
 
 
 
 
0
0


0
0
#HDR
-1
-1
#GR
nm
%R
1.0
0.0
2500.000000
-10.000000
226
8
70.287682
22.342508
#DATA
2500.000000	28.901913
2490.000000	25.554460
2480.000000	32.129076
2470.000000	33.476808
2460.000000	29.144793
2450.000000	31.656073
2440.000000	31.856535
2430.000000	32.669898
2420.000000	34.453322
2410.000000	33.410859
2400.000000	32.170345
2390.000000	32.875365
2380.000000	31.707263
2370.000000	32.955471
2360.000000	33.094059
2350.000000	33.555002
2340.000000	32.411734
2330.000000	32.909379
2320.000000	31.785574
2310.000000	30.843465
2300.000000	31.154861
2290.000000	31.440552
2280.000000	32.043983
2270.000000	33.256457
2260.000000	35.900062
2250.000000	36.382950
2240.000000	36.482151
2230.000000	36.056128
2220.000000	35.116308
2210.000000	35.246318
2200.000000	34.887587
2190.000000	34.153204
2180.000000	35.097540
2170.000000	36.617625
2160.000000	37.987538
2150.000000	38.454683
2140.000000	39.190653
2130.000000	39.826555
2120.000000	39.486635
2110.000000	39.617624
2100.000000	40.127733
2090.000000	38.664165
2080.000000	37.919443
2070.000000	36.883781
2060.000000	36.200556
2050.000000	36.476952
2040.000000	37.252958
2030.000000	37.017669
2020.000000	36.513481
2010.000000	36.045569
2000.000000	35.123582
1990.000000	34.018636
1980.000000	33.335700
1970.000000	32.846064
1960.000000	32.725675
1950.000000	33.296607
1940.000000	34.991450
1930.000000	37.785168
1920.000000	41.439363
1910.000000	45.616647
1900.000000	49.724132
1890.000000	52.521435
1880.000000	53.973295
1870.000000	54.798666
1860.000000	54.781548
1850.000000	54.375074
1840.000000	54.012629
1830.000000	53.772504
1820.000000	53.449208
1810.000000	53.162991
1800.000000	53.008769
1790.000000	52.657497
1780.000000	52.107598
1770.000000	51.745310
1760.000000	51.107233
1750.000000	50.912977
1740.000000	51.234056
1730.000000	52.100652
1720.000000	52.676153
1710.000000	52.887411
1700.000000	53.785893
1690.000000	55.441179
1680.000000	56.862396
1670.000000	57.403202
1660.000000	57.497115
1650.000000	57.176566
1640.000000	56.774435
1630.000000	56.211496
1620.000000	55.612138
1610.000000	54.957699
1600.000000	54.511764
1590.000000	54.036625
1580.000000	53.687329
1570.000000	53.400139
1560.000000	52.999046
1550.000000	52.217939
1540.000000	51.557231
1530.000000	51.123951
1520.000000	50.873883
1510.000000	50.902549
1500.000000	51.108052
1490.000000	51.616945
1480.000000	52.050161
1470.000000	52.581860
1460.000000	53.279729
1450.000000	54.204552
1440.000000	55.488440
1430.000000	57.088933
1420.000000	58.921974
1410.000000	60.822030
1400.000000	62.446713
1390.000000	63.419485
1380.000000	64.012775
1370.000000	64.631132
1360.000000	65.410516
1350.000000	66.258239
1340.000000	66.733096
1330.000000	66.981594
1320.000000	66.898775
1310.000000	66.879602
1300.000000	66.820532
1290.000000	66.866041
1280.000000	66.984892
1270.000000	67.069070
1260.000000	67.153093
1250.000000	67.030266
1240.000000	66.693322
1230.000000	66.463668
1220.000000	66.168995
1210.000000	65.888575
1200.000000	65.902453
1190.000000	66.149629
1180.000000	66.787954
1170.000000	67.518492
1160.000000	68.025695
1150.000000	68.369878
1140.000000	68.791309
1130.000000	68.818046
1120.000000	68.955064
1110.000000	69.032746
1100.000000	69.094187
1090.000000	68.999689
1080.000000	68.847749
1070.000000	68.802403
1060.000000	68.741493
1050.000000	68.721843
1040.000000	68.673720
1030.000000	68.653471
1020.000000	68.759827
1010.000000	68.833854
1000.000000	69.013489
990.000000	69.116507
980.000000	69.212110
970.000000	69.368609
960.000000	69.458743
950.000000	69.480894
940.000000	69.521207
930.000000	69.592285
920.000000	69.652575
910.000000	69.776166
900.000000	69.842841
890.000000	70.021040
880.000000	69.791932
870.000000	69.795345
860.000000	70.149474
850.000000	69.873932
840.000000	70.223180
830.000000	70.216312
820.000000	70.205144
810.000000	69.902158
800.000000	70.108185
790.000000	70.221308
780.000000	70.287682
770.000000	69.948817
760.000000	70.177700
750.000000	70.209552
740.000000	70.284353
730.000000	70.133136
720.000000	70.223831
710.000000	70.143843
700.000000	70.068512
690.000000	69.997172
680.000000	70.040704
670.000000	69.838468
660.000000	69.762654
650.000000	69.798996
640.000000	69.524195
630.000000	69.681479
620.000000	69.409305
610.000000	69.371933
600.000000	69.288218
590.000000	69.070734
580.000000	68.968914
570.000000	68.683600
560.000000	68.339163
550.000000	68.067404
540.000000	67.735378
530.000000	67.343046
520.000000	66.863322
510.000000	66.359439
500.000000	65.841389
490.000000	65.171334
480.000000	64.443593
470.000000	63.604505
460.000000	62.826374
450.000000	61.648141
440.000000	60.443188
430.000000	59.220777
420.000000	57.657607
410.000000	56.135594
400.000000	54.434072
390.000000	52.841790
380.000000	50.825544
370.000000	48.812115
360.000000	46.485200
350.000000	44.832078
340.000000	43.583390
330.000000	40.628340
320.000000	38.699856
310.000000	36.896975
300.000000	34.538288
290.000000	27.890244
280.000000	23.045626
270.000000	23.723365
260.000000	24.060895
250.000000	22.342508
