PE UV       SUBTECH     SPECTRUM    ASCII       PEDS        4.00        
   -1
S_aborted_flesh_2layers.Sample.asc
23/09/07
15:57:26.00
23/09/07
15:57:26.00
Administrator

250.000000
1
Lambda 750
750N8071901
PerkinElmer UV WinLab 6.0.4.0738 / 1.61.00 Lambda 900

0
0
3350/servo 860.8/2
0
0
UV/VIS
1
1
1
CommonBeamDepol,150mm sphere / downward view
0
0
0
0
Program
Program
3350/servo 860.8/2
3350/0.2 860.8/0.2
3350/0.2 860.8/0.2
0
1
 
 
 
0
 
860.8
319.2
860.8
Front
100
on
 
 
0
0
0
 
0
 
 
 
0
 
 
0
0
0
0
0
 
 
 
 
0
0


0
0
#HDR
-1
-1
#GR
nm
%R
1.0
0.0
2500.000000
-10.000000
226
8
51.479474
23.740102
#DATA
2500.000000	25.075286
2490.000000	24.185647
2480.000000	26.827016
2470.000000	27.689782
2460.000000	25.149253
2450.000000	27.171492
2440.000000	27.685530
2430.000000	27.794130
2420.000000	27.036658
2410.000000	25.449889
2400.000000	27.102527
2390.000000	26.292375
2380.000000	28.671287
2370.000000	29.369178
2360.000000	28.752994
2350.000000	29.058964
2340.000000	27.315595
2330.000000	28.127376
2320.000000	27.704371
2310.000000	27.296336
2300.000000	26.509035
2290.000000	28.788862
2280.000000	28.922026
2270.000000	29.191615
2260.000000	30.194475
2250.000000	31.063911
2240.000000	31.359478
2230.000000	30.550314
2220.000000	30.904083
2210.000000	30.676853
2200.000000	30.122016
2190.000000	31.058004
2180.000000	31.078776
2170.000000	32.241328
2160.000000	32.517020
2150.000000	33.032269
2140.000000	33.243818
2130.000000	32.706973
2120.000000	33.214576
2110.000000	33.281337
2100.000000	33.117197
2090.000000	32.329289
2080.000000	31.823192
2070.000000	31.067391
2060.000000	30.597677
2050.000000	30.731437
2040.000000	31.280619
2030.000000	31.098013
2020.000000	30.595317
2010.000000	30.066074
2000.000000	29.507684
1990.000000	28.707614
1980.000000	28.036948
1970.000000	27.400322
1960.000000	27.295429
1950.000000	27.850286
1940.000000	28.512185
1930.000000	30.619608
1920.000000	32.604326
1910.000000	35.041960
1900.000000	37.618261
1890.000000	38.871617
1880.000000	39.931939
1870.000000	40.287712
1860.000000	40.442585
1850.000000	40.037160
1840.000000	40.158062
1830.000000	40.005484
1820.000000	39.802304
1810.000000	39.957933
1800.000000	39.860846
1790.000000	39.699483
1780.000000	39.572995
1770.000000	39.482083
1760.000000	39.348995
1750.000000	39.135885
1740.000000	39.185218
1730.000000	39.744788
1720.000000	40.206428
1710.000000	40.610200
1700.000000	41.044054
1690.000000	41.687350
1680.000000	42.157815
1670.000000	42.403018
1660.000000	42.502562
1650.000000	42.448879
1640.000000	42.360286
1630.000000	42.281232
1620.000000	42.066050
1610.000000	41.888887
1600.000000	41.802082
1590.000000	41.726587
1580.000000	41.506118
1570.000000	41.404288
1560.000000	41.245271
1550.000000	40.954372
1540.000000	40.784073
1530.000000	40.564112
1520.000000	40.565371
1510.000000	40.558355
1500.000000	40.603668
1490.000000	40.688403
1480.000000	40.813989
1470.000000	40.955749
1460.000000	41.266378
1450.000000	41.707239
1440.000000	42.330483
1430.000000	43.041471
1420.000000	43.913979
1410.000000	44.754076
1400.000000	45.368050
1390.000000	45.851809
1380.000000	46.085893
1370.000000	46.209212
1360.000000	46.508402
1350.000000	46.696489
1340.000000	46.736757
1330.000000	47.069436
1320.000000	47.507731
1310.000000	47.823683
1300.000000	47.853622
1290.000000	47.810142
1280.000000	47.790765
1270.000000	47.772790
1260.000000	47.786924
1250.000000	47.847223
1240.000000	47.854946
1230.000000	47.691713
1220.000000	47.564099
1210.000000	47.557272
1200.000000	47.839295
1190.000000	48.041473
1180.000000	48.204910
1170.000000	48.467737
1160.000000	48.656143
1150.000000	48.915439
1140.000000	48.997425
1130.000000	48.987237
1120.000000	49.181294
1110.000000	49.230926
1100.000000	49.395016
1090.000000	49.337248
1080.000000	49.326320
1070.000000	49.344426
1060.000000	49.443769
1050.000000	49.439957
1040.000000	49.431219
1030.000000	49.344118
1020.000000	49.562311
1010.000000	49.855497
1000.000000	49.974148
990.000000	50.052213
980.000000	50.208443
970.000000	50.287469
960.000000	50.501675
950.000000	50.591672
940.000000	50.706236
930.000000	50.745079
920.000000	50.974299
910.000000	51.001114
900.000000	51.292267
890.000000	51.234705
880.000000	51.433436
870.000000	51.143860
860.000000	51.479474
850.000000	49.811932
840.000000	50.030845
830.000000	50.235154
820.000000	50.269033
810.000000	50.631160
800.000000	50.516225
790.000000	50.469090
780.000000	50.595294
770.000000	50.370964
760.000000	50.601799
750.000000	50.355483
740.000000	50.405550
730.000000	50.537054
720.000000	50.373028
710.000000	50.254148
700.000000	50.319373
690.000000	50.246785
680.000000	50.135138
670.000000	50.070210
660.000000	50.026707
650.000000	50.041053
640.000000	49.842005
630.000000	49.637407
620.000000	49.382927
610.000000	49.334905
600.000000	49.246896
590.000000	49.209017
580.000000	49.195950
570.000000	49.126273
560.000000	49.168600
550.000000	49.191258
540.000000	49.065701
530.000000	49.027183
520.000000	49.074175
510.000000	49.058407
500.000000	49.028952
490.000000	48.733311
480.000000	48.263723
470.000000	48.091859
460.000000	47.586319
450.000000	46.964923
440.000000	46.101854
430.000000	44.933845
420.000000	43.902711
410.000000	43.059342
400.000000	43.123418
390.000000	43.505467
380.000000	43.646022
370.000000	43.577682
360.000000	43.062614
350.000000	42.381840
340.000000	42.815766
330.000000	41.365997
320.000000	41.022663
310.000000	40.146313
300.000000	35.720824
290.000000	30.073770
280.000000	25.061734
270.000000	23.867446
260.000000	23.740102
250.000000	24.185060
