PE UV       SUBTECH     SPECTRUM    ASCII       PEDS        4.00        
   -1
TDms1240121.Sample.asc
18/03/14
15:09:34.00
18/03/14
15:09:34.00
Administrator

200.000000
1
Lambda 750
750N8071901
PerkinElmer UV WinLab 6.0.4.0738 / 1.61.00 Lambda 900

0
0
3350/servo 860.8/2
0
0
UV/VIS
1
1
1
CommonBeamDepol,150mm sphere / downward view
0
0
0
0
Program
Program
3350/servo 860.8/2
3350/0.2 860.8/0.2
3350/0.2 860.8/0.2
0
1
 
 
 
0
 
860.8
319.2
860.8
Front
100
on
 
 
0
0
0
 
0
 
 
 
0
 
 
0
0
0
0
0
 
 
 
 
0
0


0
0
#HDR
-1
-1
#GR
nm
%T
1.0
0.0
2350.000000
-1.000000
2151
8
3.513574
-0.045779
#DATA
2350.000000	1.410056
2349.000000	1.457168
2348.000000	1.452941
2347.000000	2.097193
2346.000000	1.729047
2345.000000	1.616655
2344.000000	1.554387
2343.000000	1.448911
2342.000000	1.644777
2341.000000	2.089190
2340.000000	1.858976
2339.000000	2.015955
2338.000000	2.436497
2337.000000	2.585963
2336.000000	2.348893
2335.000000	2.395172
2334.000000	2.907069
2333.000000	2.677982
2332.000000	2.571753
2331.000000	2.624587
2330.000000	2.517433
2329.000000	2.444818
2328.000000	2.304549
2327.000000	2.224414
2326.000000	2.450794
2325.000000	2.067775
2324.000000	2.277814
2323.000000	2.063189
2322.000000	2.015102
2321.000000	2.335892
2320.000000	2.314803
2319.000000	2.133281
2318.000000	2.408342
2317.000000	2.367830
2316.000000	2.118876
2315.000000	2.044765
2314.000000	2.257362
2313.000000	2.217240
2312.000000	1.979978
2311.000000	2.140663
2310.000000	2.125026
2309.000000	2.058719
2308.000000	2.082915
2307.000000	2.014024
2306.000000	1.958474
2305.000000	2.132536
2304.000000	2.011311
2303.000000	2.259433
2302.000000	2.360243
2301.000000	2.129911
2300.000000	2.205002
2299.000000	1.960319
2298.000000	2.032876
2297.000000	2.219390
2296.000000	2.201866
2295.000000	2.288849
2294.000000	2.124079
2293.000000	2.114036
2292.000000	1.978364
2291.000000	2.132451
2290.000000	2.170335
2289.000000	2.166241
2288.000000	2.160996
2287.000000	2.113847
2286.000000	2.045414
2285.000000	2.083832
2284.000000	2.015375
2283.000000	1.977331
2282.000000	2.070531
2281.000000	2.134430
2280.000000	2.080593
2279.000000	1.898316
2278.000000	1.946028
2277.000000	2.011074
2276.000000	1.903964
2275.000000	1.955464
2274.000000	2.092349
2273.000000	2.101329
2272.000000	2.178919
2271.000000	2.013408
2270.000000	1.885009
2269.000000	1.996808
2268.000000	2.079062
2267.000000	1.957380
2266.000000	2.126846
2265.000000	2.085621
2264.000000	2.032779
2263.000000	2.085383
2262.000000	2.168807
2261.000000	2.216303
2260.000000	2.212158
2259.000000	2.210813
2258.000000	2.252299
2257.000000	2.068319
2256.000000	2.059125
2255.000000	2.144718
2254.000000	2.078011
2253.000000	2.102704
2252.000000	2.266615
2251.000000	2.394197
2250.000000	2.355140
2249.000000	2.326880
2248.000000	2.345317
2247.000000	2.301884
2246.000000	2.210119
2245.000000	2.214485
2244.000000	2.296847
2243.000000	2.416133
2242.000000	2.480964
2241.000000	2.426863
2240.000000	2.315384
2239.000000	2.268432
2238.000000	2.284655
2237.000000	2.262983
2236.000000	2.331319
2235.000000	2.402422
2234.000000	2.325146
2233.000000	2.408803
2232.000000	2.455030
2231.000000	2.407240
2230.000000	2.449314
2229.000000	2.412040
2228.000000	2.557332
2227.000000	2.632082
2226.000000	2.460981
2225.000000	2.354238
2224.000000	2.324162
2223.000000	2.323357
2222.000000	2.427301
2221.000000	2.424263
2220.000000	2.398792
2219.000000	2.488809
2218.000000	2.462682
2217.000000	2.464218
2216.000000	2.404524
2215.000000	2.366175
2214.000000	2.381633
2213.000000	2.489370
2212.000000	2.553236
2211.000000	2.421914
2210.000000	2.308904
2209.000000	2.319197
2208.000000	2.306306
2207.000000	2.304908
2206.000000	2.370962
2205.000000	2.516830
2204.000000	2.478676
2203.000000	2.353396
2202.000000	2.411652
2201.000000	2.465326
2200.000000	2.441203
2199.000000	2.411614
2198.000000	2.336845
2197.000000	2.406407
2196.000000	2.329233
2195.000000	2.363294
2194.000000	2.327457
2193.000000	2.369084
2192.000000	2.496076
2191.000000	2.394082
2190.000000	2.285502
2189.000000	2.367022
2188.000000	2.264972
2187.000000	2.133481
2186.000000	2.317555
2185.000000	2.295565
2184.000000	2.440450
2183.000000	2.445495
2182.000000	2.418001
2181.000000	2.226498
2180.000000	2.251850
2179.000000	2.360126
2178.000000	2.335476
2177.000000	2.272980
2176.000000	2.203518
2175.000000	2.424772
2174.000000	2.307385
2173.000000	2.262178
2172.000000	2.286134
2171.000000	2.468177
2170.000000	2.444671
2169.000000	2.433058
2168.000000	2.442479
2167.000000	2.323893
2166.000000	2.423202
2165.000000	2.584687
2164.000000	2.482358
2163.000000	2.351430
2162.000000	2.567225
2161.000000	2.414972
2160.000000	2.447626
2159.000000	2.700547
2158.000000	2.524290
2157.000000	2.411690
2156.000000	2.508980
2155.000000	2.565371
2154.000000	2.536123
2153.000000	2.570861
2152.000000	2.660842
2151.000000	2.469976
2150.000000	2.360852
2149.000000	2.358756
2148.000000	2.320921
2147.000000	2.405358
2146.000000	2.367914
2145.000000	2.522802
2144.000000	2.461446
2143.000000	2.545985
2142.000000	2.396170
2141.000000	2.537834
2140.000000	2.375621
2139.000000	2.521412
2138.000000	2.456495
2137.000000	2.366204
2136.000000	2.625806
2135.000000	2.442596
2134.000000	2.550370
2133.000000	2.279482
2132.000000	2.501328
2131.000000	2.635941
2130.000000	2.754967
2129.000000	2.537844
2128.000000	2.546838
2127.000000	2.330711
2126.000000	2.433267
2125.000000	2.331692
2124.000000	2.465858
2123.000000	2.358987
2122.000000	2.441733
2121.000000	2.430674
2120.000000	2.385261
2119.000000	2.450599
2118.000000	2.329237
2117.000000	2.367000
2116.000000	2.280437
2115.000000	2.506878
2114.000000	2.510329
2113.000000	2.480307
2112.000000	2.477148
2111.000000	2.576170
2110.000000	2.340847
2109.000000	2.441568
2108.000000	2.405864
2107.000000	2.403145
2106.000000	2.423651
2105.000000	2.422293
2104.000000	2.399302
2103.000000	2.431089
2102.000000	2.338753
2101.000000	2.406820
2100.000000	2.501440
2099.000000	2.466581
2098.000000	2.460950
2097.000000	2.446820
2096.000000	2.364753
2095.000000	2.395342
2094.000000	2.383516
2093.000000	2.277284
2092.000000	2.401411
2091.000000	2.382927
2090.000000	2.407322
2089.000000	2.247273
2088.000000	2.277511
2087.000000	2.333115
2086.000000	2.325182
2085.000000	2.423922
2084.000000	2.364811
2083.000000	2.312996
2082.000000	2.322115
2081.000000	2.257805
2080.000000	2.327197
2079.000000	2.343819
2078.000000	2.315230
2077.000000	2.336071
2076.000000	2.349934
2075.000000	2.342049
2074.000000	2.283627
2073.000000	2.289747
2072.000000	2.260606
2071.000000	2.263812
2070.000000	2.337795
2069.000000	2.305203
2068.000000	2.284492
2067.000000	2.356916
2066.000000	2.355389
2065.000000	2.321118
2064.000000	2.270064
2063.000000	2.183029
2062.000000	2.156383
2061.000000	2.219850
2060.000000	2.289214
2059.000000	2.198282
2058.000000	2.121199
2057.000000	2.131287
2056.000000	2.171939
2055.000000	2.158723
2054.000000	2.134134
2053.000000	2.084778
2052.000000	2.079836
2051.000000	2.124551
2050.000000	2.063822
2049.000000	2.012111
2048.000000	2.023739
2047.000000	2.072661
2046.000000	2.080509
2045.000000	2.017270
2044.000000	2.009283
2043.000000	2.033630
2042.000000	2.013116
2041.000000	2.024954
2040.000000	2.043181
2039.000000	2.048215
2038.000000	2.007365
2037.000000	1.973997
2036.000000	2.007843
2035.000000	1.978017
2034.000000	1.946912
2033.000000	1.963598
2032.000000	2.032451
2031.000000	2.030336
2030.000000	1.996337
2029.000000	2.051738
2028.000000	2.063132
2027.000000	2.015629
2026.000000	2.042996
2025.000000	2.054415
2024.000000	2.056746
2023.000000	2.063723
2022.000000	2.063913
2021.000000	2.084559
2020.000000	2.070217
2019.000000	2.084953
2018.000000	2.063950
2017.000000	2.031177
2016.000000	2.064288
2015.000000	2.048756
2014.000000	2.016304
2013.000000	2.068525
2012.000000	2.096836
2011.000000	2.095280
2010.000000	2.071628
2009.000000	2.051351
2008.000000	2.043143
2007.000000	2.063656
2006.000000	2.051447
2005.000000	2.032060
2004.000000	2.051461
2003.000000	2.062430
2002.000000	2.051419
2001.000000	2.053996
2000.000000	2.023382
1999.000000	2.034002
1998.000000	2.036599
1997.000000	1.977701
1996.000000	2.008286
1995.000000	2.021163
1994.000000	1.988283
1993.000000	1.969309
1992.000000	2.017133
1991.000000	2.044057
1990.000000	2.028301
1989.000000	1.979397
1988.000000	1.977894
1987.000000	1.965423
1986.000000	1.984242
1985.000000	1.978406
1984.000000	1.959522
1983.000000	1.969110
1982.000000	1.965377
1981.000000	1.996025
1980.000000	1.972722
1979.000000	1.962055
1978.000000	1.949841
1977.000000	1.954898
1976.000000	1.938007
1975.000000	1.946840
1974.000000	1.954859
1973.000000	1.994401
1972.000000	1.998225
1971.000000	1.994546
1970.000000	1.970469
1969.000000	1.959562
1968.000000	1.995158
1967.000000	2.030435
1966.000000	2.025092
1965.000000	2.025145
1964.000000	2.006866
1963.000000	1.969846
1962.000000	1.953125
1961.000000	1.971372
1960.000000	1.954603
1959.000000	1.945261
1958.000000	1.988200
1957.000000	1.937311
1956.000000	2.002596
1955.000000	1.968720
1954.000000	1.948172
1953.000000	1.964009
1952.000000	2.006613
1951.000000	2.074773
1950.000000	1.967530
1949.000000	2.012947
1948.000000	2.006925
1947.000000	1.999747
1946.000000	2.013496
1945.000000	2.051254
1944.000000	2.094716
1943.000000	2.058391
1942.000000	2.082034
1941.000000	2.030947
1940.000000	2.052473
1939.000000	2.054055
1938.000000	2.035573
1937.000000	2.097472
1936.000000	2.060804
1935.000000	2.034019
1934.000000	2.062458
1933.000000	2.067448
1932.000000	2.048773
1931.000000	2.051868
1930.000000	2.015921
1929.000000	2.025179
1928.000000	2.004171
1927.000000	1.998030
1926.000000	2.009657
1925.000000	2.066492
1924.000000	2.016945
1923.000000	1.981408
1922.000000	2.049060
1921.000000	2.111381
1920.000000	2.134584
1919.000000	2.072593
1918.000000	2.027502
1917.000000	2.150049
1916.000000	1.995092
1915.000000	2.023789
1914.000000	2.122753
1913.000000	2.162327
1912.000000	2.129133
1911.000000	2.078201
1910.000000	2.091251
1909.000000	2.064526
1908.000000	2.128385
1907.000000	2.054548
1906.000000	2.042185
1905.000000	2.132554
1904.000000	2.061510
1903.000000	2.080873
1902.000000	2.157803
1901.000000	2.213354
1900.000000	2.218662
1899.000000	2.242362
1898.000000	2.272249
1897.000000	2.272001
1896.000000	2.314257
1895.000000	2.305279
1894.000000	2.349167
1893.000000	2.351983
1892.000000	2.405613
1891.000000	2.448601
1890.000000	2.516410
1889.000000	2.503934
1888.000000	2.547642
1887.000000	2.629199
1886.000000	2.709574
1885.000000	2.776606
1884.000000	2.782230
1883.000000	2.824633
1882.000000	2.915142
1881.000000	2.938943
1880.000000	2.981490
1879.000000	2.975312
1878.000000	2.973310
1877.000000	3.026500
1876.000000	3.042401
1875.000000	3.106780
1874.000000	3.156602
1873.000000	3.078248
1872.000000	3.057667
1871.000000	3.121800
1870.000000	3.133287
1869.000000	3.135384
1868.000000	3.090089
1867.000000	3.062810
1866.000000	3.002887
1865.000000	3.004846
1864.000000	2.988183
1863.000000	3.028705
1862.000000	3.003220
1861.000000	2.984814
1860.000000	3.012399
1859.000000	2.950526
1858.000000	3.005351
1857.000000	3.025639
1856.000000	3.001989
1855.000000	3.035834
1854.000000	3.064491
1853.000000	3.102152
1852.000000	3.090912
1851.000000	3.073123
1850.000000	3.082065
1849.000000	3.085506
1848.000000	3.087974
1847.000000	3.106322
1846.000000	3.111087
1845.000000	3.060744
1844.000000	3.036185
1843.000000	3.099703
1842.000000	3.095832
1841.000000	3.074023
1840.000000	3.059581
1839.000000	3.054401
1838.000000	3.050468
1837.000000	3.006235
1836.000000	3.006397
1835.000000	2.987011
1834.000000	2.950106
1833.000000	2.941641
1832.000000	2.933116
1831.000000	2.928321
1830.000000	2.948469
1829.000000	2.920187
1828.000000	2.872327
1827.000000	2.858646
1826.000000	2.865275
1825.000000	2.879338
1824.000000	2.883796
1823.000000	2.869503
1822.000000	2.849149
1821.000000	2.843451
1820.000000	2.850284
1819.000000	2.858341
1818.000000	2.864578
1817.000000	2.865486
1816.000000	2.849741
1815.000000	2.832738
1814.000000	2.860756
1813.000000	2.851393
1812.000000	2.825677
1811.000000	2.837081
1810.000000	2.857638
1809.000000	2.889306
1808.000000	2.879082
1807.000000	2.858287
1806.000000	2.882380
1805.000000	2.880025
1804.000000	2.867185
1803.000000	2.866740
1802.000000	2.869113
1801.000000	2.895590
1800.000000	2.912042
1799.000000	2.939211
1798.000000	2.941946
1797.000000	2.920043
1796.000000	2.932654
1795.000000	2.966496
1794.000000	2.999713
1793.000000	3.019342
1792.000000	3.033840
1791.000000	3.048228
1790.000000	3.058578
1789.000000	3.058730
1788.000000	3.069507
1787.000000	3.080910
1786.000000	3.093998
1785.000000	3.110416
1784.000000	3.128166
1783.000000	3.152628
1782.000000	3.156635
1781.000000	3.151951
1780.000000	3.133520
1779.000000	3.158416
1778.000000	3.180810
1777.000000	3.169756
1776.000000	3.151477
1775.000000	3.136764
1774.000000	3.115936
1773.000000	3.126918
1772.000000	3.116971
1771.000000	3.111353
1770.000000	3.109273
1769.000000	3.085052
1768.000000	3.067433
1767.000000	3.052855
1766.000000	3.043119
1765.000000	3.067417
1764.000000	3.066842
1763.000000	3.025858
1762.000000	3.034889
1761.000000	3.052784
1760.000000	3.038187
1759.000000	3.023804
1758.000000	3.019730
1757.000000	3.031837
1756.000000	3.026393
1755.000000	3.014728
1754.000000	3.028102
1753.000000	3.012426
1752.000000	3.022575
1751.000000	3.005526
1750.000000	2.976868
1749.000000	3.025964
1748.000000	3.020816
1747.000000	2.983826
1746.000000	2.994789
1745.000000	2.995563
1744.000000	2.979854
1743.000000	2.994606
1742.000000	2.997261
1741.000000	2.958004
1740.000000	2.959506
1739.000000	2.958403
1738.000000	2.950189
1737.000000	2.953011
1736.000000	2.931763
1735.000000	2.936053
1734.000000	2.944588
1733.000000	2.915964
1732.000000	2.896145
1731.000000	2.928601
1730.000000	2.903331
1729.000000	2.922247
1728.000000	2.921236
1727.000000	2.909215
1726.000000	2.893064
1725.000000	2.914172
1724.000000	2.896903
1723.000000	2.900057
1722.000000	2.861546
1721.000000	2.899535
1720.000000	2.886266
1719.000000	2.893851
1718.000000	2.880996
1717.000000	2.931204
1716.000000	2.911740
1715.000000	2.904222
1714.000000	2.905666
1713.000000	2.941925
1712.000000	2.915855
1711.000000	2.917503
1710.000000	2.884431
1709.000000	2.924580
1708.000000	2.918477
1707.000000	2.928030
1706.000000	2.887558
1705.000000	2.884111
1704.000000	2.942080
1703.000000	2.904455
1702.000000	2.900148
1701.000000	2.911326
1700.000000	2.918509
1699.000000	2.893009
1698.000000	2.912568
1697.000000	2.966658
1696.000000	2.949971
1695.000000	2.933041
1694.000000	2.913167
1693.000000	2.940034
1692.000000	2.914733
1691.000000	2.935090
1690.000000	2.933440
1689.000000	2.918514
1688.000000	2.924175
1687.000000	2.913357
1686.000000	2.921618
1685.000000	2.913774
1684.000000	2.916811
1683.000000	2.949586
1682.000000	2.958669
1681.000000	2.973767
1680.000000	2.987948
1679.000000	2.968217
1678.000000	2.997047
1677.000000	2.981237
1676.000000	3.011105
1675.000000	3.016957
1674.000000	3.042113
1673.000000	3.049965
1672.000000	3.017982
1671.000000	3.039334
1670.000000	3.055403
1669.000000	3.076641
1668.000000	3.060575
1667.000000	3.123116
1666.000000	3.086405
1665.000000	3.074563
1664.000000	3.040941
1663.000000	3.062184
1662.000000	3.082260
1661.000000	3.084371
1660.000000	3.102121
1659.000000	3.119551
1658.000000	3.130005
1657.000000	3.144548
1656.000000	3.135223
1655.000000	3.132516
1654.000000	3.140239
1653.000000	3.131703
1652.000000	3.144584
1651.000000	3.130128
1650.000000	3.133884
1649.000000	3.142408
1648.000000	3.123291
1647.000000	3.121119
1646.000000	3.120491
1645.000000	3.118424
1644.000000	3.111111
1643.000000	3.105022
1642.000000	3.101837
1641.000000	3.086819
1640.000000	3.076189
1639.000000	3.075266
1638.000000	3.068736
1637.000000	3.084121
1636.000000	3.075494
1635.000000	3.059107
1634.000000	3.044808
1633.000000	3.015431
1632.000000	3.029158
1631.000000	3.047262
1630.000000	3.040231
1629.000000	3.028114
1628.000000	3.029870
1627.000000	3.038706
1626.000000	3.011413
1625.000000	2.996646
1624.000000	2.994391
1623.000000	3.009348
1622.000000	3.014306
1621.000000	3.020482
1620.000000	3.005024
1619.000000	2.999435
1618.000000	2.993965
1617.000000	2.988552
1616.000000	2.989869
1615.000000	2.997864
1614.000000	3.004002
1613.000000	3.006916
1612.000000	3.009968
1611.000000	2.995165
1610.000000	2.997301
1609.000000	3.013487
1608.000000	3.009181
1607.000000	3.002651
1606.000000	2.992040
1605.000000	2.982577
1604.000000	2.977265
1603.000000	2.988212
1602.000000	3.000148
1601.000000	2.993706
1600.000000	3.007363
1599.000000	3.020754
1598.000000	3.011529
1597.000000	3.011934
1596.000000	3.023544
1595.000000	3.029490
1594.000000	3.033547
1593.000000	3.030855
1592.000000	3.025503
1591.000000	3.032513
1590.000000	3.029616
1589.000000	3.025367
1588.000000	3.040463
1587.000000	3.049698
1586.000000	3.040720
1585.000000	3.029576
1584.000000	3.027663
1583.000000	3.035368
1582.000000	3.034437
1581.000000	3.039525
1580.000000	3.039079
1579.000000	3.032921
1578.000000	3.037537
1577.000000	3.036030
1576.000000	3.035339
1575.000000	3.033713
1574.000000	3.022903
1573.000000	3.022097
1572.000000	3.007852
1571.000000	3.005191
1570.000000	2.997331
1569.000000	2.994489
1568.000000	3.000443
1567.000000	2.975753
1566.000000	2.975503
1565.000000	2.976528
1564.000000	2.970664
1563.000000	2.970081
1562.000000	2.965903
1561.000000	2.946293
1560.000000	2.941727
1559.000000	2.943112
1558.000000	2.916109
1557.000000	2.912640
1556.000000	2.914691
1555.000000	2.897512
1554.000000	2.894226
1553.000000	2.878760
1552.000000	2.860279
1551.000000	2.857612
1550.000000	2.865992
1549.000000	2.860252
1548.000000	2.851450
1547.000000	2.839753
1546.000000	2.814026
1545.000000	2.811219
1544.000000	2.804212
1543.000000	2.782292
1542.000000	2.778405
1541.000000	2.760932
1540.000000	2.766404
1539.000000	2.768283
1538.000000	2.758201
1537.000000	2.742674
1536.000000	2.744531
1535.000000	2.729090
1534.000000	2.716854
1533.000000	2.716271
1532.000000	2.704128
1531.000000	2.706619
1530.000000	2.703781
1529.000000	2.699542
1528.000000	2.690560
1527.000000	2.691363
1526.000000	2.686884
1525.000000	2.691561
1524.000000	2.684299
1523.000000	2.678967
1522.000000	2.693992
1521.000000	2.678662
1520.000000	2.666699
1519.000000	2.651049
1518.000000	2.671159
1517.000000	2.676121
1516.000000	2.688388
1515.000000	2.703173
1514.000000	2.688933
1513.000000	2.679060
1512.000000	2.698085
1511.000000	2.696933
1510.000000	2.704676
1509.000000	2.707273
1508.000000	2.719005
1507.000000	2.714543
1506.000000	2.727398
1505.000000	2.736763
1504.000000	2.739891
1503.000000	2.741445
1502.000000	2.748886
1501.000000	2.738710
1500.000000	2.749433
1499.000000	2.757053
1498.000000	2.748980
1497.000000	2.760273
1496.000000	2.776337
1495.000000	2.785657
1494.000000	2.768788
1493.000000	2.785799
1492.000000	2.779823
1491.000000	2.788392
1490.000000	2.783991
1489.000000	2.798876
1488.000000	2.810245
1487.000000	2.804460
1486.000000	2.795435
1485.000000	2.813203
1484.000000	2.788066
1483.000000	2.790943
1482.000000	2.765700
1481.000000	2.777980
1480.000000	2.784846
1479.000000	2.778486
1478.000000	2.779141
1477.000000	2.774134
1476.000000	2.750947
1475.000000	2.751196
1474.000000	2.758625
1473.000000	2.744306
1472.000000	2.732073
1471.000000	2.723169
1470.000000	2.720156
1469.000000	2.706172
1468.000000	2.705315
1467.000000	2.701141
1466.000000	2.689871
1465.000000	2.695642
1464.000000	2.737031
1463.000000	2.764763
1462.000000	2.781790
1461.000000	2.785410
1460.000000	2.763076
1459.000000	2.737668
1458.000000	2.730976
1457.000000	2.745246
1456.000000	2.759141
1455.000000	2.737717
1454.000000	2.731323
1453.000000	2.732654
1452.000000	2.763129
1451.000000	2.778036
1450.000000	2.769581
1449.000000	2.745377
1448.000000	2.749611
1447.000000	2.751220
1446.000000	2.760664
1445.000000	2.790015
1444.000000	2.799352
1443.000000	2.796951
1442.000000	2.783801
1441.000000	2.785640
1440.000000	2.784006
1439.000000	2.783020
1438.000000	2.784227
1437.000000	2.796560
1436.000000	2.810007
1435.000000	2.815441
1434.000000	2.824964
1433.000000	2.886274
1432.000000	2.909977
1431.000000	2.902999
1430.000000	2.898300
1429.000000	2.908481
1428.000000	2.920399
1427.000000	2.910794
1426.000000	2.885289
1425.000000	2.904068
1424.000000	2.915758
1423.000000	2.933915
1422.000000	2.946365
1421.000000	2.963630
1420.000000	2.963269
1419.000000	2.974861
1418.000000	2.970344
1417.000000	2.955009
1416.000000	2.984738
1415.000000	3.009956
1414.000000	3.026352
1413.000000	3.032010
1412.000000	3.036886
1411.000000	3.035788
1410.000000	3.029453
1409.000000	3.045622
1408.000000	3.052402
1407.000000	3.053459
1406.000000	3.072189
1405.000000	3.085691
1404.000000	3.086462
1403.000000	3.073755
1402.000000	3.086563
1401.000000	3.105893
1400.000000	3.102555
1399.000000	3.089243
1398.000000	3.103305
1397.000000	3.110737
1396.000000	3.105815
1395.000000	3.110891
1394.000000	3.116489
1393.000000	3.122909
1392.000000	3.120359
1391.000000	3.105225
1390.000000	3.091963
1389.000000	3.103632
1388.000000	3.099892
1387.000000	3.084596
1386.000000	3.085055
1385.000000	3.080310
1384.000000	3.077399
1383.000000	3.079399
1382.000000	3.063407
1381.000000	3.064166
1380.000000	3.105992
1379.000000	3.154300
1378.000000	3.200385
1377.000000	3.222943
1376.000000	3.211356
1375.000000	3.181955
1374.000000	3.167718
1373.000000	3.171380
1372.000000	3.175134
1371.000000	3.182985
1370.000000	3.185319
1369.000000	3.170791
1368.000000	3.168284
1367.000000	3.176802
1366.000000	3.187918
1365.000000	3.208621
1364.000000	3.233724
1363.000000	3.230173
1362.000000	3.206780
1361.000000	3.192366
1360.000000	3.182764
1359.000000	3.173966
1358.000000	3.173093
1357.000000	3.181131
1356.000000	3.175363
1355.000000	3.150077
1354.000000	3.132141
1353.000000	3.147032
1352.000000	3.173043
1351.000000	3.164103
1350.000000	3.154958
1349.000000	3.157025
1348.000000	3.156646
1347.000000	3.159503
1346.000000	3.162388
1345.000000	3.170625
1344.000000	3.197213
1343.000000	3.185086
1342.000000	3.185088
1341.000000	3.211798
1340.000000	3.210761
1339.000000	3.197799
1338.000000	3.192345
1337.000000	3.180521
1336.000000	3.187198
1335.000000	3.208916
1334.000000	3.192910
1333.000000	3.169990
1332.000000	3.149006
1331.000000	3.171451
1330.000000	3.190999
1329.000000	3.169390
1328.000000	3.141229
1327.000000	3.146073
1326.000000	3.155041
1325.000000	3.138646
1324.000000	3.125559
1323.000000	3.134884
1322.000000	3.156277
1321.000000	3.166284
1320.000000	3.141009
1319.000000	3.117519
1318.000000	3.095278
1317.000000	3.117431
1316.000000	3.150836
1315.000000	3.150007
1314.000000	3.128656
1313.000000	3.110742
1312.000000	3.090057
1311.000000	3.111279
1310.000000	3.125625
1309.000000	3.141078
1308.000000	3.153196
1307.000000	3.140974
1306.000000	3.113623
1305.000000	3.111165
1304.000000	3.113536
1303.000000	3.127633
1302.000000	3.164715
1301.000000	3.174525
1300.000000	3.178386
1299.000000	3.152532
1298.000000	3.153975
1297.000000	3.160864
1296.000000	3.170156
1295.000000	3.188388
1294.000000	3.195926
1293.000000	3.184823
1292.000000	3.193038
1291.000000	3.182975
1290.000000	3.186378
1289.000000	3.204569
1288.000000	3.197423
1287.000000	3.195324
1286.000000	3.177736
1285.000000	3.147962
1284.000000	3.148510
1283.000000	3.162856
1282.000000	3.150615
1281.000000	3.160734
1280.000000	3.164232
1279.000000	3.165462
1278.000000	3.167646
1277.000000	3.159402
1276.000000	3.168332
1275.000000	3.136925
1274.000000	3.112828
1273.000000	3.129430
1272.000000	3.115601
1271.000000	3.122966
1270.000000	3.098653
1269.000000	3.080502
1268.000000	3.092298
1267.000000	3.067358
1266.000000	3.088633
1265.000000	3.050475
1264.000000	3.048123
1263.000000	3.107009
1262.000000	3.120757
1261.000000	3.088497
1260.000000	3.087041
1259.000000	3.075854
1258.000000	3.081524
1257.000000	3.114957
1256.000000	3.122891
1255.000000	3.102270
1254.000000	3.101541
1253.000000	3.117121
1252.000000	3.114345
1251.000000	3.089809
1250.000000	3.112482
1249.000000	3.115200
1248.000000	3.134866
1247.000000	3.142784
1246.000000	3.119705
1245.000000	3.150272
1244.000000	3.154870
1243.000000	3.152679
1242.000000	3.129614
1241.000000	3.122989
1240.000000	3.142257
1239.000000	3.154756
1238.000000	3.161798
1237.000000	3.140104
1236.000000	3.138539
1235.000000	3.152282
1234.000000	3.121196
1233.000000	3.102477
1232.000000	3.127431
1231.000000	3.149140
1230.000000	3.146918
1229.000000	3.109063
1228.000000	3.106140
1227.000000	3.109249
1226.000000	3.108502
1225.000000	3.109997
1224.000000	3.095362
1223.000000	3.088758
1222.000000	3.088959
1221.000000	3.077959
1220.000000	3.061785
1219.000000	3.047218
1218.000000	3.039191
1217.000000	3.022075
1216.000000	3.000229
1215.000000	3.002989
1214.000000	2.997186
1213.000000	2.997377
1212.000000	3.003449
1211.000000	2.988555
1210.000000	2.976559
1209.000000	2.986781
1208.000000	2.990270
1207.000000	2.992818
1206.000000	3.005412
1205.000000	2.991944
1204.000000	2.970537
1203.000000	2.974138
1202.000000	2.992752
1201.000000	2.999285
1200.000000	2.993533
1199.000000	3.001234
1198.000000	3.024110
1197.000000	3.024844
1196.000000	3.007364
1195.000000	3.001677
1194.000000	3.008748
1193.000000	3.008143
1192.000000	3.019722
1191.000000	3.020444
1190.000000	2.996121
1189.000000	2.958434
1188.000000	2.964331
1187.000000	2.987380
1186.000000	2.979801
1185.000000	2.982989
1184.000000	2.991624
1183.000000	2.983031
1182.000000	2.986499
1181.000000	3.000659
1180.000000	3.008786
1179.000000	3.018262
1178.000000	3.015214
1177.000000	3.022252
1176.000000	3.039680
1175.000000	3.048160
1174.000000	3.044474
1173.000000	3.045324
1172.000000	3.041256
1171.000000	3.048513
1170.000000	3.043216
1169.000000	3.035074
1168.000000	3.032326
1167.000000	3.043116
1166.000000	3.053220
1165.000000	3.057226
1164.000000	3.061698
1163.000000	3.060332
1162.000000	3.048851
1161.000000	3.049269
1160.000000	3.036624
1159.000000	3.016147
1158.000000	3.031926
1157.000000	3.038564
1156.000000	3.033123
1155.000000	3.036878
1154.000000	3.043697
1153.000000	3.063391
1152.000000	3.069066
1151.000000	3.062126
1150.000000	3.066351
1149.000000	3.069435
1148.000000	3.071949
1147.000000	3.073688
1146.000000	3.075769
1145.000000	3.079760
1144.000000	3.049416
1143.000000	3.027791
1142.000000	3.041560
1141.000000	3.059056
1140.000000	3.069625
1139.000000	3.066580
1138.000000	3.069454
1137.000000	3.072840
1136.000000	3.086741
1135.000000	3.098011
1134.000000	3.097587
1133.000000	3.101152
1132.000000	3.084473
1131.000000	3.057237
1130.000000	3.048607
1129.000000	3.058604
1128.000000	3.063935
1127.000000	3.070851
1126.000000	3.088304
1125.000000	3.079393
1124.000000	3.063524
1123.000000	3.065176
1122.000000	3.077768
1121.000000	3.086282
1120.000000	3.072694
1119.000000	3.068750
1118.000000	3.067071
1117.000000	3.058113
1116.000000	3.062945
1115.000000	3.083395
1114.000000	3.080809
1113.000000	3.073350
1112.000000	3.078340
1111.000000	3.080006
1110.000000	3.069149
1109.000000	3.071954
1108.000000	3.079915
1107.000000	3.060574
1106.000000	3.046044
1105.000000	3.047414
1104.000000	3.060662
1103.000000	3.062510
1102.000000	3.079413
1101.000000	3.080293
1100.000000	3.082517
1099.000000	3.081960
1098.000000	3.097522
1097.000000	3.103255
1096.000000	3.069695
1095.000000	3.060772
1094.000000	3.074773
1093.000000	3.076862
1092.000000	3.074769
1091.000000	3.089299
1090.000000	3.110882
1089.000000	3.070487
1088.000000	3.052152
1087.000000	3.062294
1086.000000	3.064947
1085.000000	3.083055
1084.000000	3.112060
1083.000000	3.081028
1082.000000	3.061562
1081.000000	3.074230
1080.000000	3.078804
1079.000000	3.078001
1078.000000	3.073937
1077.000000	3.101104
1076.000000	3.070178
1075.000000	3.070835
1074.000000	3.060510
1073.000000	3.072673
1072.000000	3.077461
1071.000000	3.072174
1070.000000	3.075135
1069.000000	3.068751
1068.000000	3.066499
1067.000000	3.066105
1066.000000	3.064478
1065.000000	3.075758
1064.000000	3.083432
1063.000000	3.085947
1062.000000	3.064851
1061.000000	3.068362
1060.000000	3.066161
1059.000000	3.070585
1058.000000	3.088519
1057.000000	3.089310
1056.000000	3.065002
1055.000000	3.054210
1054.000000	3.084419
1053.000000	3.074219
1052.000000	3.077569
1051.000000	3.061111
1050.000000	3.059876
1049.000000	3.075975
1048.000000	3.063004
1047.000000	3.091853
1046.000000	3.071567
1045.000000	3.069534
1044.000000	3.082510
1043.000000	3.076764
1042.000000	3.049142
1041.000000	3.045616
1040.000000	3.065749
1039.000000	3.093080
1038.000000	3.055121
1037.000000	3.064927
1036.000000	3.064664
1035.000000	3.095001
1034.000000	3.071760
1033.000000	3.077374
1032.000000	3.076018
1031.000000	3.082077
1030.000000	3.084106
1029.000000	3.076707
1028.000000	3.084926
1027.000000	3.076199
1026.000000	3.072034
1025.000000	3.085764
1024.000000	3.108190
1023.000000	3.065228
1022.000000	3.057022
1021.000000	3.076664
1020.000000	3.077981
1019.000000	3.078884
1018.000000	3.092120
1017.000000	3.084955
1016.000000	3.079826
1015.000000	3.107248
1014.000000	3.099308
1013.000000	3.086362
1012.000000	3.086491
1011.000000	3.103606
1010.000000	3.113395
1009.000000	3.127307
1008.000000	3.129191
1007.000000	3.140430
1006.000000	3.160686
1005.000000	3.160277
1004.000000	3.167375
1003.000000	3.172693
1002.000000	3.183043
1001.000000	3.183985
1000.000000	3.194937
999.000000	3.197181
998.000000	3.198284
997.000000	3.189790
996.000000	3.200261
995.000000	3.205286
994.000000	3.200025
993.000000	3.212140
992.000000	3.229913
991.000000	3.225460
990.000000	3.217510
989.000000	3.223862
988.000000	3.232188
987.000000	3.222801
986.000000	3.210525
985.000000	3.217145
984.000000	3.226716
983.000000	3.212773
982.000000	3.222389
981.000000	3.227097
980.000000	3.216830
979.000000	3.232517
978.000000	3.235015
977.000000	3.251084
976.000000	3.261615
975.000000	3.232325
974.000000	3.235737
973.000000	3.224198
972.000000	3.229088
971.000000	3.234453
970.000000	3.241933
969.000000	3.244869
968.000000	3.246637
967.000000	3.257395
966.000000	3.252422
965.000000	3.252858
964.000000	3.250741
963.000000	3.241839
962.000000	3.243940
961.000000	3.252533
960.000000	3.275279
959.000000	3.277124
958.000000	3.267226
957.000000	3.258247
956.000000	3.257506
955.000000	3.277242
954.000000	3.287856
953.000000	3.286926
952.000000	3.291641
951.000000	3.288811
950.000000	3.312587
949.000000	3.326109
948.000000	3.307859
947.000000	3.296053
946.000000	3.293945
945.000000	3.298917
944.000000	3.308226
943.000000	3.286327
942.000000	3.275073
941.000000	3.310318
940.000000	3.328964
939.000000	3.293873
938.000000	3.297689
937.000000	3.329449
936.000000	3.309465
935.000000	3.303773
934.000000	3.309285
933.000000	3.294109
932.000000	3.300525
931.000000	3.308002
930.000000	3.323651
929.000000	3.324973
928.000000	3.318026
927.000000	3.326542
926.000000	3.324975
925.000000	3.332359
924.000000	3.323291
923.000000	3.337965
922.000000	3.351493
921.000000	3.322699
920.000000	3.346502
919.000000	3.358607
918.000000	3.349075
917.000000	3.342763
916.000000	3.341663
915.000000	3.365477
914.000000	3.387114
913.000000	3.364175
912.000000	3.373114
911.000000	3.388988
910.000000	3.359896
909.000000	3.345220
908.000000	3.367373
907.000000	3.425786
906.000000	3.406045
905.000000	3.398906
904.000000	3.377811
903.000000	3.402421
902.000000	3.406542
901.000000	3.415896
900.000000	3.454401
899.000000	3.454253
898.000000	3.426729
897.000000	3.454965
896.000000	3.415638
895.000000	3.390255
894.000000	3.426264
893.000000	3.450730
892.000000	3.433104
891.000000	3.361646
890.000000	3.389826
889.000000	3.394219
888.000000	3.418898
887.000000	3.468764
886.000000	3.383919
885.000000	3.446178
884.000000	3.445049
883.000000	3.491304
882.000000	3.513574
881.000000	3.415424
880.000000	3.378646
879.000000	3.347474
878.000000	3.433893
877.000000	3.477143
876.000000	3.444506
875.000000	3.380572
874.000000	3.395620
873.000000	3.316801
872.000000	3.330783
871.000000	3.415254
870.000000	3.510750
869.000000	3.419148
868.000000	3.498586
867.000000	3.417605
866.000000	3.401934
865.000000	3.458368
864.000000	3.367611
863.000000	3.395908
862.000000	3.326136
861.000000	3.378779
860.000000	3.271629
859.000000	2.626004
858.000000	2.544877
857.000000	2.518629
856.000000	2.499517
855.000000	2.509861
854.000000	2.515587
853.000000	2.451345
852.000000	2.462753
851.000000	2.509739
850.000000	2.551087
849.000000	2.499225
848.000000	2.485936
847.000000	2.504170
846.000000	2.490246
845.000000	2.477494
844.000000	2.462729
843.000000	2.491177
842.000000	2.508231
841.000000	2.493332
840.000000	2.472882
839.000000	2.475805
838.000000	2.456013
837.000000	2.473742
836.000000	2.462942
835.000000	2.468063
834.000000	2.473561
833.000000	2.456146
832.000000	2.475989
831.000000	2.487603
830.000000	2.468050
829.000000	2.438913
828.000000	2.464417
827.000000	2.434121
826.000000	2.432472
825.000000	2.445314
824.000000	2.459674
823.000000	2.436382
822.000000	2.451618
821.000000	2.418317
820.000000	2.443502
819.000000	2.440848
818.000000	2.433201
817.000000	2.427899
816.000000	2.429129
815.000000	2.410422
814.000000	2.416614
813.000000	2.410165
812.000000	2.413208
811.000000	2.406479
810.000000	2.414278
809.000000	2.409073
808.000000	2.405484
807.000000	2.421900
806.000000	2.411658
805.000000	2.396431
804.000000	2.390656
803.000000	2.373206
802.000000	2.381199
801.000000	2.381923
800.000000	2.375393
799.000000	2.380605
798.000000	2.373107
797.000000	2.367570
796.000000	2.361033
795.000000	2.367074
794.000000	2.362887
793.000000	2.372593
792.000000	2.361431
791.000000	2.357196
790.000000	2.358186
789.000000	2.347004
788.000000	2.333158
787.000000	2.337790
786.000000	2.319881
785.000000	2.327870
784.000000	2.330351
783.000000	2.327790
782.000000	2.331320
781.000000	2.338144
780.000000	2.321899
779.000000	2.322456
778.000000	2.319539
777.000000	2.311496
776.000000	2.302159
775.000000	2.303215
774.000000	2.295114
773.000000	2.290418
772.000000	2.283002
771.000000	2.295935
770.000000	2.290991
769.000000	2.290515
768.000000	2.286233
767.000000	2.283967
766.000000	2.270063
765.000000	2.267473
764.000000	2.263118
763.000000	2.268779
762.000000	2.266351
761.000000	2.261846
760.000000	2.256138
759.000000	2.249984
758.000000	2.245303
757.000000	2.242049
756.000000	2.240731
755.000000	2.229390
754.000000	2.218484
753.000000	2.218575
752.000000	2.224836
751.000000	2.226841
750.000000	2.216554
749.000000	2.205856
748.000000	2.200455
747.000000	2.203501
746.000000	2.203045
745.000000	2.198059
744.000000	2.194169
743.000000	2.184849
742.000000	2.177242
741.000000	2.183592
740.000000	2.176389
739.000000	2.169245
738.000000	2.160217
737.000000	2.161784
736.000000	2.153257
735.000000	2.147704
734.000000	2.149068
733.000000	2.140315
732.000000	2.133836
731.000000	2.126095
730.000000	2.130028
729.000000	2.124010
728.000000	2.116696
727.000000	2.109906
726.000000	2.105525
725.000000	2.099009
724.000000	2.091179
723.000000	2.089820
722.000000	2.087596
721.000000	2.082924
720.000000	2.076365
719.000000	2.069771
718.000000	2.064623
717.000000	2.060337
716.000000	2.057290
715.000000	2.047055
714.000000	2.040425
713.000000	2.042535
712.000000	2.039844
711.000000	2.034827
710.000000	2.033970
709.000000	2.028076
708.000000	2.013679
707.000000	2.010764
706.000000	2.007349
705.000000	2.003126
704.000000	2.000193
703.000000	1.996549
702.000000	1.987157
701.000000	1.975932
700.000000	1.974003
699.000000	1.979253
698.000000	1.975027
697.000000	1.965240
696.000000	1.956686
695.000000	1.948911
694.000000	1.949473
693.000000	1.943606
692.000000	1.935224
691.000000	1.931768
690.000000	1.921460
689.000000	1.905157
688.000000	1.901867
687.000000	1.896845
686.000000	1.892562
685.000000	1.887547
684.000000	1.881549
683.000000	1.874634
682.000000	1.868689
681.000000	1.860783
680.000000	1.858439
679.000000	1.853259
678.000000	1.849034
677.000000	1.838206
676.000000	1.832984
675.000000	1.835256
674.000000	1.820832
673.000000	1.817083
672.000000	1.817653
671.000000	1.808378
670.000000	1.800678
669.000000	1.797875
668.000000	1.788966
667.000000	1.785339
666.000000	1.781300
665.000000	1.776060
664.000000	1.768153
663.000000	1.757883
662.000000	1.755521
661.000000	1.749463
660.000000	1.743128
659.000000	1.737012
658.000000	1.732452
657.000000	1.724571
656.000000	1.715409
655.000000	1.714321
654.000000	1.708277
653.000000	1.703895
652.000000	1.694976
651.000000	1.684060
650.000000	1.684606
649.000000	1.679956
648.000000	1.673788
647.000000	1.667957
646.000000	1.658158
645.000000	1.653586
644.000000	1.641028
643.000000	1.640059
642.000000	1.635770
641.000000	1.629289
640.000000	1.620359
639.000000	1.614377
638.000000	1.605766
637.000000	1.604185
636.000000	1.598561
635.000000	1.591780
634.000000	1.583758
633.000000	1.576178
632.000000	1.577409
631.000000	1.569659
630.000000	1.559330
629.000000	1.554485
628.000000	1.551560
627.000000	1.544478
626.000000	1.537575
625.000000	1.533952
624.000000	1.524697
623.000000	1.518739
622.000000	1.510830
621.000000	1.501897
620.000000	1.494120
619.000000	1.491029
618.000000	1.482714
617.000000	1.480568
616.000000	1.471927
615.000000	1.466852
614.000000	1.461673
613.000000	1.454830
612.000000	1.450485
611.000000	1.448013
610.000000	1.434206
609.000000	1.429987
608.000000	1.427222
607.000000	1.420824
606.000000	1.412488
605.000000	1.405464
604.000000	1.401235
603.000000	1.389740
602.000000	1.381604
601.000000	1.381605
600.000000	1.371088
599.000000	1.368630
598.000000	1.362914
597.000000	1.356816
596.000000	1.351983
595.000000	1.345574
594.000000	1.335929
593.000000	1.332621
592.000000	1.322067
591.000000	1.321347
590.000000	1.310652
589.000000	1.309756
588.000000	1.297697
587.000000	1.289798
586.000000	1.283522
585.000000	1.281460
584.000000	1.274522
583.000000	1.272310
582.000000	1.265106
581.000000	1.255382
580.000000	1.250654
579.000000	1.243736
578.000000	1.239559
577.000000	1.233924
576.000000	1.227017
575.000000	1.222222
574.000000	1.214487
573.000000	1.205418
572.000000	1.200744
571.000000	1.197219
570.000000	1.186669
569.000000	1.178079
568.000000	1.175773
567.000000	1.166852
566.000000	1.162412
565.000000	1.158093
564.000000	1.141398
563.000000	1.142732
562.000000	1.132931
561.000000	1.127889
560.000000	1.120516
559.000000	1.127180
558.000000	1.113525
557.000000	1.110878
556.000000	1.097217
555.000000	1.087343
554.000000	1.085548
553.000000	1.076838
552.000000	1.079631
551.000000	1.071903
550.000000	1.061906
549.000000	1.051956
548.000000	1.049083
547.000000	1.037142
546.000000	1.032192
545.000000	1.030035
544.000000	1.022200
543.000000	1.015785
542.000000	1.007721
541.000000	1.002077
540.000000	0.989953
539.000000	0.985616
538.000000	0.977231
537.000000	0.965990
536.000000	0.960236
535.000000	0.960060
534.000000	0.953973
533.000000	0.946144
532.000000	0.934917
531.000000	0.929111
530.000000	0.926783
529.000000	0.915922
528.000000	0.904882
527.000000	0.896958
526.000000	0.886538
525.000000	0.881549
524.000000	0.874907
523.000000	0.864224
522.000000	0.857850
521.000000	0.850466
520.000000	0.838088
519.000000	0.833027
518.000000	0.822054
517.000000	0.814804
516.000000	0.810198
515.000000	0.803352
514.000000	0.787945
513.000000	0.781094
512.000000	0.768633
511.000000	0.759235
510.000000	0.759624
509.000000	0.750205
508.000000	0.739103
507.000000	0.727800
506.000000	0.715014
505.000000	0.707705
504.000000	0.706190
503.000000	0.701404
502.000000	0.689787
501.000000	0.678773
500.000000	0.671662
499.000000	0.664649
498.000000	0.659610
497.000000	0.651565
496.000000	0.643821
495.000000	0.637036
494.000000	0.631619
493.000000	0.627564
492.000000	0.619685
491.000000	0.615290
490.000000	0.609247
489.000000	0.602883
488.000000	0.599021
487.000000	0.591752
486.000000	0.586918
485.000000	0.582172
484.000000	0.573967
483.000000	0.571498
482.000000	0.570145
481.000000	0.565983
480.000000	0.560655
479.000000	0.551770
478.000000	0.539375
477.000000	0.531760
476.000000	0.526466
475.000000	0.520242
474.000000	0.515488
473.000000	0.507086
472.000000	0.496923
471.000000	0.488309
470.000000	0.481947
469.000000	0.474317
468.000000	0.466796
467.000000	0.459706
466.000000	0.453209
465.000000	0.444619
464.000000	0.434410
463.000000	0.426503
462.000000	0.422361
461.000000	0.416003
460.000000	0.405403
459.000000	0.397896
458.000000	0.391999
457.000000	0.386228
456.000000	0.382501
455.000000	0.378316
454.000000	0.369510
453.000000	0.361460
452.000000	0.356679
451.000000	0.351885
450.000000	0.347306
449.000000	0.341252
448.000000	0.335774
447.000000	0.331240
446.000000	0.325201
445.000000	0.322432
444.000000	0.321658
443.000000	0.314227
442.000000	0.308703
441.000000	0.303188
440.000000	0.295779
439.000000	0.289352
438.000000	0.283641
437.000000	0.276164
436.000000	0.269924
435.000000	0.263263
434.000000	0.258325
433.000000	0.253126
432.000000	0.248737
431.000000	0.244129
430.000000	0.238720
429.000000	0.233359
428.000000	0.225474
427.000000	0.222637
426.000000	0.219429
425.000000	0.213627
424.000000	0.205715
423.000000	0.202096
422.000000	0.196936
421.000000	0.193827
420.000000	0.190495
419.000000	0.186498
418.000000	0.179784
417.000000	0.171204
416.000000	0.167367
415.000000	0.164441
414.000000	0.160434
413.000000	0.152603
412.000000	0.148403
411.000000	0.143324
410.000000	0.139850
409.000000	0.135377
408.000000	0.133938
407.000000	0.124023
406.000000	0.121358
405.000000	0.122882
404.000000	0.115691
403.000000	0.109964
402.000000	0.107862
401.000000	0.102098
400.000000	0.098067
399.000000	0.095390
398.000000	0.091255
397.000000	0.090199
396.000000	0.086675
395.000000	0.082251
394.000000	0.079343
393.000000	0.074832
392.000000	0.073015
391.000000	0.070384
390.000000	0.071149
389.000000	0.065439
388.000000	0.062807
387.000000	0.056992
386.000000	0.054791
385.000000	0.050947
384.000000	0.051521
383.000000	0.046569
382.000000	0.044977
381.000000	0.042834
380.000000	0.041870
379.000000	0.039377
378.000000	0.039162
377.000000	0.061292
376.000000	0.054786
375.000000	0.044873
374.000000	0.053275
373.000000	0.049482
372.000000	0.034443
371.000000	0.034066
370.000000	0.032136
369.000000	0.033753
368.000000	0.026399
367.000000	0.025171
366.000000	0.025852
365.000000	0.025593
364.000000	0.020445
363.000000	0.020430
362.000000	0.020508
361.000000	0.013520
360.000000	0.016416
359.000000	0.013233
358.000000	0.010531
357.000000	0.002796
356.000000	0.008963
355.000000	0.003076
354.000000	-0.001678
353.000000	0.005126
352.000000	0.007464
351.000000	0.007547
350.000000	0.003439
349.000000	-0.002603
348.000000	0.003636
347.000000	0.000279
346.000000	-0.001859
345.000000	0.000465
344.000000	-0.002697
343.000000	-0.001303
342.000000	-0.003344
341.000000	-0.000744
340.000000	-0.012375
339.000000	-0.000837
338.000000	0.000186
337.000000	-0.007624
336.000000	-0.004746
335.000000	0.002231
334.000000	-0.008168
333.000000	-0.004921
332.000000	-0.005848
331.000000	-0.010855
330.000000	-0.005489
329.000000	-0.009106
328.000000	-0.003426
327.000000	-0.011200
326.000000	-0.015720
325.000000	-0.015137
324.000000	-0.015182
323.000000	0.000927
322.000000	-0.020499
321.000000	-0.008590
320.000000	-0.008905
319.000000	-0.019139
318.000000	-0.006642
317.000000	-0.008824
316.000000	0.004141
315.000000	0.005056
314.000000	-0.000369
313.000000	0.004140
312.000000	-0.002673
311.000000	-0.006181
310.000000	-0.006271
309.000000	0.005633
308.000000	0.005340
307.000000	-0.003956
306.000000	-0.002024
305.000000	-0.005169
304.000000	0.000920
303.000000	0.005252
302.000000	-0.007012
301.000000	-0.002124
300.000000	0.003877
299.000000	-0.003691
298.000000	-0.002491
297.000000	-0.000092
296.000000	-0.000553
295.000000	-0.000462
294.000000	0.001015
293.000000	0.008024
292.000000	0.002760
291.000000	-0.000645
290.000000	0.006528
289.000000	0.002757
288.000000	-0.000367
287.000000	-0.006522
286.000000	0.001011
285.000000	0.000184
284.000000	-0.010874
283.000000	-0.009412
282.000000	-0.001847
281.000000	-0.004708
280.000000	-0.005182
279.000000	0.000556
278.000000	-0.004178
277.000000	-0.006792
276.000000	-0.006427
275.000000	-0.008397
274.000000	0.003458
273.000000	0.005994
272.000000	0.000094
271.000000	0.002448
270.000000	0.002929
269.000000	0.000189
268.000000	0.003318
267.000000	0.005429
266.000000	-0.000668
265.000000	0.002105
264.000000	0.002493
263.000000	-0.004326
262.000000	-0.002504
261.000000	0.005028
260.000000	-0.000873
259.000000	0.004281
258.000000	0.003118
257.000000	-0.001469
256.000000	0.000492
255.000000	0.005817
254.000000	0.003067
253.000000	-0.002485
252.000000	-0.005188
251.000000	-0.004900
250.000000	0.001810
249.000000	-0.007974
248.000000	-0.009606
247.000000	-0.005576
246.000000	-0.005180
245.000000	-0.005605
244.000000	-0.007445
243.000000	-0.001632
242.000000	-0.005816
241.000000	-0.003473
240.000000	-0.006221
239.000000	-0.010076
238.000000	-0.014722
237.000000	-0.022837
236.000000	-0.014094
235.000000	-0.001618
234.000000	-0.000705
233.000000	-0.008952
232.000000	-0.015179
231.000000	-0.007223
230.000000	-0.008935
229.000000	-0.005834
228.000000	-0.003921
227.000000	-0.012764
226.000000	-0.007036
225.000000	-0.011159
224.000000	-0.023283
223.000000	-0.019703
222.000000	-0.016029
221.000000	-0.013832
220.000000	-0.010200
219.000000	-0.015522
218.000000	-0.012159
217.000000	-0.009240
216.000000	-0.017115
215.000000	-0.016798
214.000000	-0.014435
213.000000	0.007062
212.000000	-0.019733
211.000000	-0.034443
210.000000	-0.000211
209.000000	-0.009415
208.000000	-0.045779
207.000000	-0.025303
206.000000	-0.003427
205.000000	0.044235
204.000000	0.068677
203.000000	0.073619
202.000000	0.093120
201.000000	0.105186
200.000000	0.080235
