PE IR       SUBTECH     SPECTRUM    ASCII       PEDS        4.00        
   -1
AD10-F002_1.ASC
23/09/08
10:48:32.00
23/09/08
11:14:38.00
uco
Sample 002 By uco Date Friday, September 08 2023
450.000000
#HDR
-1
-1
#GR
cm-1
%T
1.0
0.0
4000.000000
-1.000000
3551
8
99.832315
83.265567
#DATA
4000.000000	99.731386
3999.000000	99.730676
3998.000000	99.731815
3997.000000	99.733532
3996.000000	99.744440
3995.000000	99.746015
3994.000000	99.746044
3993.000000	99.744745
3992.000000	99.741789
3991.000000	99.736781
3990.000000	99.730586
3989.000000	99.725320
3988.000000	99.722800
3987.000000	99.722991
3986.000000	99.724153
3985.000000	99.724481
3984.000000	99.723507
3983.000000	99.722150
3982.000000	99.721715
3981.000000	99.722789
3980.000000	99.724812
3979.000000	99.726427
3978.000000	99.726381
3977.000000	99.724370
3976.000000	99.721278
3975.000000	99.718643
3974.000000	99.717656
3973.000000	99.718450
3972.000000	99.719945
3971.000000	99.720440
3970.000000	99.718754
3969.000000	99.715342
3968.000000	99.712284
3967.000000	99.711634
3966.000000	99.713514
3965.000000	99.715790
3964.000000	99.715821
3963.000000	99.712678
3962.000000	99.707853
3961.000000	99.703972
3960.000000	99.702560
3959.000000	99.703315
3958.000000	99.704900
3957.000000	99.706010
3956.000000	99.705920
3955.000000	99.704418
3954.000000	99.701966
3953.000000	99.699661
3952.000000	99.698680
3951.000000	99.699543
3950.000000	99.701558
3949.000000	99.703326
3948.000000	99.703979
3947.000000	99.704067
3946.000000	99.705388
3945.000000	99.709014
3944.000000	99.713516
3943.000000	99.715904
3942.000000	99.714134
3941.000000	99.708615
3940.000000	99.701419
3939.000000	99.694920
3938.000000	99.690905
3937.000000	99.690387
3936.000000	99.693377
3935.000000	99.698305
3934.000000	99.702563
3933.000000	99.704290
3932.000000	99.703854
3931.000000	99.703174
3930.000000	99.703340
3929.000000	99.704275
3928.000000	99.705909
3927.000000	99.707845
3926.000000	99.708652
3925.000000	99.706982
3924.000000	99.703314
3923.000000	99.698847
3922.000000	99.693679
3921.000000	99.687614
3920.000000	99.682412
3919.000000	99.681677
3918.000000	99.687383
3917.000000	99.696546
3916.000000	99.702726
3915.000000	99.701679
3914.000000	99.694133
3913.000000	99.684708
3912.000000	99.678718
3911.000000	99.679223
3910.000000	99.685030
3909.000000	99.692007
3908.000000	99.696475
3907.000000	99.696679
3906.000000	99.691988
3905.000000	99.682490
3904.000000	99.671391
3903.000000	99.664971
3902.000000	99.667137
3901.000000	99.675747
3900.000000	99.685250
3899.000000	99.691454
3898.000000	99.693570
3897.000000	99.692611
3896.000000	99.689273
3895.000000	99.684689
3894.000000	99.680414
3893.000000	99.677521
3892.000000	99.675888
3891.000000	99.675503
3890.000000	99.676531
3889.000000	99.679402
3888.000000	99.684007
3887.000000	99.687046
3886.000000	99.684784
3885.000000	99.679635
3884.000000	99.677913
3883.000000	99.682208
3882.000000	99.689433
3881.000000	99.694518
3880.000000	99.695776
3879.000000	99.695066
3878.000000	99.694622
3877.000000	99.695781
3876.000000	99.697690
3875.000000	99.697429
3874.000000	99.694458
3873.000000	99.692791
3872.000000	99.695326
3871.000000	99.698807
3870.000000	99.698293
3869.000000	99.695271
3868.000000	99.694873
3867.000000	99.698492
3866.000000	99.701816
3865.000000	99.699607
3864.000000	99.692216
3863.000000	99.685121
3862.000000	99.682145
3861.000000	99.683136
3860.000000	99.685058
3859.000000	99.683290
3858.000000	99.675322
3857.000000	99.664171
3856.000000	99.657271
3855.000000	99.657655
3854.000000	99.656891
3853.000000	99.655771
3852.000000	99.662677
3851.000000	99.674404
3850.000000	99.684650
3849.000000	99.692061
3848.000000	99.698021
3847.000000	99.704404
3846.000000	99.710944
3845.000000	99.715688
3844.000000	99.716483
3843.000000	99.712959
3842.000000	99.707086
3841.000000	99.701478
3840.000000	99.696591
3839.000000	99.691906
3838.000000	99.688977
3837.000000	99.689577
3836.000000	99.693115
3835.000000	99.697886
3834.000000	99.703245
3833.000000	99.709309
3832.000000	99.715757
3831.000000	99.721281
3830.000000	99.724494
3829.000000	99.724906
3828.000000	99.722594
3827.000000	99.717986
3826.000000	99.712866
3825.000000	99.710929
3824.000000	99.715016
3823.000000	99.722988
3822.000000	99.725320
3821.000000	99.717374
3820.000000	99.707750
3819.000000	99.703060
3818.000000	99.700934
3817.000000	99.694202
3816.000000	99.681284
3815.000000	99.671191
3814.000000	99.671394
3813.000000	99.678747
3812.000000	99.685599
3811.000000	99.688413
3810.000000	99.689205
3809.000000	99.690760
3808.000000	99.691369
3807.000000	99.688815
3806.000000	99.686293
3805.000000	99.689158
3804.000000	99.698652
3803.000000	99.709692
3802.000000	99.713383
3801.000000	99.708717
3800.000000	99.701692
3799.000000	99.695361
3798.000000	99.688808
3797.000000	99.681532
3796.000000	99.676265
3795.000000	99.676520
3794.000000	99.682059
3793.000000	99.689025
3792.000000	99.693822
3791.000000	99.695475
3790.000000	99.695175
3789.000000	99.694793
3788.000000	99.695973
3787.000000	99.699453
3786.000000	99.704665
3785.000000	99.710154
3784.000000	99.714535
3783.000000	99.717109
3782.000000	99.717415
3781.000000	99.714722
3780.000000	99.709064
3779.000000	99.703626
3778.000000	99.701867
3777.000000	99.703445
3776.000000	99.704970
3775.000000	99.703729
3774.000000	99.700160
3773.000000	99.697390
3772.000000	99.697701
3771.000000	99.700247
3770.000000	99.703426
3769.000000	99.707168
3768.000000	99.711503
3767.000000	99.714888
3766.000000	99.715379
3765.000000	99.712775
3764.000000	99.709053
3763.000000	99.706546
3762.000000	99.705500
3761.000000	99.704234
3760.000000	99.701687
3759.000000	99.698971
3758.000000	99.696320
3757.000000	99.692649
3756.000000	99.689054
3755.000000	99.688596
3754.000000	99.691473
3753.000000	99.692316
3752.000000	99.684579
3751.000000	99.670058
3750.000000	99.658643
3749.000000	99.654477
3748.000000	99.656381
3747.000000	99.665023
3746.000000	99.679214
3745.000000	99.691485
3744.000000	99.699178
3743.000000	99.706907
3742.000000	99.715267
3741.000000	99.720855
3740.000000	99.722851
3739.000000	99.723903
3738.000000	99.725293
3737.000000	99.722396
3736.000000	99.713378
3735.000000	99.706822
3734.000000	99.708673
3733.000000	99.712637
3732.000000	99.711693
3731.000000	99.706684
3730.000000	99.702344
3729.000000	99.701405
3728.000000	99.703455
3727.000000	99.706920
3726.000000	99.711918
3725.000000	99.719184
3724.000000	99.726928
3723.000000	99.731865
3722.000000	99.732495
3721.000000	99.730692
3720.000000	99.729035
3719.000000	99.727643
3718.000000	99.724203
3717.000000	99.717597
3716.000000	99.711091
3715.000000	99.709487
3714.000000	99.713188
3713.000000	99.716333
3712.000000	99.713262
3711.000000	99.707664
3710.000000	99.707180
3709.000000	99.712617
3708.000000	99.719260
3707.000000	99.722714
3706.000000	99.722382
3705.000000	99.721811
3704.000000	99.725053
3703.000000	99.732433
3702.000000	99.740267
3701.000000	99.744959
3700.000000	99.746072
3699.000000	99.744889
3698.000000	99.741360
3697.000000	99.733919
3696.000000	99.722486
3695.000000	99.709461
3694.000000	99.697736
3693.000000	99.690309
3692.000000	99.690429
3691.000000	99.699478
3690.000000	99.712886
3689.000000	99.721846
3688.000000	99.721147
3687.000000	99.713619
3686.000000	99.706423
3685.000000	99.703605
3684.000000	99.704883
3683.000000	99.708940
3682.000000	99.714538
3681.000000	99.718310
3680.000000	99.716381
3679.000000	99.710173
3678.000000	99.706104
3677.000000	99.707004
3676.000000	99.707943
3675.000000	99.708227
3674.000000	99.710117
3673.000000	99.713605
3672.000000	99.716046
3671.000000	99.712201
3670.000000	99.701849
3669.000000	99.695144
3668.000000	99.697301
3667.000000	99.702741
3666.000000	99.704858
3665.000000	99.702029
3664.000000	99.697700
3663.000000	99.696960
3662.000000	99.701617
3661.000000	99.708780
3660.000000	99.714716
3659.000000	99.717639
3658.000000	99.716714
3657.000000	99.710419
3656.000000	99.699811
3655.000000	99.689545
3654.000000	99.683440
3653.000000	99.682665
3652.000000	99.685003
3651.000000	99.684557
3650.000000	99.677481
3649.000000	99.669793
3648.000000	99.667275
3647.000000	99.666291
3646.000000	99.662728
3645.000000	99.657199
3644.000000	99.651572
3643.000000	99.647070
3642.000000	99.644749
3641.000000	99.645577
3640.000000	99.649559
3639.000000	99.655056
3638.000000	99.660219
3637.000000	99.664136
3636.000000	99.665457
3635.000000	99.661456
3634.000000	99.651152
3633.000000	99.639040
3632.000000	99.632392
3631.000000	99.634149
3630.000000	99.637975
3629.000000	99.637539
3628.000000	99.638173
3627.000000	99.643279
3626.000000	99.649495
3625.000000	99.654212
3624.000000	99.658494
3623.000000	99.665303
3622.000000	99.676026
3621.000000	99.687395
3620.000000	99.692898
3619.000000	99.689116
3618.000000	99.678645
3617.000000	99.665632
3616.000000	99.652881
3615.000000	99.640939
3614.000000	99.628479
3613.000000	99.614909
3612.000000	99.602036
3611.000000	99.592724
3610.000000	99.588852
3609.000000	99.591582
3608.000000	99.601404
3607.000000	99.615437
3606.000000	99.627246
3605.000000	99.631679
3604.000000	99.628650
3603.000000	99.621427
3602.000000	99.613883
3601.000000	99.608831
3600.000000	99.607573
3599.000000	99.609025
3598.000000	99.609956
3597.000000	99.607085
3596.000000	99.599885
3595.000000	99.591506
3594.000000	99.586673
3593.000000	99.587627
3592.000000	99.592216
3591.000000	99.596906
3590.000000	99.598740
3589.000000	99.595487
3588.000000	99.587658
3587.000000	99.580341
3586.000000	99.576189
3585.000000	99.572306
3584.000000	99.565783
3583.000000	99.556287
3582.000000	99.545824
3581.000000	99.538127
3580.000000	99.536589
3579.000000	99.541028
3578.000000	99.546305
3577.000000	99.545932
3576.000000	99.537422
3575.000000	99.524709
3574.000000	99.514923
3573.000000	99.513081
3572.000000	99.519468
3571.000000	99.530828
3570.000000	99.542183
3569.000000	99.547247
3568.000000	99.542022
3567.000000	99.531020
3566.000000	99.522981
3565.000000	99.519290
3564.000000	99.516069
3563.000000	99.511088
3562.000000	99.504974
3561.000000	99.499845
3560.000000	99.497721
3559.000000	99.498930
3558.000000	99.501704
3557.000000	99.503244
3556.000000	99.501413
3555.000000	99.495551
3554.000000	99.486322
3553.000000	99.475595
3552.000000	99.466244
3551.000000	99.460297
3550.000000	99.457148
3549.000000	99.454304
3548.000000	99.449766
3547.000000	99.444293
3546.000000	99.441046
3545.000000	99.442022
3544.000000	99.445466
3543.000000	99.447887
3542.000000	99.447153
3541.000000	99.443785
3540.000000	99.440171
3539.000000	99.438350
3538.000000	99.438008
3537.000000	99.436368
3536.000000	99.430987
3535.000000	99.422334
3534.000000	99.413661
3533.000000	99.408456
3532.000000	99.407988
3531.000000	99.410578
3530.000000	99.412695
3529.000000	99.411587
3528.000000	99.407462
3527.000000	99.402841
3526.000000	99.399684
3525.000000	99.398009
3524.000000	99.396895
3523.000000	99.395589
3522.000000	99.393334
3521.000000	99.389433
3520.000000	99.384312
3519.000000	99.379537
3518.000000	99.376381
3517.000000	99.374497
3516.000000	99.372534
3515.000000	99.369808
3514.000000	99.366895
3513.000000	99.364750
3512.000000	99.363736
3511.000000	99.363583
3510.000000	99.363906
3509.000000	99.364299
3508.000000	99.364021
3507.000000	99.361977
3506.000000	99.357348
3505.000000	99.350230
3504.000000	99.342269
3503.000000	99.335926
3502.000000	99.332093
3501.000000	99.329163
3500.000000	99.325157
3499.000000	99.320017
3498.000000	99.315471
3497.000000	99.313353
3496.000000	99.313693
3495.000000	99.314252
3494.000000	99.312266
3493.000000	99.307168
3492.000000	99.301291
3491.000000	99.297478
3490.000000	99.296288
3489.000000	99.296048
3488.000000	99.295365
3487.000000	99.294529
3486.000000	99.294243
3485.000000	99.294112
3484.000000	99.293286
3483.000000	99.292023
3482.000000	99.291713
3481.000000	99.292950
3480.000000	99.294118
3479.000000	99.292480
3478.000000	99.286809
3477.000000	99.278805
3476.000000	99.271819
3475.000000	99.267761
3474.000000	99.265266
3473.000000	99.261599
3472.000000	99.256197
3471.000000	99.251380
3470.000000	99.249225
3469.000000	99.248775
3468.000000	99.247028
3467.000000	99.242435
3466.000000	99.236695
3465.000000	99.232913
3464.000000	99.232570
3463.000000	99.234442
3462.000000	99.236207
3461.000000	99.236694
3460.000000	99.236373
3459.000000	99.235878
3458.000000	99.234712
3457.000000	99.231701
3456.000000	99.226605
3455.000000	99.220612
3454.000000	99.215370
3453.000000	99.212105
3452.000000	99.211619
3451.000000	99.214108
3450.000000	99.218146
3449.000000	99.220678
3448.000000	99.219346
3447.000000	99.214997
3446.000000	99.210497
3445.000000	99.207031
3444.000000	99.203039
3443.000000	99.196940
3442.000000	99.189878
3441.000000	99.185057
3440.000000	99.184553
3439.000000	99.187031
3438.000000	99.188654
3437.000000	99.186290
3436.000000	99.180177
3435.000000	99.173211
3434.000000	99.167600
3433.000000	99.162813
3432.000000	99.157379
3431.000000	99.151906
3430.000000	99.148824
3429.000000	99.149406
3428.000000	99.152299
3427.000000	99.155221
3426.000000	99.156786
3425.000000	99.156329
3424.000000	99.153262
3423.000000	99.147657
3422.000000	99.140932
3421.000000	99.134979
3420.000000	99.130547
3419.000000	99.127001
3418.000000	99.123703
3417.000000	99.121010
3416.000000	99.119716
3415.000000	99.119774
3414.000000	99.119667
3413.000000	99.117123
3412.000000	99.110845
3411.000000	99.101830
3410.000000	99.093072
3409.000000	99.087792
3408.000000	99.087512
3407.000000	99.091230
3406.000000	99.096132
3405.000000	99.099317
3404.000000	99.099464
3403.000000	99.097203
3402.000000	99.094013
3401.000000	99.090797
3400.000000	99.087328
3399.000000	99.082876
3398.000000	99.077316
3397.000000	99.071766
3396.000000	99.068058
3395.000000	99.067461
3394.000000	99.069745
3393.000000	99.073234
3392.000000	99.075543
3391.000000	99.074616
3390.000000	99.069932
3389.000000	99.063092
3388.000000	99.056743
3387.000000	99.052148
3386.000000	99.047909
3385.000000	99.041633
3384.000000	99.032752
3383.000000	99.023177
3382.000000	99.015630
3381.000000	99.012088
3380.000000	99.013290
3379.000000	99.018328
3378.000000	99.024478
3377.000000	99.028780
3376.000000	99.030366
3375.000000	99.030524
3374.000000	99.030158
3373.000000	99.028226
3372.000000	99.023383
3371.000000	99.016213
3370.000000	99.008694
3369.000000	99.001836
3368.000000	98.995143
3367.000000	98.988444
3366.000000	98.983050
3365.000000	98.980386
3364.000000	98.980174
3363.000000	98.980647
3362.000000	98.980263
3361.000000	98.978703
3360.000000	98.976441
3359.000000	98.974046
3358.000000	98.972058
3357.000000	98.970892
3356.000000	98.970158
3355.000000	98.968138
3354.000000	98.962696
3353.000000	98.953401
3352.000000	98.942668
3351.000000	98.934257
3350.000000	98.930242
3349.000000	98.929474
3348.000000	98.929127
3347.000000	98.927675
3346.000000	98.926211
3345.000000	98.926694
3344.000000	98.928974
3343.000000	98.929968
3342.000000	98.926213
3341.000000	98.917251
3340.000000	98.906161
3339.000000	98.897029
3338.000000	98.892426
3337.000000	98.892870
3336.000000	98.897054
3335.000000	98.901694
3334.000000	98.902481
3333.000000	98.897240
3332.000000	98.888450
3331.000000	98.881404
3330.000000	98.879354
3329.000000	98.880977
3328.000000	98.882693
3327.000000	98.882442
3326.000000	98.880812
3325.000000	98.879367
3324.000000	98.878902
3323.000000	98.879099
3322.000000	98.879127
3321.000000	98.878538
3320.000000	98.877893
3319.000000	98.878330
3318.000000	98.880189
3317.000000	98.882161
3316.000000	98.882165
3315.000000	98.879207
3314.000000	98.874297
3313.000000	98.869437
3312.000000	98.865727
3311.000000	98.862492
3310.000000	98.858507
3309.000000	98.854005
3308.000000	98.850789
3307.000000	98.849927
3306.000000	98.850004
3305.000000	98.848453
3304.000000	98.844344
3303.000000	98.839069
3302.000000	98.834517
3301.000000	98.831498
3300.000000	98.829995
3299.000000	98.829806
3298.000000	98.830472
3297.000000	98.831367
3296.000000	98.832236
3295.000000	98.833092
3294.000000	98.833396
3293.000000	98.832358
3292.000000	98.830509
3291.000000	98.829969
3290.000000	98.832154
3289.000000	98.835632
3288.000000	98.837125
3287.000000	98.834666
3286.000000	98.829403
3285.000000	98.824551
3284.000000	98.822795
3283.000000	98.824217
3282.000000	98.826328
3281.000000	98.826466
3280.000000	98.824469
3279.000000	98.822629
3278.000000	98.822974
3277.000000	98.825030
3276.000000	98.826486
3275.000000	98.825590
3274.000000	98.822471
3273.000000	98.818764
3272.000000	98.816483
3271.000000	98.816781
3270.000000	98.819136
3269.000000	98.821812
3268.000000	98.823304
3267.000000	98.823193
3266.000000	98.821877
3265.000000	98.820436
3264.000000	98.820890
3263.000000	98.825170
3262.000000	98.832707
3261.000000	98.839726
3260.000000	98.842185
3259.000000	98.839453
3258.000000	98.834525
3257.000000	98.830908
3256.000000	98.830062
3255.000000	98.831523
3254.000000	98.834429
3253.000000	98.838458
3252.000000	98.843723
3251.000000	98.850119
3250.000000	98.856731
3249.000000	98.862120
3248.000000	98.865443
3247.000000	98.867050
3246.000000	98.867688
3245.000000	98.867304
3244.000000	98.864958
3243.000000	98.859870
3242.000000	98.852367
3241.000000	98.844312
3240.000000	98.838801
3239.000000	98.838623
3238.000000	98.844012
3237.000000	98.851909
3236.000000	98.858163
3235.000000	98.860728
3234.000000	98.860498
3233.000000	98.859463
3232.000000	98.858884
3231.000000	98.859265
3230.000000	98.861072
3229.000000	98.864594
3228.000000	98.869174
3227.000000	98.873142
3226.000000	98.875087
3225.000000	98.875353
3224.000000	98.875989
3223.000000	98.878653
3222.000000	98.882464
3221.000000	98.884710
3220.000000	98.883965
3219.000000	98.881866
3218.000000	98.881062
3217.000000	98.882188
3216.000000	98.883995
3215.000000	98.885957
3214.000000	98.889051
3213.000000	98.893355
3212.000000	98.896345
3211.000000	98.894939
3210.000000	98.889010
3209.000000	98.881830
3208.000000	98.877037
3207.000000	98.875722
3206.000000	98.876607
3205.000000	98.878378
3204.000000	98.881141
3203.000000	98.885625
3202.000000	98.891449
3201.000000	98.896846
3200.000000	98.900372
3199.000000	98.902590
3198.000000	98.905319
3197.000000	98.909226
3196.000000	98.912809
3195.000000	98.914255
3194.000000	98.913666
3193.000000	98.912731
3192.000000	98.912500
3191.000000	98.912317
3190.000000	98.911252
3189.000000	98.909930
3188.000000	98.910220
3187.000000	98.913059
3186.000000	98.916949
3185.000000	98.918968
3184.000000	98.917484
3183.000000	98.913845
3182.000000	98.911402
3181.000000	98.912743
3180.000000	98.917827
3179.000000	98.924443
3178.000000	98.929966
3177.000000	98.932697
3176.000000	98.932369
3175.000000	98.930474
3174.000000	98.930029
3173.000000	98.933804
3172.000000	98.941641
3171.000000	98.949676
3170.000000	98.953255
3169.000000	98.951218
3168.000000	98.947230
3167.000000	98.946532
3166.000000	98.951346
3165.000000	98.959247
3164.000000	98.965745
3163.000000	98.968152
3162.000000	98.967219
3161.000000	98.965452
3160.000000	98.964373
3159.000000	98.963506
3158.000000	98.961716
3157.000000	98.959149
3156.000000	98.957611
3155.000000	98.959090
3154.000000	98.964032
3153.000000	98.971044
3152.000000	98.978207
3151.000000	98.984499
3150.000000	98.989826
3149.000000	98.993824
3148.000000	98.995174
3147.000000	98.992735
3146.000000	98.987483
3145.000000	98.982814
3144.000000	98.982195
3143.000000	98.986006
3142.000000	98.990947
3141.000000	98.992933
3140.000000	98.990915
3139.000000	98.987849
3138.000000	98.988007
3137.000000	98.993221
3136.000000	99.001537
3135.000000	99.009059
3134.000000	99.013080
3133.000000	99.013759
3132.000000	99.013371
3131.000000	99.014189
3130.000000	99.016849
3129.000000	99.020133
3128.000000	99.022082
3127.000000	99.021739
3126.000000	99.020078
3125.000000	99.019083
3124.000000	99.019883
3123.000000	99.021943
3122.000000	99.024015
3121.000000	99.025283
3120.000000	99.025332
3119.000000	99.023691
3118.000000	99.020441
3117.000000	99.017355
3116.000000	99.017432
3115.000000	99.022332
3114.000000	99.030251
3113.000000	99.036645
3112.000000	99.037408
3111.000000	99.031804
3110.000000	99.023012
3109.000000	99.016000
3108.000000	99.014346
3107.000000	99.018226
3106.000000	99.024738
3105.000000	99.030054
3104.000000	99.031718
3103.000000	99.029599
3102.000000	99.025294
3101.000000	99.020874
3100.000000	99.017889
3099.000000	99.016852
3098.000000	99.017166
3097.000000	99.017673
3096.000000	99.017787
3095.000000	99.018363
3094.000000	99.021152
3093.000000	99.027006
3092.000000	99.034620
3091.000000	99.041232
3090.000000	99.044530
3089.000000	99.043819
3088.000000	99.039696
3087.000000	99.033395
3086.000000	99.026671
3085.000000	99.021523
3084.000000	99.019171
3083.000000	99.019223
3082.000000	99.020328
3081.000000	99.021525
3080.000000	99.022560
3079.000000	99.023160
3078.000000	99.022965
3077.000000	99.022364
3076.000000	99.022585
3075.000000	99.024427
3074.000000	99.027280
3073.000000	99.029925
3072.000000	99.032021
3071.000000	99.034240
3070.000000	99.036857
3069.000000	99.038724
3068.000000	99.038052
3067.000000	99.034309
3066.000000	99.029154
3065.000000	99.025102
3064.000000	99.023225
3063.000000	99.022688
3062.000000	99.022796
3061.000000	99.024526
3060.000000	99.028873
3059.000000	99.034194
3058.000000	99.037153
3057.000000	99.036886
3056.000000	99.036645
3055.000000	99.040006
3054.000000	99.046427
3053.000000	99.052025
3052.000000	99.054019
3051.000000	99.053044
3050.000000	99.051544
3049.000000	99.051443
3048.000000	99.053435
3047.000000	99.057132
3046.000000	99.061253
3045.000000	99.064281
3044.000000	99.065382
3043.000000	99.064622
3042.000000	99.062573
3041.000000	99.060249
3040.000000	99.059168
3039.000000	99.060584
3038.000000	99.064514
3037.000000	99.069804
3036.000000	99.074906
3035.000000	99.078194
3034.000000	99.078243
3033.000000	99.074897
3032.000000	99.069935
3031.000000	99.065783
3030.000000	99.063713
3029.000000	99.063970
3028.000000	99.066885
3027.000000	99.072374
3026.000000	99.078513
3025.000000	99.082332
3024.000000	99.082587
3023.000000	99.080777
3022.000000	99.079188
3021.000000	99.078991
3020.000000	99.080360
3019.000000	99.082886
3018.000000	99.085201
3017.000000	99.085369
3016.000000	99.082604
3015.000000	99.077921
3014.000000	99.072717
3013.000000	99.067709
3012.000000	99.063665
3011.000000	99.061603
3010.000000	99.061177
3009.000000	99.059860
3008.000000	99.055077
3007.000000	99.046795
3006.000000	99.037228
3005.000000	99.028557
3004.000000	99.021745
3003.000000	99.017009
3002.000000	99.014385
3001.000000	99.013794
3000.000000	99.015095
2999.000000	99.017761
2998.000000	99.020128
2997.000000	99.019748
2996.000000	99.015442
2995.000000	99.008535
2994.000000	99.001004
2993.000000	98.992615
2992.000000	98.981088
2991.000000	98.965228
2990.000000	98.946959
2989.000000	98.929886
2988.000000	98.916521
2987.000000	98.907132
2986.000000	98.900371
2985.000000	98.894009
2984.000000	98.885098
2983.000000	98.870699
2982.000000	98.849783
2981.000000	98.824866
2980.000000	98.800944
2979.000000	98.781803
2978.000000	98.767054
2977.000000	98.753113
2976.000000	98.736671
2975.000000	98.716626
2974.000000	98.692992
2973.000000	98.665603
2972.000000	98.634719
2971.000000	98.601793
2970.000000	98.568464
2969.000000	98.535082
2968.000000	98.501273
2967.000000	98.467641
2966.000000	98.435745
2965.000000	98.406126
2964.000000	98.377102
2963.000000	98.346059
2962.000000	98.311661
2961.000000	98.274798
2960.000000	98.237927
2959.000000	98.203908
2958.000000	98.175081
2957.000000	98.152521
2956.000000	98.135630
2955.000000	98.122665
2954.000000	98.112339
2953.000000	98.105113
2952.000000	98.102304
2951.000000	98.103543
2950.000000	98.105485
2949.000000	98.103802
2948.000000	98.096208
2947.000000	98.082905
2946.000000	98.064391
2945.000000	98.040008
2944.000000	98.009030
2943.000000	97.971770
2942.000000	97.928698
2941.000000	97.879108
2940.000000	97.821859
2939.000000	97.757343
2938.000000	97.687859
2937.000000	97.616023
2936.000000	97.542938
2935.000000	97.467695
2934.000000	97.388178
2933.000000	97.302572
2932.000000	97.210866
2931.000000	97.114909
2930.000000	97.016878
2929.000000	96.917974
2928.000000	96.819214
2927.000000	96.723274
2926.000000	96.634677
2925.000000	96.557986
2924.000000	96.495755
2923.000000	96.448180
2922.000000	96.414364
2921.000000	96.394404
2920.000000	96.391335
2919.000000	96.410668
2918.000000	96.457199
2917.000000	96.531665
2916.000000	96.630703
2915.000000	96.749491
2914.000000	96.882773
2913.000000	97.023244
2912.000000	97.160717
2911.000000	97.285317
2910.000000	97.391709
2909.000000	97.480188
2908.000000	97.554438
2907.000000	97.618845
2906.000000	97.677173
2905.000000	97.731748
2904.000000	97.783118
2903.000000	97.830389
2902.000000	97.872628
2901.000000	97.909354
2900.000000	97.940989
2899.000000	97.969284
2898.000000	97.996783
2897.000000	98.025352
2896.000000	98.054977
2895.000000	98.084515
2894.000000	98.113320
2893.000000	98.141387
2892.000000	98.168231
2891.000000	98.192879
2890.000000	98.215307
2889.000000	98.236880
2888.000000	98.258674
2887.000000	98.280024
2886.000000	98.299318
2885.000000	98.315564
2884.000000	98.328567
2883.000000	98.338259
2882.000000	98.344900
2881.000000	98.349560
2880.000000	98.353136
2879.000000	98.354750
2878.000000	98.352100
2877.000000	98.343861
2876.000000	98.331223
2875.000000	98.316795
2874.000000	98.302560
2873.000000	98.289143
2872.000000	98.276607
2871.000000	98.265419
2870.000000	98.256575
2869.000000	98.250627
2868.000000	98.246317
2867.000000	98.240279
2866.000000	98.228597
2865.000000	98.208776
2864.000000	98.179763
2863.000000	98.140622
2862.000000	98.090412
2861.000000	98.029760
2860.000000	97.961259
2859.000000	97.887198
2858.000000	97.807651
2857.000000	97.722014
2856.000000	97.632189
2855.000000	97.543188
2854.000000	97.461295
2853.000000	97.392791
2852.000000	97.344841
2851.000000	97.326366
2850.000000	97.345992
2849.000000	97.407977
2848.000000	97.508943
2847.000000	97.638067
2846.000000	97.780972
2845.000000	97.924788
2844.000000	98.060550
2843.000000	98.182594
2842.000000	98.287452
2841.000000	98.374354
2840.000000	98.446265
2839.000000	98.508092
2838.000000	98.562932
2837.000000	98.610588
2836.000000	98.650004
2835.000000	98.682270
2834.000000	98.710444
2833.000000	98.736987
2832.000000	98.762312
2831.000000	98.785515
2830.000000	98.805510
2829.000000	98.821518
2828.000000	98.833404
2827.000000	98.842119
2826.000000	98.849303
2825.000000	98.855939
2824.000000	98.861807
2823.000000	98.866881
2822.000000	98.872869
2821.000000	98.882233
2820.000000	98.895185
2819.000000	98.908592
2818.000000	98.918949
2817.000000	98.926102
2816.000000	98.932932
2815.000000	98.941314
2814.000000	98.949680
2813.000000	98.955299
2812.000000	98.957907
2811.000000	98.959871
2810.000000	98.963191
2809.000000	98.967528
2808.000000	98.971341
2807.000000	98.973883
2806.000000	98.975599
2805.000000	98.977229
2804.000000	98.979180
2803.000000	98.981617
2802.000000	98.984720
2801.000000	98.988747
2800.000000	98.993859
2799.000000	98.999735
2798.000000	99.005335
2797.000000	99.009352
2796.000000	99.011117
2795.000000	99.011147
2794.000000	99.010850
2793.000000	99.011752
2792.000000	99.014705
2791.000000	99.019404
2790.000000	99.024542
2789.000000	99.028717
2788.000000	99.031425
2787.000000	99.033262
2786.000000	99.035246
2785.000000	99.037864
2784.000000	99.040562
2783.000000	99.042097
2782.000000	99.041635
2781.000000	99.039708
2780.000000	99.037907
2779.000000	99.037514
2778.000000	99.038606
2777.000000	99.040550
2776.000000	99.042990
2775.000000	99.046063
2774.000000	99.049893
2773.000000	99.054176
2772.000000	99.058220
2771.000000	99.061324
2770.000000	99.063378
2769.000000	99.065123
2768.000000	99.067357
2767.000000	99.069793
2766.000000	99.071341
2765.000000	99.071866
2764.000000	99.072980
2763.000000	99.076530
2762.000000	99.082572
2761.000000	99.089171
2760.000000	99.093842
2759.000000	99.095122
2758.000000	99.093604
2757.000000	99.091857
2756.000000	99.092448
2755.000000	99.095342
2754.000000	99.097991
2753.000000	99.098591
2752.000000	99.098180
2751.000000	99.098596
2750.000000	99.099578
2749.000000	99.099494
2748.000000	99.098192
2747.000000	99.097231
2746.000000	99.097468
2745.000000	99.098213
2744.000000	99.098933
2743.000000	99.100161
2742.000000	99.102193
2741.000000	99.104132
2740.000000	99.104784
2739.000000	99.103675
2738.000000	99.101135
2737.000000	99.098472
2736.000000	99.098050
2735.000000	99.101635
2734.000000	99.108031
2733.000000	99.113542
2732.000000	99.115454
2731.000000	99.114136
2730.000000	99.111460
2729.000000	99.108613
2728.000000	99.106269
2727.000000	99.105484
2726.000000	99.106943
2725.000000	99.109907
2724.000000	99.113075
2723.000000	99.116101
2722.000000	99.119267
2721.000000	99.122082
2720.000000	99.123266
2719.000000	99.122149
2718.000000	99.119519
2717.000000	99.117229
2716.000000	99.117217
2715.000000	99.120314
2714.000000	99.125420
2713.000000	99.130242
2712.000000	99.133345
2711.000000	99.135059
2710.000000	99.136094
2709.000000	99.136256
2708.000000	99.135420
2707.000000	99.134806
2706.000000	99.135723
2705.000000	99.137234
2704.000000	99.136605
2703.000000	99.132655
2702.000000	99.127825
2701.000000	99.126345
2700.000000	99.130605
2699.000000	99.139255
2698.000000	99.148131
2697.000000	99.152802
2696.000000	99.151273
2695.000000	99.145366
2694.000000	99.139530
2693.000000	99.137641
2692.000000	99.140279
2691.000000	99.144707
2690.000000	99.147364
2689.000000	99.146580
2688.000000	99.143439
2687.000000	99.140598
2686.000000	99.140235
2685.000000	99.142640
2684.000000	99.146230
2683.000000	99.148808
2682.000000	99.149078
2681.000000	99.147332
2680.000000	99.144880
2679.000000	99.142899
2678.000000	99.141873
2677.000000	99.141936
2676.000000	99.143239
2675.000000	99.145632
2674.000000	99.148258
2673.000000	99.150040
2672.000000	99.150714
2671.000000	99.151066
2670.000000	99.151935
2669.000000	99.153214
2668.000000	99.154057
2667.000000	99.153934
2666.000000	99.153049
2665.000000	99.151488
2664.000000	99.148361
2663.000000	99.142598
2662.000000	99.134979
2661.000000	99.128595
2660.000000	99.126240
2659.000000	99.127483
2658.000000	99.129452
2657.000000	99.130628
2656.000000	99.132533
2655.000000	99.136939
2654.000000	99.142760
2653.000000	99.147174
2652.000000	99.148950
2651.000000	99.149028
2650.000000	99.148290
2649.000000	99.146790
2648.000000	99.145502
2647.000000	99.146823
2646.000000	99.152010
2645.000000	99.159048
2644.000000	99.164265
2643.000000	99.165642
2642.000000	99.163891
2641.000000	99.160995
2640.000000	99.158769
2639.000000	99.158641
2638.000000	99.161520
2637.000000	99.167097
2636.000000	99.173560
2635.000000	99.178697
2634.000000	99.181737
2633.000000	99.184047
2632.000000	99.187662
2631.000000	99.192934
2630.000000	99.197943
2629.000000	99.200483
2628.000000	99.200265
2627.000000	99.198875
2626.000000	99.197921
2625.000000	99.197647
2624.000000	99.197140
2623.000000	99.195535
2622.000000	99.193311
2621.000000	99.192476
2620.000000	99.194623
2619.000000	99.198400
2618.000000	99.200010
2617.000000	99.197285
2616.000000	99.192475
2615.000000	99.189892
2614.000000	99.191644
2613.000000	99.196840
2612.000000	99.203838
2611.000000	99.210984
2610.000000	99.215696
2609.000000	99.215699
2608.000000	99.212071
2607.000000	99.209100
2606.000000	99.209844
2605.000000	99.213160
2604.000000	99.216041
2603.000000	99.217529
2602.000000	99.218987
2601.000000	99.221384
2600.000000	99.224131
2599.000000	99.226640
2598.000000	99.229731
2597.000000	99.234637
2596.000000	99.240928
2595.000000	99.246331
2594.000000	99.248919
2593.000000	99.248777
2592.000000	99.246756
2591.000000	99.242529
2590.000000	99.235721
2589.000000	99.228807
2588.000000	99.226338
2587.000000	99.230044
2586.000000	99.236693
2585.000000	99.242054
2584.000000	99.245067
2583.000000	99.246635
2582.000000	99.246798
2581.000000	99.245734
2580.000000	99.245524
2579.000000	99.247626
2578.000000	99.249905
2577.000000	99.249595
2576.000000	99.248236
2575.000000	99.250063
2574.000000	99.255806
2573.000000	99.261618
2572.000000	99.264032
2571.000000	99.262547
2570.000000	99.257651
2569.000000	99.250620
2568.000000	99.246067
2567.000000	99.250182
2566.000000	99.264107
2565.000000	99.281547
2564.000000	99.294465
2563.000000	99.299007
2562.000000	99.295440
2561.000000	99.286094
2560.000000	99.275035
2559.000000	99.266474
2558.000000	99.261254
2557.000000	99.257119
2556.000000	99.253662
2555.000000	99.253829
2554.000000	99.258777
2553.000000	99.264836
2552.000000	99.268395
2551.000000	99.270782
2550.000000	99.275020
2549.000000	99.279881
2548.000000	99.280701
2547.000000	99.274702
2546.000000	99.262906
2545.000000	99.248486
2544.000000	99.236246
2543.000000	99.231884
2542.000000	99.237549
2541.000000	99.248040
2540.000000	99.254499
2539.000000	99.252438
2538.000000	99.244277
2537.000000	99.234703
2536.000000	99.226365
2535.000000	99.220260
2534.000000	99.217351
2533.000000	99.218099
2532.000000	99.221447
2531.000000	99.225172
2530.000000	99.226907
2529.000000	99.224954
2528.000000	99.218892
2527.000000	99.209301
2526.000000	99.196651
2525.000000	99.181579
2524.000000	99.167084
2523.000000	99.158635
2522.000000	99.159474
2521.000000	99.165871
2520.000000	99.169222
2519.000000	99.163571
2518.000000	99.150084
2517.000000	99.134608
2516.000000	99.122711
2515.000000	99.117264
2514.000000	99.118226
2513.000000	99.122608
2512.000000	99.125521
2511.000000	99.123470
2510.000000	99.117198
2509.000000	99.110617
2508.000000	99.106780
2507.000000	99.105757
2506.000000	99.106761
2505.000000	99.110820
2504.000000	99.119866
2503.000000	99.133405
2502.000000	99.147924
2501.000000	99.160360
2500.000000	99.170605
2499.000000	99.179294
2498.000000	99.184427
2497.000000	99.182745
2496.000000	99.174897
2495.000000	99.167186
2494.000000	99.166667
2493.000000	99.174630
2492.000000	99.185542
2491.000000	99.192365
2490.000000	99.192897
2489.000000	99.191642
2488.000000	99.195640
2487.000000	99.208048
2486.000000	99.225515
2485.000000	99.241364
2484.000000	99.250938
2483.000000	99.253939
2482.000000	99.253208
2481.000000	99.252716
2480.000000	99.255749
2479.000000	99.262865
2478.000000	99.271154
2477.000000	99.276865
2476.000000	99.279009
2475.000000	99.279563
2474.000000	99.280258
2473.000000	99.280661
2472.000000	99.279915
2471.000000	99.278853
2470.000000	99.279187
2469.000000	99.281142
2468.000000	99.283105
2467.000000	99.284028
2466.000000	99.285580
2465.000000	99.290826
2464.000000	99.300078
2463.000000	99.308994
2462.000000	99.312443
2461.000000	99.310204
2460.000000	99.307051
2459.000000	99.306725
2458.000000	99.308098
2457.000000	99.308581
2456.000000	99.309150
2455.000000	99.313496
2454.000000	99.322989
2453.000000	99.334451
2452.000000	99.342428
2451.000000	99.342605
2450.000000	99.334733
2449.000000	99.324274
2448.000000	99.319583
2447.000000	99.324588
2446.000000	99.334523
2445.000000	99.341016
2444.000000	99.340631
2443.000000	99.336149
2442.000000	99.330944
2441.000000	99.325849
2440.000000	99.321489
2439.000000	99.319912
2438.000000	99.322617
2437.000000	99.329105
2436.000000	99.338045
2435.000000	99.347870
2434.000000	99.355889
2433.000000	99.359286
2432.000000	99.358052
2431.000000	99.355180
2430.000000	99.353124
2429.000000	99.351584
2428.000000	99.349218
2427.000000	99.345977
2426.000000	99.343040
2425.000000	99.341629
2424.000000	99.342274
2423.000000	99.344100
2422.000000	99.344721
2421.000000	99.342069
2420.000000	99.336598
2419.000000	99.330795
2418.000000	99.326614
2417.000000	99.324308
2416.000000	99.323482
2415.000000	99.324206
2414.000000	99.327119
2413.000000	99.332827
2412.000000	99.340370
2411.000000	99.346026
2410.000000	99.345574
2409.000000	99.339147
2408.000000	99.332215
2407.000000	99.330059
2406.000000	99.332881
2405.000000	99.337876
2404.000000	99.343645
2403.000000	99.350009
2402.000000	99.355692
2401.000000	99.359566
2400.000000	99.362725
2399.000000	99.365983
2398.000000	99.366885
2397.000000	99.363010
2396.000000	99.357147
2395.000000	99.354758
2394.000000	99.356398
2393.000000	99.356991
2392.000000	99.353049
2391.000000	99.347003
2390.000000	99.343304
2389.000000	99.343716
2388.000000	99.348028
2387.000000	99.355465
2386.000000	99.364325
2385.000000	99.371823
2384.000000	99.376397
2383.000000	99.379670
2382.000000	99.384095
2381.000000	99.390893
2380.000000	99.399067
2379.000000	99.404928
2378.000000	99.403736
2377.000000	99.394009
2376.000000	99.380760
2375.000000	99.372068
2374.000000	99.373384
2373.000000	99.385338
2372.000000	99.404553
2371.000000	99.423023
2370.000000	99.431199
2369.000000	99.426961
2368.000000	99.416581
2367.000000	99.405797
2366.000000	99.394407
2365.000000	99.382689
2364.000000	99.375888
2363.000000	99.374466
2362.000000	99.371880
2361.000000	99.368032
2360.000000	99.370278
2359.000000	99.385162
2358.000000	99.408909
2357.000000	99.430060
2356.000000	99.436171
2355.000000	99.418076
2354.000000	99.388442
2353.000000	99.373086
2352.000000	99.380214
2351.000000	99.392350
2350.000000	99.390824
2349.000000	99.376165
2348.000000	99.360815
2347.000000	99.359232
2346.000000	99.370679
2345.000000	99.375203
2344.000000	99.359729
2343.000000	99.334010
2342.000000	99.321116
2341.000000	99.330441
2340.000000	99.348812
2339.000000	99.357795
2338.000000	99.354141
2337.000000	99.347159
2336.000000	99.345358
2335.000000	99.351726
2334.000000	99.368742
2333.000000	99.394022
2332.000000	99.414295
2331.000000	99.416401
2330.000000	99.399382
2329.000000	99.375818
2328.000000	99.352818
2327.000000	99.331159
2326.000000	99.312577
2325.000000	99.301842
2324.000000	99.303246
2323.000000	99.312303
2322.000000	99.319909
2321.000000	99.316385
2320.000000	99.300280
2319.000000	99.278852
2318.000000	99.260429
2317.000000	99.249269
2316.000000	99.245626
2315.000000	99.250901
2314.000000	99.264577
2313.000000	99.281806
2312.000000	99.295158
2311.000000	99.301939
2310.000000	99.304897
2309.000000	99.307667
2308.000000	99.311594
2307.000000	99.316317
2306.000000	99.321122
2305.000000	99.324295
2304.000000	99.325241
2303.000000	99.324714
2302.000000	99.323984
2301.000000	99.323577
2300.000000	99.324358
2299.000000	99.327581
2298.000000	99.330714
2297.000000	99.327990
2296.000000	99.315515
2295.000000	99.297260
2294.000000	99.281883
2293.000000	99.276095
2292.000000	99.281382
2291.000000	99.294776
2290.000000	99.310157
2289.000000	99.319897
2288.000000	99.319732
2287.000000	99.311651
2286.000000	99.301609
2285.000000	99.293993
2284.000000	99.289844
2283.000000	99.287548
2282.000000	99.285364
2281.000000	99.284560
2280.000000	99.290852
2279.000000	99.308301
2278.000000	99.330765
2277.000000	99.344136
2276.000000	99.340130
2275.000000	99.325684
2274.000000	99.316170
2273.000000	99.322790
2272.000000	99.346809
2271.000000	99.380942
2270.000000	99.412481
2269.000000	99.429454
2268.000000	99.428854
2267.000000	99.417445
2266.000000	99.402583
2265.000000	99.386185
2264.000000	99.369548
2263.000000	99.358532
2262.000000	99.358797
2261.000000	99.368712
2260.000000	99.380998
2259.000000	99.388636
2258.000000	99.387478
2257.000000	99.376880
2256.000000	99.362148
2255.000000	99.352725
2254.000000	99.353921
2253.000000	99.362430
2252.000000	99.371272
2251.000000	99.375948
2250.000000	99.374484
2249.000000	99.367115
2248.000000	99.358674
2247.000000	99.356129
2246.000000	99.360848
2245.000000	99.368173
2244.000000	99.376181
2243.000000	99.388323
2242.000000	99.404536
2241.000000	99.416947
2240.000000	99.418871
2239.000000	99.411871
2238.000000	99.399993
2237.000000	99.383958
2236.000000	99.365598
2235.000000	99.351226
2234.000000	99.345759
2233.000000	99.349317
2232.000000	99.362474
2231.000000	99.386008
2230.000000	99.410721
2229.000000	99.418510
2228.000000	99.403387
2227.000000	99.383677
2226.000000	99.383383
2225.000000	99.406622
2224.000000	99.438370
2223.000000	99.464263
2222.000000	99.479920
2221.000000	99.485438
2220.000000	99.481181
2219.000000	99.467925
2218.000000	99.445341
2217.000000	99.414028
2216.000000	99.383778
2215.000000	99.373076
2214.000000	99.392700
2213.000000	99.433462
2212.000000	99.475624
2211.000000	99.505947
2210.000000	99.519825
2209.000000	99.514494
2208.000000	99.490035
2207.000000	99.452638
2206.000000	99.409489
2205.000000	99.364507
2204.000000	99.324221
2203.000000	99.300905
2202.000000	99.302103
2201.000000	99.321139
2200.000000	99.344562
2199.000000	99.364652
2198.000000	99.378716
2197.000000	99.383107
2196.000000	99.377243
2195.000000	99.369395
2194.000000	99.370693
2193.000000	99.385518
2192.000000	99.410655
2191.000000	99.437051
2190.000000	99.448246
2189.000000	99.428784
2188.000000	99.385286
2187.000000	99.350466
2186.000000	99.353731
2185.000000	99.391526
2184.000000	99.434536
2183.000000	99.459414
2182.000000	99.464105
2181.000000	99.458525
2180.000000	99.453619
2179.000000	99.456831
2178.000000	99.467534
2177.000000	99.476657
2176.000000	99.476410
2175.000000	99.468171
2174.000000	99.457307
2173.000000	99.446286
2172.000000	99.437607
2171.000000	99.435601
2170.000000	99.438842
2169.000000	99.437110
2168.000000	99.422439
2167.000000	99.397814
2166.000000	99.370008
2165.000000	99.341716
2164.000000	99.316833
2163.000000	99.305203
2162.000000	99.315566
2161.000000	99.351303
2160.000000	99.416272
2159.000000	99.510884
2158.000000	99.613564
2157.000000	99.687047
2156.000000	99.716076
2155.000000	99.717876
2154.000000	99.711640
2153.000000	99.699244
2152.000000	99.677309
2151.000000	99.649662
2150.000000	99.622006
2149.000000	99.596639
2148.000000	99.577946
2147.000000	99.572462
2146.000000	99.579494
2145.000000	99.591608
2144.000000	99.606138
2143.000000	99.623465
2142.000000	99.632882
2141.000000	99.617895
2140.000000	99.582581
2139.000000	99.555742
2138.000000	99.557792
2137.000000	99.576363
2136.000000	99.585272
2135.000000	99.577952
2134.000000	99.568902
2133.000000	99.568900
2132.000000	99.572814
2131.000000	99.569344
2130.000000	99.553287
2129.000000	99.529124
2128.000000	99.507925
2127.000000	99.498832
2126.000000	99.500559
2125.000000	99.503767
2124.000000	99.503017
2123.000000	99.501447
2122.000000	99.501729
2121.000000	99.498846
2120.000000	99.486609
2119.000000	99.466515
2118.000000	99.445601
2117.000000	99.430055
2116.000000	99.424560
2115.000000	99.432364
2114.000000	99.450065
2113.000000	99.465931
2112.000000	99.470100
2111.000000	99.465079
2110.000000	99.461114
2109.000000	99.462887
2108.000000	99.465145
2107.000000	99.460341
2106.000000	99.447227
2105.000000	99.432729
2104.000000	99.427224
2103.000000	99.436346
2102.000000	99.455898
2101.000000	99.476276
2100.000000	99.491405
2099.000000	99.500352
2098.000000	99.502275
2097.000000	99.496739
2096.000000	99.488487
2095.000000	99.482811
2094.000000	99.475198
2093.000000	99.456232
2092.000000	99.430366
2091.000000	99.418473
2090.000000	99.434450
2089.000000	99.465580
2088.000000	99.483779
2087.000000	99.474018
2086.000000	99.445497
2085.000000	99.419125
2084.000000	99.409796
2083.000000	99.417268
2082.000000	99.428809
2081.000000	99.430681
2080.000000	99.419970
2079.000000	99.404781
2078.000000	99.393536
2077.000000	99.388573
2076.000000	99.389682
2075.000000	99.396799
2074.000000	99.406904
2073.000000	99.414931
2072.000000	99.420690
2071.000000	99.428310
2070.000000	99.436878
2069.000000	99.439286
2068.000000	99.433093
2067.000000	99.424355
2066.000000	99.418021
2065.000000	99.413404
2064.000000	99.411944
2063.000000	99.419117
2062.000000	99.434404
2061.000000	99.449137
2060.000000	99.458097
2059.000000	99.463302
2058.000000	99.463136
2057.000000	99.451273
2056.000000	99.432272
2055.000000	99.423387
2054.000000	99.430610
2053.000000	99.435853
2052.000000	99.420337
2051.000000	99.389431
2050.000000	99.362889
2049.000000	99.350047
2048.000000	99.346824
2047.000000	99.350793
2046.000000	99.363964
2045.000000	99.383134
2044.000000	99.401363
2043.000000	99.416235
2042.000000	99.426449
2041.000000	99.427186
2040.000000	99.419067
2039.000000	99.412172
2038.000000	99.410732
2037.000000	99.405643
2036.000000	99.395631
2035.000000	99.403546
2034.000000	99.451319
2033.000000	99.524679
2032.000000	99.583050
2031.000000	99.603337
2030.000000	99.597769
2029.000000	99.595828
2028.000000	99.623246
2027.000000	99.688022
2026.000000	99.770233
2025.000000	99.828582
2024.000000	99.832315
2023.000000	99.786907
2022.000000	99.723125
2021.000000	99.670251
2020.000000	99.642726
2019.000000	99.638976
2018.000000	99.644431
2017.000000	99.642735
2016.000000	99.631151
2015.000000	99.618518
2014.000000	99.607335
2013.000000	99.590947
2012.000000	99.570074
2011.000000	99.558617
2010.000000	99.568596
2009.000000	99.598841
2008.000000	99.639704
2007.000000	99.678270
2006.000000	99.698115
2005.000000	99.689033
2004.000000	99.660852
2003.000000	99.633672
2002.000000	99.615592
2001.000000	99.601250
2000.000000	99.587203
1999.000000	99.575138
1998.000000	99.563204
1997.000000	99.551153
1996.000000	99.550844
1995.000000	99.572242
1994.000000	99.600397
1993.000000	99.606858
1992.000000	99.588647
1991.000000	99.571445
1990.000000	99.566487
1989.000000	99.556410
1988.000000	99.531850
1987.000000	99.509694
1986.000000	99.503038
1985.000000	99.499499
1984.000000	99.484990
1983.000000	99.465949
1982.000000	99.451380
1981.000000	99.435524
1980.000000	99.420120
1979.000000	99.433470
1978.000000	99.497091
1977.000000	99.583423
1976.000000	99.640329
1975.000000	99.651215
1974.000000	99.639788
1973.000000	99.631203
1972.000000	99.635808
1971.000000	99.655059
1970.000000	99.680564
1969.000000	99.694928
1968.000000	99.689519
1967.000000	99.676261
1966.000000	99.672290
1965.000000	99.682683
1964.000000	99.704442
1963.000000	99.730854
1962.000000	99.744591
1961.000000	99.725635
1960.000000	99.676851
1959.000000	99.624856
1958.000000	99.588364
1957.000000	99.563790
1956.000000	99.546242
1955.000000	99.544171
1954.000000	99.562467
1953.000000	99.586174
1952.000000	99.593918
1951.000000	99.579988
1950.000000	99.556741
1949.000000	99.542781
1948.000000	99.552758
1947.000000	99.588157
1946.000000	99.632360
1945.000000	99.664292
1944.000000	99.680109
1943.000000	99.691211
1942.000000	99.698487
1941.000000	99.687426
1940.000000	99.656527
1939.000000	99.627871
1938.000000	99.621824
1937.000000	99.635305
1936.000000	99.650177
1935.000000	99.655289
1934.000000	99.651802
1933.000000	99.645100
1932.000000	99.640414
1931.000000	99.640820
1930.000000	99.644639
1929.000000	99.646979
1928.000000	99.648486
1927.000000	99.656418
1926.000000	99.673572
1925.000000	99.692677
1924.000000	99.703243
1923.000000	99.700558
1922.000000	99.685692
1921.000000	99.662262
1920.000000	99.637331
1919.000000	99.619729
1918.000000	99.612408
1917.000000	99.609220
1916.000000	99.604877
1915.000000	99.602986
1914.000000	99.607682
1913.000000	99.615599
1912.000000	99.620259
1911.000000	99.619185
1910.000000	99.614640
1909.000000	99.610959
1908.000000	99.614227
1907.000000	99.627781
1906.000000	99.645899
1905.000000	99.658128
1904.000000	99.661113
1903.000000	99.661439
1902.000000	99.663164
1901.000000	99.660057
1900.000000	99.647272
1899.000000	99.631657
1898.000000	99.623149
1897.000000	99.622759
1896.000000	99.624153
1895.000000	99.624152
1894.000000	99.625647
1893.000000	99.631719
1892.000000	99.642675
1891.000000	99.656119
1890.000000	99.665706
1889.000000	99.665340
1888.000000	99.658096
1887.000000	99.654269
1886.000000	99.659196
1885.000000	99.669155
1884.000000	99.678568
1883.000000	99.685709
1882.000000	99.689718
1881.000000	99.687724
1880.000000	99.680324
1879.000000	99.673758
1878.000000	99.672543
1877.000000	99.675952
1876.000000	99.682362
1875.000000	99.690349
1874.000000	99.694897
1873.000000	99.690056
1872.000000	99.678370
1871.000000	99.671079
1870.000000	99.675712
1869.000000	99.687401
1868.000000	99.696827
1867.000000	99.702363
1866.000000	99.706015
1865.000000	99.705904
1864.000000	99.701487
1863.000000	99.697720
1862.000000	99.697829
1861.000000	99.697434
1860.000000	99.691578
1859.000000	99.683235
1858.000000	99.679347
1857.000000	99.682499
1856.000000	99.691460
1855.000000	99.704337
1854.000000	99.716037
1853.000000	99.717425
1852.000000	99.705977
1851.000000	99.692068
1850.000000	99.686532
1849.000000	99.689232
1848.000000	99.693510
1847.000000	99.697090
1846.000000	99.702044
1845.000000	99.707677
1844.000000	99.711218
1843.000000	99.713443
1842.000000	99.716891
1841.000000	99.721317
1840.000000	99.726037
1839.000000	99.731258
1838.000000	99.735647
1837.000000	99.736415
1836.000000	99.733186
1835.000000	99.729465
1834.000000	99.727781
1833.000000	99.727811
1832.000000	99.730802
1831.000000	99.737580
1830.000000	99.740953
1829.000000	99.733308
1828.000000	99.720001
1827.000000	99.712368
1826.000000	99.712614
1825.000000	99.714350
1824.000000	99.714918
1823.000000	99.718150
1822.000000	99.724556
1821.000000	99.728444
1820.000000	99.727232
1819.000000	99.725673
1818.000000	99.728917
1817.000000	99.736507
1816.000000	99.744407
1815.000000	99.750306
1814.000000	99.752252
1813.000000	99.746916
1812.000000	99.734261
1811.000000	99.719205
1810.000000	99.707392
1809.000000	99.699700
1808.000000	99.692330
1807.000000	99.681443
1806.000000	99.664048
1805.000000	99.637770
1804.000000	99.602884
1803.000000	99.563144
1802.000000	99.521600
1801.000000	99.480049
1800.000000	99.443533
1799.000000	99.418086
1798.000000	99.404884
1797.000000	99.397967
1796.000000	99.388779
1795.000000	99.373663
1794.000000	99.355067
1793.000000	99.342014
1792.000000	99.349183
1791.000000	99.381988
1790.000000	99.428759
1789.000000	99.474026
1788.000000	99.510033
1787.000000	99.537850
1786.000000	99.563047
1785.000000	99.588513
1784.000000	99.611467
1783.000000	99.629364
1782.000000	99.641564
1781.000000	99.647585
1780.000000	99.650816
1779.000000	99.656104
1778.000000	99.664033
1777.000000	99.670757
1776.000000	99.675298
1775.000000	99.681966
1774.000000	99.691447
1773.000000	99.696882
1772.000000	99.696813
1771.000000	99.698945
1770.000000	99.704478
1769.000000	99.706067
1768.000000	99.699462
1767.000000	99.690353
1766.000000	99.686441
1765.000000	99.687732
1764.000000	99.689692
1763.000000	99.688945
1762.000000	99.683455
1761.000000	99.673250
1760.000000	99.661625
1759.000000	99.651131
1758.000000	99.639654
1757.000000	99.621233
1756.000000	99.598420
1755.000000	99.581216
1754.000000	99.570601
1753.000000	99.555565
1752.000000	99.525974
1751.000000	99.486319
1750.000000	99.449649
1749.000000	99.418856
1748.000000	99.389837
1747.000000	99.364037
1746.000000	99.341230
1745.000000	99.316079
1744.000000	99.287234
1743.000000	99.259148
1742.000000	99.233570
1741.000000	99.205927
1740.000000	99.173875
1739.000000	99.145516
1738.000000	99.128578
1737.000000	99.123000
1736.000000	99.127046
1735.000000	99.144177
1734.000000	99.176191
1733.000000	99.208627
1732.000000	99.231870
1731.000000	99.257121
1730.000000	99.291534
1729.000000	99.326319
1728.000000	99.353870
1727.000000	99.377093
1726.000000	99.399699
1725.000000	99.419646
1724.000000	99.435387
1723.000000	99.447110
1722.000000	99.454472
1721.000000	99.456446
1720.000000	99.455952
1719.000000	99.455880
1718.000000	99.453208
1717.000000	99.448099
1716.000000	99.444792
1715.000000	99.446473
1714.000000	99.453687
1713.000000	99.460353
1712.000000	99.461898
1711.000000	99.462209
1710.000000	99.465632
1709.000000	99.468345
1708.000000	99.464735
1707.000000	99.455004
1706.000000	99.442302
1705.000000	99.430399
1704.000000	99.421574
1703.000000	99.415418
1702.000000	99.405351
1701.000000	99.379336
1700.000000	99.341434
1699.000000	99.316793
1698.000000	99.313584
1697.000000	99.315083
1696.000000	99.305514
1695.000000	99.284857
1694.000000	99.261318
1693.000000	99.237091
1692.000000	99.211753
1691.000000	99.184098
1690.000000	99.153929
1689.000000	99.122227
1688.000000	99.094263
1687.000000	99.073797
1686.000000	99.052998
1685.000000	99.012934
1684.000000	98.954713
1683.000000	98.912878
1682.000000	98.894741
1681.000000	98.878586
1680.000000	98.854588
1679.000000	98.825351
1678.000000	98.796269
1677.000000	98.762234
1676.000000	98.718871
1675.000000	98.678485
1674.000000	98.655118
1673.000000	98.640119
1672.000000	98.618649
1671.000000	98.585771
1670.000000	98.547936
1669.000000	98.517627
1668.000000	98.501248
1667.000000	98.494803
1666.000000	98.487517
1665.000000	98.469839
1664.000000	98.439010
1663.000000	98.402972
1662.000000	98.373812
1661.000000	98.351603
1660.000000	98.331550
1659.000000	98.313132
1658.000000	98.296462
1657.000000	98.279325
1656.000000	98.264597
1655.000000	98.255347
1654.000000	98.246488
1653.000000	98.235635
1652.000000	98.229318
1651.000000	98.224492
1650.000000	98.216525
1649.000000	98.207568
1648.000000	98.192826
1647.000000	98.184901
1646.000000	98.200827
1645.000000	98.228517
1644.000000	98.248042
1643.000000	98.260884
1642.000000	98.271961
1641.000000	98.280088
1640.000000	98.283540
1639.000000	98.285834
1638.000000	98.291198
1637.000000	98.297865
1636.000000	98.305228
1635.000000	98.319634
1634.000000	98.337875
1633.000000	98.353002
1632.000000	98.365284
1631.000000	98.377120
1630.000000	98.390021
1629.000000	98.402802
1628.000000	98.415461
1627.000000	98.429922
1626.000000	98.444096
1625.000000	98.453611
1624.000000	98.462596
1623.000000	98.482793
1622.000000	98.513979
1621.000000	98.540824
1620.000000	98.557999
1619.000000	98.571898
1618.000000	98.584811
1617.000000	98.594114
1616.000000	98.603673
1615.000000	98.620554
1614.000000	98.641592
1613.000000	98.659176
1612.000000	98.670953
1611.000000	98.682610
1610.000000	98.698082
1609.000000	98.711200
1608.000000	98.716396
1607.000000	98.718282
1606.000000	98.721176
1605.000000	98.720952
1604.000000	98.715951
1603.000000	98.711492
1602.000000	98.709530
1601.000000	98.704254
1600.000000	98.692559
1599.000000	98.679263
1598.000000	98.667302
1597.000000	98.653717
1596.000000	98.637923
1595.000000	98.624776
1594.000000	98.615147
1593.000000	98.602157
1592.000000	98.582671
1591.000000	98.562515
1590.000000	98.545286
1589.000000	98.525736
1588.000000	98.499936
1587.000000	98.471619
1586.000000	98.443237
1585.000000	98.409299
1584.000000	98.367067
1583.000000	98.324130
1582.000000	98.286312
1581.000000	98.251094
1580.000000	98.219061
1579.000000	98.199517
1578.000000	98.197398
1577.000000	98.205440
1576.000000	98.218443
1575.000000	98.240813
1574.000000	98.268102
1573.000000	98.290771
1572.000000	98.308121
1571.000000	98.325211
1570.000000	98.348260
1569.000000	98.373715
1568.000000	98.396415
1567.000000	98.418406
1566.000000	98.438565
1565.000000	98.448589
1564.000000	98.446060
1563.000000	98.441978
1562.000000	98.440365
1561.000000	98.432663
1560.000000	98.400915
1559.000000	98.348345
1558.000000	98.323300
1557.000000	98.320112
1556.000000	98.310454
1555.000000	98.301203
1554.000000	98.287332
1553.000000	98.265481
1552.000000	98.229473
1551.000000	98.177635
1550.000000	98.107713
1549.000000	98.027480
1548.000000	97.946733
1547.000000	97.863185
1546.000000	97.762695
1545.000000	97.637108
1544.000000	97.503580
1543.000000	97.387006
1542.000000	97.287827
1541.000000	97.190371
1540.000000	97.113124
1539.000000	97.088199
1538.000000	97.087126
1537.000000	97.076039
1536.000000	97.057259
1535.000000	97.035803
1534.000000	97.008622
1533.000000	96.971605
1532.000000	96.933983
1531.000000	96.899184
1530.000000	96.858234
1529.000000	96.801568
1528.000000	96.728199
1527.000000	96.644442
1526.000000	96.555623
1525.000000	96.467212
1524.000000	96.385227
1523.000000	96.303539
1522.000000	96.199632
1521.000000	96.077606
1520.000000	95.976980
1519.000000	95.906144
1518.000000	95.832246
1517.000000	95.728823
1516.000000	95.612737
1515.000000	95.515571
1514.000000	95.430626
1513.000000	95.336087
1512.000000	95.232273
1511.000000	95.138441
1510.000000	95.059504
1509.000000	94.973832
1508.000000	94.844083
1507.000000	94.665271
1506.000000	94.508095
1505.000000	94.409406
1504.000000	94.338693
1503.000000	94.272439
1502.000000	94.193163
1501.000000	94.092459
1500.000000	93.977905
1499.000000	93.864018
1498.000000	93.744028
1497.000000	93.605400
1496.000000	93.470880
1495.000000	93.371376
1494.000000	93.297596
1493.000000	93.219843
1492.000000	93.119826
1491.000000	92.993376
1490.000000	92.849285
1489.000000	92.711307
1488.000000	92.598657
1487.000000	92.506773
1486.000000	92.422077
1485.000000	92.335868
1484.000000	92.247173
1483.000000	92.154870
1482.000000	92.051404
1481.000000	91.938103
1480.000000	91.830562
1479.000000	91.736011
1478.000000	91.639327
1477.000000	91.524560
1476.000000	91.397942
1475.000000	91.272620
1474.000000	91.133991
1473.000000	90.959752
1472.000000	90.784669
1471.000000	90.660297
1470.000000	90.576629
1469.000000	90.500342
1468.000000	90.418553
1467.000000	90.328830
1466.000000	90.224109
1465.000000	90.102873
1464.000000	89.993819
1463.000000	89.922681
1462.000000	89.875552
1461.000000	89.827230
1460.000000	89.763889
1459.000000	89.675405
1458.000000	89.534891
1457.000000	89.353335
1456.000000	89.218167
1455.000000	89.156585
1454.000000	89.112778
1453.000000	89.051727
1452.000000	88.975962
1451.000000	88.901679
1450.000000	88.827778
1449.000000	88.740641
1448.000000	88.643505
1447.000000	88.557632
1446.000000	88.487616
1445.000000	88.417164
1444.000000	88.339533
1443.000000	88.261317
1442.000000	88.186988
1441.000000	88.115741
1440.000000	88.048849
1439.000000	87.983190
1438.000000	87.899994
1437.000000	87.784610
1436.000000	87.669586
1435.000000	87.596880
1434.000000	87.549943
1433.000000	87.490759
1432.000000	87.405683
1431.000000	87.301978
1430.000000	87.188215
1429.000000	87.070978
1428.000000	86.965590
1427.000000	86.880218
1426.000000	86.796433
1425.000000	86.686488
1424.000000	86.556983
1423.000000	86.445770
1422.000000	86.359771
1421.000000	86.260678
1420.000000	86.111576
1419.000000	85.926562
1418.000000	85.759715
1417.000000	85.630585
1416.000000	85.519926
1415.000000	85.411255
1414.000000	85.291783
1413.000000	85.153005
1412.000000	85.002175
1411.000000	84.857113
1410.000000	84.723177
1409.000000	84.593677
1408.000000	84.469662
1407.000000	84.356229
1406.000000	84.244151
1405.000000	84.122988
1404.000000	84.014889
1403.000000	83.948925
1402.000000	83.910567
1401.000000	83.858597
1400.000000	83.775589
1399.000000	83.684868
1398.000000	83.609367
1397.000000	83.537010
1396.000000	83.451087
1395.000000	83.363423
1394.000000	83.298162
1393.000000	83.265567
1392.000000	83.266807
1391.000000	83.298473
1390.000000	83.345872
1389.000000	83.394906
1388.000000	83.455414
1387.000000	83.552268
1386.000000	83.685541
1385.000000	83.834588
1384.000000	83.996687
1383.000000	84.180938
1382.000000	84.382207
1381.000000	84.589000
1380.000000	84.804625
1379.000000	85.037238
1378.000000	85.277390
1377.000000	85.511664
1376.000000	85.748784
1375.000000	86.008519
1374.000000	86.287744
1373.000000	86.563328
1372.000000	86.826412
1371.000000	87.084560
1370.000000	87.341683
1369.000000	87.597560
1368.000000	87.854828
1367.000000	88.110559
1366.000000	88.354524
1365.000000	88.587425
1364.000000	88.827060
1363.000000	89.085623
1362.000000	89.349688
1361.000000	89.599688
1360.000000	89.834314
1359.000000	90.057951
1358.000000	90.268365
1357.000000	90.467566
1356.000000	90.664739
1355.000000	90.859792
1354.000000	91.040044
1353.000000	91.202042
1352.000000	91.358361
1351.000000	91.516388
1350.000000	91.668261
1349.000000	91.806445
1348.000000	91.935507
1347.000000	92.060520
1346.000000	92.178796
1345.000000	92.289709
1344.000000	92.398516
1343.000000	92.504973
1342.000000	92.602197
1341.000000	92.691047
1340.000000	92.783400
1339.000000	92.883913
1338.000000	92.982106
1337.000000	93.072702
1336.000000	93.163505
1335.000000	93.257573
1334.000000	93.347546
1333.000000	93.430575
1332.000000	93.514042
1331.000000	93.602174
1330.000000	93.689593
1329.000000	93.772717
1328.000000	93.855141
1327.000000	93.937395
1326.000000	94.013314
1325.000000	94.080748
1324.000000	94.145694
1323.000000	94.210685
1322.000000	94.270364
1321.000000	94.322551
1320.000000	94.373302
1319.000000	94.427011
1318.000000	94.481158
1317.000000	94.535054
1316.000000	94.592707
1315.000000	94.653534
1314.000000	94.711122
1313.000000	94.764784
1312.000000	94.821949
1311.000000	94.885785
1310.000000	94.950510
1309.000000	95.011802
1308.000000	95.071495
1307.000000	95.129896
1306.000000	95.183317
1305.000000	95.231827
1304.000000	95.281260
1303.000000	95.333815
1302.000000	95.384836
1301.000000	95.431056
1300.000000	95.474647
1299.000000	95.517574
1298.000000	95.559501
1297.000000	95.602062
1296.000000	95.647207
1295.000000	95.690715
1294.000000	95.725587
1293.000000	95.752179
1292.000000	95.776842
1291.000000	95.800898
1290.000000	95.819650
1289.000000	95.832807
1288.000000	95.846247
1287.000000	95.862077
1286.000000	95.876060
1285.000000	95.887013
1284.000000	95.900256
1283.000000	95.919094
1282.000000	95.940105
1281.000000	95.958985
1280.000000	95.975377
1279.000000	95.990867
1278.000000	96.007722
1277.000000	96.029678
1276.000000	96.057713
1275.000000	96.085599
1274.000000	96.106046
1273.000000	96.120533
1272.000000	96.136287
1271.000000	96.154374
1270.000000	96.168906
1269.000000	96.177863
1268.000000	96.185890
1267.000000	96.195582
1266.000000	96.204456
1265.000000	96.212253
1264.000000	96.223281
1263.000000	96.239009
1262.000000	96.254897
1261.000000	96.266863
1260.000000	96.275243
1259.000000	96.281216
1258.000000	96.284860
1257.000000	96.287603
1256.000000	96.291072
1255.000000	96.293284
1254.000000	96.291381
1253.000000	96.287873
1252.000000	96.288246
1251.000000	96.292474
1250.000000	96.294422
1249.000000	96.289793
1248.000000	96.279658
1247.000000	96.266442
1246.000000	96.252184
1245.000000	96.240907
1244.000000	96.236666
1243.000000	96.238171
1242.000000	96.240332
1241.000000	96.241506
1240.000000	96.244248
1239.000000	96.249110
1238.000000	96.253131
1237.000000	96.255074
1236.000000	96.256986
1235.000000	96.260380
1234.000000	96.265935
1233.000000	96.276742
1232.000000	96.296621
1231.000000	96.324459
1230.000000	96.355103
1229.000000	96.386512
1228.000000	96.421010
1227.000000	96.459626
1226.000000	96.500338
1225.000000	96.542112
1224.000000	96.585574
1223.000000	96.629044
1222.000000	96.668981
1221.000000	96.704948
1220.000000	96.739923
1219.000000	96.775457
1218.000000	96.810367
1217.000000	96.843641
1216.000000	96.874564
1215.000000	96.900932
1214.000000	96.921261
1213.000000	96.938013
1212.000000	96.954305
1211.000000	96.968596
1210.000000	96.976990
1209.000000	96.978882
1208.000000	96.976184
1207.000000	96.969250
1206.000000	96.958957
1205.000000	96.950840
1204.000000	96.950938
1203.000000	96.958248
1202.000000	96.966451
1201.000000	96.972608
1200.000000	96.979206
1199.000000	96.988434
1198.000000	96.999474
1197.000000	97.011325
1196.000000	97.023742
1195.000000	97.035629
1194.000000	97.046687
1193.000000	97.059748
1192.000000	97.077319
1191.000000	97.096842
1190.000000	97.113558
1189.000000	97.126538
1188.000000	97.137208
1187.000000	97.143521
1186.000000	97.141027
1185.000000	97.129508
1184.000000	97.113835
1183.000000	97.099042
1182.000000	97.088565
1181.000000	97.085528
1180.000000	97.090515
1179.000000	97.098469
1178.000000	97.102739
1177.000000	97.102028
1176.000000	97.099335
1175.000000	97.095329
1174.000000	97.087318
1173.000000	97.074248
1172.000000	97.058828
1171.000000	97.044801
1170.000000	97.035079
1169.000000	97.031480
1168.000000	97.033003
1167.000000	97.035307
1166.000000	97.035112
1165.000000	97.034043
1164.000000	97.035381
1163.000000	97.038977
1162.000000	97.042551
1161.000000	97.046066
1160.000000	97.051156
1159.000000	97.058256
1158.000000	97.067773
1157.000000	97.081667
1156.000000	97.100328
1155.000000	97.120269
1154.000000	97.138720
1153.000000	97.157831
1152.000000	97.180310
1151.000000	97.204464
1150.000000	97.228326
1149.000000	97.255002
1148.000000	97.287728
1147.000000	97.322349
1146.000000	97.351270
1145.000000	97.373209
1144.000000	97.393054
1143.000000	97.413686
1142.000000	97.433857
1141.000000	97.452929
1140.000000	97.472046
1139.000000	97.491211
1138.000000	97.509715
1137.000000	97.528529
1136.000000	97.548179
1135.000000	97.566098
1134.000000	97.580216
1133.000000	97.592652
1132.000000	97.605415
1131.000000	97.614931
1130.000000	97.616001
1129.000000	97.609399
1128.000000	97.600718
1127.000000	97.593899
1126.000000	97.590171
1125.000000	97.590517
1124.000000	97.594145
1123.000000	97.596641
1122.000000	97.594619
1121.000000	97.590263
1120.000000	97.586957
1119.000000	97.583254
1118.000000	97.575750
1117.000000	97.565028
1116.000000	97.553925
1115.000000	97.543317
1114.000000	97.534767
1113.000000	97.533560
1112.000000	97.542339
1111.000000	97.554290
1110.000000	97.559305
1109.000000	97.555301
1108.000000	97.548016
1107.000000	97.541984
1106.000000	97.538263
1105.000000	97.538477
1104.000000	97.543553
1103.000000	97.549116
1102.000000	97.548307
1101.000000	97.539492
1100.000000	97.526527
1099.000000	97.512817
1098.000000	97.500777
1097.000000	97.493591
1096.000000	97.492200
1095.000000	97.491810
1094.000000	97.486961
1093.000000	97.477974
1092.000000	97.467206
1091.000000	97.452304
1090.000000	97.429617
1089.000000	97.401711
1088.000000	97.374001
1087.000000	97.345848
1086.000000	97.312987
1085.000000	97.278011
1084.000000	97.250558
1083.000000	97.235678
1082.000000	97.228221
1081.000000	97.220376
1080.000000	97.210465
1079.000000	97.203172
1078.000000	97.204874
1077.000000	97.219114
1076.000000	97.242678
1075.000000	97.266705
1074.000000	97.285234
1073.000000	97.301161
1072.000000	97.319892
1071.000000	97.339669
1070.000000	97.353884
1069.000000	97.361037
1068.000000	97.366046
1067.000000	97.372766
1066.000000	97.381126
1065.000000	97.390901
1064.000000	97.402208
1063.000000	97.412206
1062.000000	97.416672
1061.000000	97.415523
1060.000000	97.412751
1059.000000	97.411262
1058.000000	97.411777
1057.000000	97.415691
1056.000000	97.424354
1055.000000	97.436000
1054.000000	97.447702
1053.000000	97.459855
1052.000000	97.474978
1051.000000	97.492725
1050.000000	97.509813
1049.000000	97.523661
1048.000000	97.532659
1047.000000	97.535439
1046.000000	97.534121
1045.000000	97.535012
1044.000000	97.541134
1043.000000	97.547026
1042.000000	97.545920
1041.000000	97.539862
1040.000000	97.536859
1039.000000	97.539842
1038.000000	97.544183
1037.000000	97.544846
1036.000000	97.540585
1035.000000	97.532143
1034.000000	97.522153
1033.000000	97.516136
1032.000000	97.518315
1031.000000	97.526608
1030.000000	97.536285
1029.000000	97.547757
1028.000000	97.565437
1027.000000	97.589173
1026.000000	97.612385
1025.000000	97.629690
1024.000000	97.642350
1023.000000	97.655452
1022.000000	97.672847
1021.000000	97.694859
1020.000000	97.718091
1019.000000	97.737639
1018.000000	97.751869
1017.000000	97.764027
1016.000000	97.777466
1015.000000	97.792050
1014.000000	97.807956
1013.000000	97.829268
1012.000000	97.858928
1011.000000	97.892560
1010.000000	97.922320
1009.000000	97.945840
1008.000000	97.967282
1007.000000	97.990769
1006.000000	98.016960
1005.000000	98.044804
1004.000000	98.072837
1003.000000	98.099364
1002.000000	98.124346
1001.000000	98.150134
1000.000000	98.178103
999.000000	98.206319
998.000000	98.232644
997.000000	98.257461
996.000000	98.280899
995.000000	98.300799
994.000000	98.316873
993.000000	98.333911
992.000000	98.357174
991.000000	98.386965
990.000000	98.420233
989.000000	98.454449
988.000000	98.487208
987.000000	98.515974
986.000000	98.541782
985.000000	98.569297
984.000000	98.599373
983.000000	98.625627
982.000000	98.642432
981.000000	98.652043
980.000000	98.659830
979.000000	98.666749
978.000000	98.671111
977.000000	98.673324
976.000000	98.673910
975.000000	98.671405
974.000000	98.667456
973.000000	98.669126
972.000000	98.679877
971.000000	98.692134
970.000000	98.695766
969.000000	98.691345
968.000000	98.688830
967.000000	98.695946
966.000000	98.713688
965.000000	98.740287
964.000000	98.772465
963.000000	98.804009
962.000000	98.829404
961.000000	98.849041
960.000000	98.867031
959.000000	98.885847
958.000000	98.906605
957.000000	98.930840
956.000000	98.957073
955.000000	98.979273
954.000000	98.994308
953.000000	99.007473
952.000000	99.025025
951.000000	99.044631
950.000000	99.059569
949.000000	99.069145
948.000000	99.078405
947.000000	99.090107
946.000000	99.103047
945.000000	99.115974
944.000000	99.127459
943.000000	99.134769
942.000000	99.138757
941.000000	99.146421
940.000000	99.162024
939.000000	99.179238
938.000000	99.189033
937.000000	99.192710
936.000000	99.199300
935.000000	99.212550
934.000000	99.228277
933.000000	99.243013
932.000000	99.257545
931.000000	99.272147
930.000000	99.285278
929.000000	99.296962
928.000000	99.308264
927.000000	99.318535
926.000000	99.327912
925.000000	99.339832
924.000000	99.355652
923.000000	99.369697
922.000000	99.375938
921.000000	99.376604
920.000000	99.378243
919.000000	99.383150
918.000000	99.391548
917.000000	99.407426
916.000000	99.432748
915.000000	99.459297
914.000000	99.476342
913.000000	99.484851
912.000000	99.493949
911.000000	99.505234
910.000000	99.511420
909.000000	99.510325
908.000000	99.509420
907.000000	99.514691
906.000000	99.524678
905.000000	99.536994
904.000000	99.551826
903.000000	99.567075
902.000000	99.578727
901.000000	99.588206
900.000000	99.602002
899.000000	99.622274
898.000000	99.645038
897.000000	99.667886
896.000000	99.691436
895.000000	99.712940
894.000000	99.727927
893.000000	99.739718
892.000000	99.757879
891.000000	99.785084
890.000000	99.812620
889.000000	99.829002
888.000000	99.823452
887.000000	99.777611
886.000000	99.664806
885.000000	99.458271
884.000000	99.130800
883.000000	98.649383
882.000000	97.979102
881.000000	97.099808
880.000000	96.009709
879.000000	94.718179
878.000000	93.251751
877.000000	91.658720
876.000000	89.991460
875.000000	88.295371
874.000000	86.684510
873.000000	85.458997
872.000000	85.088314
871.000000	85.926017
870.000000	87.864671
869.000000	90.325980
868.000000	92.629483
867.000000	94.384579
866.000000	95.575210
865.000000	96.369351
864.000000	96.921833
863.000000	97.323961
862.000000	97.632739
861.000000	97.883961
860.000000	98.089076
859.000000	98.248321
858.000000	98.372041
857.000000	98.476287
856.000000	98.567313
855.000000	98.644520
854.000000	98.711706
853.000000	98.770961
852.000000	98.806194
851.000000	98.791321
850.000000	98.724880
849.000000	98.649274
848.000000	98.625726
847.000000	98.686235
846.000000	98.810225
845.000000	98.946643
844.000000	99.055044
843.000000	99.126595
842.000000	99.173290
841.000000	99.206818
840.000000	99.231663
839.000000	99.251368
838.000000	99.271750
837.000000	99.296445
836.000000	99.325229
835.000000	99.358214
834.000000	99.395810
833.000000	99.432998
832.000000	99.460697
831.000000	99.477202
830.000000	99.492284
829.000000	99.513978
828.000000	99.536121
827.000000	99.547004
826.000000	99.546969
825.000000	99.548203
824.000000	99.557611
823.000000	99.568306
822.000000	99.569713
821.000000	99.559643
820.000000	99.545408
819.000000	99.538453
818.000000	99.547558
817.000000	99.571590
816.000000	99.598362
815.000000	99.615294
814.000000	99.621828
813.000000	99.627123
812.000000	99.635866
811.000000	99.642220
810.000000	99.638947
809.000000	99.627639
808.000000	99.617936
807.000000	99.619624
806.000000	99.635997
805.000000	99.661161
804.000000	99.683067
803.000000	99.692683
802.000000	99.691173
801.000000	99.686479
800.000000	99.683893
799.000000	99.682808
798.000000	99.680982
797.000000	99.677335
796.000000	99.671040
795.000000	99.662479
794.000000	99.654712
793.000000	99.650066
792.000000	99.646608
791.000000	99.642407
790.000000	99.641544
789.000000	99.649891
788.000000	99.664990
787.000000	99.675610
786.000000	99.672740
785.000000	99.657809
784.000000	99.639763
783.000000	99.627248
782.000000	99.623261
781.000000	99.624254
780.000000	99.624780
779.000000	99.624530
778.000000	99.627802
777.000000	99.633815
776.000000	99.633531
775.000000	99.622069
774.000000	99.608665
773.000000	99.605625
772.000000	99.611178
771.000000	99.613141
770.000000	99.606880
769.000000	99.598515
768.000000	99.591345
767.000000	99.581999
766.000000	99.572175
765.000000	99.571790
764.000000	99.585420
763.000000	99.605342
762.000000	99.623344
761.000000	99.640608
760.000000	99.660116
759.000000	99.677452
758.000000	99.686938
757.000000	99.691257
756.000000	99.697740
755.000000	99.708663
754.000000	99.720441
753.000000	99.729178
752.000000	99.733007
751.000000	99.732348
750.000000	99.731102
749.000000	99.734033
748.000000	99.739920
747.000000	99.740805
746.000000	99.731315
745.000000	99.715468
744.000000	99.701649
743.000000	99.694959
742.000000	99.696388
741.000000	99.704046
740.000000	99.712226
739.000000	99.713789
738.000000	99.706167
737.000000	99.691431
736.000000	99.670015
735.000000	99.640790
734.000000	99.608983
733.000000	99.585639
732.000000	99.574738
731.000000	99.567060
730.000000	99.551303
729.000000	99.525433
728.000000	99.495996
727.000000	99.470327
726.000000	99.449183
725.000000	99.425706
724.000000	99.390218
723.000000	99.336923
722.000000	99.265044
721.000000	99.172387
720.000000	99.049201
719.000000	98.878002
718.000000	98.634714
717.000000	98.288667
716.000000	97.819210
715.000000	97.261282
714.000000	96.738596
713.000000	96.420319
712.000000	96.412663
711.000000	96.682913
710.000000	97.092790
709.000000	97.499529
708.000000	97.827169
707.000000	98.067772
706.000000	98.241240
705.000000	98.367713
704.000000	98.464837
703.000000	98.546827
702.000000	98.619596
701.000000	98.680089
700.000000	98.722534
699.000000	98.749876
698.000000	98.772831
697.000000	98.798625
696.000000	98.826970
695.000000	98.855182
694.000000	98.887072
693.000000	98.927777
692.000000	98.970557
691.000000	99.003941
690.000000	99.025280
689.000000	99.039988
688.000000	99.049567
687.000000	99.049402
686.000000	99.044266
685.000000	99.047259
684.000000	99.058617
683.000000	99.065123
682.000000	99.061839
681.000000	99.056726
680.000000	99.049919
679.000000	99.032252
678.000000	99.008800
677.000000	98.994692
676.000000	98.994179
675.000000	98.994880
674.000000	98.987935
673.000000	98.984643
672.000000	99.009326
671.000000	99.087306
670.000000	99.230388
669.000000	99.407922
668.000000	99.481069
667.000000	99.349710
666.000000	99.162153
665.000000	99.016083
664.000000	98.917266
663.000000	98.868679
662.000000	98.862065
661.000000	98.877919
660.000000	98.894815
659.000000	98.903776
658.000000	98.904135
657.000000	98.891980
656.000000	98.873359
655.000000	98.865876
654.000000	98.871415
653.000000	98.869670
652.000000	98.853649
651.000000	98.844553
650.000000	98.860462
649.000000	98.887376
648.000000	98.899238
647.000000	98.888449
646.000000	98.863225
645.000000	98.835897
644.000000	98.819076
643.000000	98.819068
642.000000	98.829309
641.000000	98.835721
640.000000	98.833878
639.000000	98.832366
638.000000	98.834547
637.000000	98.832412
636.000000	98.823748
635.000000	98.816217
634.000000	98.811021
633.000000	98.798566
632.000000	98.775404
631.000000	98.753619
630.000000	98.745891
629.000000	98.750329
628.000000	98.758532
627.000000	98.767296
626.000000	98.772869
625.000000	98.768692
624.000000	98.753202
623.000000	98.732352
622.000000	98.712112
621.000000	98.694894
620.000000	98.684881
619.000000	98.686960
618.000000	98.696765
617.000000	98.699968
616.000000	98.687115
615.000000	98.664822
614.000000	98.647456
613.000000	98.642799
612.000000	98.649313
611.000000	98.660939
610.000000	98.671399
609.000000	98.677726
608.000000	98.682504
607.000000	98.689314
606.000000	98.694765
605.000000	98.695419
604.000000	98.696428
603.000000	98.703389
602.000000	98.710415
601.000000	98.707486
600.000000	98.697666
599.000000	98.694918
598.000000	98.701647
597.000000	98.702196
596.000000	98.685964
595.000000	98.664610
594.000000	98.657292
593.000000	98.666099
592.000000	98.676900
591.000000	98.681004
590.000000	98.684421
589.000000	98.694184
588.000000	98.705689
587.000000	98.706360
586.000000	98.687875
585.000000	98.655836
584.000000	98.627955
583.000000	98.620137
582.000000	98.632342
581.000000	98.649934
580.000000	98.659094
579.000000	98.657688
578.000000	98.649886
577.000000	98.640022
576.000000	98.636088
575.000000	98.647989
574.000000	98.672849
573.000000	98.690338
572.000000	98.682268
571.000000	98.651804
570.000000	98.619800
569.000000	98.602300
568.000000	98.597010
567.000000	98.589848
566.000000	98.567418
565.000000	98.525890
564.000000	98.474741
563.000000	98.432462
562.000000	98.411941
561.000000	98.411427
560.000000	98.423221
559.000000	98.443949
558.000000	98.469187
557.000000	98.486634
556.000000	98.486322
555.000000	98.476009
554.000000	98.475039
553.000000	98.489989
552.000000	98.506231
551.000000	98.506955
550.000000	98.495703
549.000000	98.493787
548.000000	98.515932
547.000000	98.554329
546.000000	98.587279
545.000000	98.601470
544.000000	98.601091
543.000000	98.594529
542.000000	98.582438
541.000000	98.563692
540.000000	98.544342
539.000000	98.530980
538.000000	98.518970
537.000000	98.498555
536.000000	98.471770
535.000000	98.452634
534.000000	98.448171
533.000000	98.450398
532.000000	98.448815
531.000000	98.441610
530.000000	98.432363
529.000000	98.425445
528.000000	98.426856
527.000000	98.441821
526.000000	98.465518
525.000000	98.483713
524.000000	98.487925
523.000000	98.478156
522.000000	98.455331
521.000000	98.428651
520.000000	98.426046
519.000000	98.475646
518.000000	98.567205
517.000000	98.652952
516.000000	98.701546
515.000000	98.723268
514.000000	98.735655
513.000000	98.736795
512.000000	98.722232
511.000000	98.704228
510.000000	98.697657
509.000000	98.701417
508.000000	98.707423
507.000000	98.716015
506.000000	98.724687
505.000000	98.717084
504.000000	98.684738
503.000000	98.648592
502.000000	98.640857
501.000000	98.664858
500.000000	98.696704
499.000000	98.725974
498.000000	98.764081
497.000000	98.818048
496.000000	98.876898
495.000000	98.922994
494.000000	98.944750
493.000000	98.939462
492.000000	98.915035
491.000000	98.888159
490.000000	98.870343
489.000000	98.860516
488.000000	98.855211
487.000000	98.855360
486.000000	98.857164
485.000000	98.854083
484.000000	98.860020
483.000000	98.907012
482.000000	98.992989
481.000000	99.056620
480.000000	99.038270
479.000000	98.951641
478.000000	98.870417
477.000000	98.847488
476.000000	98.872525
475.000000	98.911156
474.000000	98.947478
473.000000	98.978195
472.000000	98.994654
471.000000	98.993815
470.000000	98.987950
469.000000	98.989085
468.000000	98.996497
467.000000	99.001821
466.000000	98.998047
465.000000	98.985252
464.000000	98.974516
463.000000	98.979007
462.000000	98.992034
461.000000	98.989126
460.000000	98.971140
459.000000	98.986356
458.000000	99.081678
457.000000	99.224095
456.000000	99.334853
455.000000	99.401414
454.000000	99.471703
453.000000	99.575691
452.000000	99.693899
451.000000	99.776269
450.000000	99.791493
