PE IR       SUBTECH     SPECTRUM    ASCII       PEDS        4.00        
   -1
AD10-C014_1.ASC
23/09/08
11:11:06.00
23/09/08
11:14:38.00
uco
Sample 014 By uco Date Friday, September 08 2023
450.000000
#HDR
-1
-1
#GR
cm-1
%T
1.0
0.0
4000.000000
-1.000000
3551
8
100.307453
98.386021
#DATA
4000.000000	100.128916
3999.000000	100.132205
3998.000000	100.134167
3997.000000	100.134939
3996.000000	100.133299
3995.000000	100.130164
3994.000000	100.125972
3993.000000	100.121080
3992.000000	100.116145
3991.000000	100.112251
3990.000000	100.110380
3989.000000	100.110811
3988.000000	100.113216
3987.000000	100.117162
3986.000000	100.122168
3985.000000	100.127234
3984.000000	100.130643
3983.000000	100.130685
3982.000000	100.126793
3981.000000	100.119977
3980.000000	100.112227
3979.000000	100.105567
3978.000000	100.101553
3977.000000	100.101076
3976.000000	100.103993
3975.000000	100.108760
3974.000000	100.112955
3973.000000	100.114674
3972.000000	100.113667
3971.000000	100.111224
3970.000000	100.108999
3969.000000	100.108045
3968.000000	100.108460
3967.000000	100.109463
3966.000000	100.109835
3965.000000	100.108695
3964.000000	100.106429
3963.000000	100.104827
3962.000000	100.105807
3961.000000	100.109668
3960.000000	100.114606
3959.000000	100.118133
3958.000000	100.119122
3957.000000	100.118651
3956.000000	100.118920
3955.000000	100.121204
3954.000000	100.124511
3953.000000	100.126198
3952.000000	100.124191
3951.000000	100.118915
3950.000000	100.113345
3949.000000	100.110825
3948.000000	100.112226
3947.000000	100.115388
3946.000000	100.117393
3945.000000	100.117005
3944.000000	100.115281
3943.000000	100.114348
3942.000000	100.115303
3941.000000	100.117290
3940.000000	100.118717
3939.000000	100.118883
3938.000000	100.118310
3937.000000	100.117988
3936.000000	100.118400
3935.000000	100.119314
3934.000000	100.120269
3933.000000	100.120949
3932.000000	100.120968
3931.000000	100.119664
3930.000000	100.116731
3929.000000	100.112778
3928.000000	100.108779
3927.000000	100.105424
3926.000000	100.103163
3925.000000	100.102608
3924.000000	100.104214
3923.000000	100.107370
3922.000000	100.110397
3921.000000	100.111746
3920.000000	100.111279
3919.000000	100.110343
3918.000000	100.110434
3917.000000	100.111700
3916.000000	100.113001
3915.000000	100.113416
3914.000000	100.113218
3913.000000	100.113489
3912.000000	100.115192
3911.000000	100.118334
3910.000000	100.121656
3909.000000	100.123554
3908.000000	100.123159
3907.000000	100.120601
3906.000000	100.116553
3905.000000	100.111818
3904.000000	100.107457
3903.000000	100.104879
3902.000000	100.105123
3901.000000	100.107733
3900.000000	100.110785
3899.000000	100.112547
3898.000000	100.113064
3897.000000	100.113433
3896.000000	100.113997
3895.000000	100.113719
3894.000000	100.111167
3893.000000	100.106453
3892.000000	100.101992
3891.000000	100.100285
3890.000000	100.101246
3889.000000	100.102842
3888.000000	100.102956
3887.000000	100.101081
3886.000000	100.099331
3885.000000	100.099909
3884.000000	100.102037
3883.000000	100.103297
3882.000000	100.102711
3881.000000	100.102071
3880.000000	100.103638
3879.000000	100.106413
3878.000000	100.106898
3877.000000	100.102887
3876.000000	100.095750
3875.000000	100.090254
3874.000000	100.090555
3873.000000	100.095676
3872.000000	100.100868
3871.000000	100.103643
3870.000000	100.106346
3869.000000	100.111322
3868.000000	100.116713
3867.000000	100.119078
3866.000000	100.117249
3865.000000	100.113850
3864.000000	100.113276
3863.000000	100.116746
3862.000000	100.121133
3861.000000	100.123183
3860.000000	100.122822
3859.000000	100.122826
3858.000000	100.126014
3857.000000	100.131824
3856.000000	100.135669
3855.000000	100.134027
3854.000000	100.131007
3853.000000	100.131630
3852.000000	100.132750
3851.000000	100.130747
3850.000000	100.126399
3849.000000	100.121556
3848.000000	100.117562
3847.000000	100.115109
3846.000000	100.113707
3845.000000	100.112107
3844.000000	100.109728
3843.000000	100.107353
3842.000000	100.105932
3841.000000	100.104982
3840.000000	100.102697
3839.000000	100.098550
3838.000000	100.094491
3837.000000	100.092278
3836.000000	100.091276
3835.000000	100.089945
3834.000000	100.087883
3833.000000	100.086074
3832.000000	100.085853
3831.000000	100.087397
3830.000000	100.089282
3829.000000	100.089563
3828.000000	100.087356
3827.000000	100.083463
3826.000000	100.079608
3825.000000	100.077044
3824.000000	100.075891
3823.000000	100.076780
3822.000000	100.082636
3821.000000	100.094065
3820.000000	100.105279
3819.000000	100.110359
3818.000000	100.107825
3817.000000	100.100133
3816.000000	100.093213
3815.000000	100.091810
3814.000000	100.095537
3813.000000	100.101640
3812.000000	100.107960
3811.000000	100.113211
3810.000000	100.116234
3809.000000	100.115872
3808.000000	100.112062
3807.000000	100.106280
3806.000000	100.100369
3805.000000	100.095495
3804.000000	100.091316
3803.000000	100.087040
3802.000000	100.083967
3801.000000	100.084102
3800.000000	100.086913
3799.000000	100.090895
3798.000000	100.095145
3797.000000	100.098821
3796.000000	100.101224
3795.000000	100.102053
3794.000000	100.101518
3793.000000	100.100055
3792.000000	100.098209
3791.000000	100.096656
3790.000000	100.095836
3789.000000	100.095529
3788.000000	100.095106
3787.000000	100.094261
3786.000000	100.093567
3785.000000	100.094237
3784.000000	100.096996
3783.000000	100.100959
3782.000000	100.103658
3781.000000	100.102398
3780.000000	100.096424
3779.000000	100.088276
3778.000000	100.082512
3777.000000	100.082363
3776.000000	100.087937
3775.000000	100.096885
3774.000000	100.105781
3773.000000	100.111434
3772.000000	100.112135
3771.000000	100.108550
3770.000000	100.103363
3769.000000	100.099264
3768.000000	100.097399
3767.000000	100.097937
3766.000000	100.100985
3765.000000	100.105994
3764.000000	100.110853
3763.000000	100.112300
3762.000000	100.107658
3761.000000	100.096783
3760.000000	100.083468
3759.000000	100.074229
3758.000000	100.073762
3757.000000	100.082064
3756.000000	100.095780
3755.000000	100.110399
3754.000000	100.121849
3753.000000	100.128729
3752.000000	100.133731
3751.000000	100.139530
3750.000000	100.142849
3749.000000	100.139709
3748.000000	100.132364
3747.000000	100.124592
3746.000000	100.117711
3745.000000	100.113970
3744.000000	100.115169
3743.000000	100.117969
3742.000000	100.119747
3741.000000	100.121263
3740.000000	100.122810
3739.000000	100.123381
3738.000000	100.121824
3737.000000	100.118138
3736.000000	100.114092
3735.000000	100.111517
3734.000000	100.110436
3733.000000	100.109895
3732.000000	100.110039
3731.000000	100.112185
3730.000000	100.116966
3729.000000	100.122925
3728.000000	100.127073
3727.000000	100.127170
3726.000000	100.123588
3725.000000	100.118314
3724.000000	100.112752
3723.000000	100.107220
3722.000000	100.102172
3721.000000	100.098561
3720.000000	100.096976
3719.000000	100.097286
3718.000000	100.099096
3717.000000	100.102525
3716.000000	100.108089
3715.000000	100.115370
3714.000000	100.121876
3713.000000	100.123591
3712.000000	100.117851
3711.000000	100.107645
3710.000000	100.101163
3709.000000	100.103835
3708.000000	100.113647
3707.000000	100.124614
3706.000000	100.131793
3705.000000	100.133127
3704.000000	100.129435
3703.000000	100.123877
3702.000000	100.120357
3701.000000	100.120040
3700.000000	100.120152
3699.000000	100.117544
3698.000000	100.112401
3697.000000	100.108386
3696.000000	100.109656
3695.000000	100.117368
3694.000000	100.128814
3693.000000	100.139564
3692.000000	100.145549
3691.000000	100.144207
3690.000000	100.135963
3689.000000	100.125193
3688.000000	100.117184
3687.000000	100.113997
3686.000000	100.114561
3685.000000	100.116340
3684.000000	100.116578
3683.000000	100.114192
3682.000000	100.111283
3681.000000	100.111974
3680.000000	100.118714
3679.000000	100.128958
3678.000000	100.136394
3677.000000	100.136800
3676.000000	100.133428
3675.000000	100.132324
3674.000000	100.133663
3673.000000	100.133654
3672.000000	100.129405
3671.000000	100.121728
3670.000000	100.115302
3669.000000	100.112452
3668.000000	100.110910
3667.000000	100.109237
3666.000000	100.108366
3665.000000	100.109272
3664.000000	100.111332
3663.000000	100.112695
3662.000000	100.112220
3661.000000	100.110786
3660.000000	100.110121
3659.000000	100.110562
3658.000000	100.110872
3657.000000	100.110233
3656.000000	100.109421
3655.000000	100.109796
3654.000000	100.112115
3653.000000	100.115882
3652.000000	100.119703
3651.000000	100.122893
3650.000000	100.125836
3649.000000	100.127927
3648.000000	100.127769
3647.000000	100.125602
3646.000000	100.122454
3645.000000	100.118317
3644.000000	100.112446
3643.000000	100.104984
3642.000000	100.098030
3641.000000	100.095126
3640.000000	100.098866
3639.000000	100.108360
3638.000000	100.118720
3637.000000	100.124051
3636.000000	100.122326
3635.000000	100.117326
3634.000000	100.115054
3633.000000	100.117163
3632.000000	100.118584
3631.000000	100.112141
3630.000000	100.096984
3629.000000	100.082564
3628.000000	100.078004
3627.000000	100.082188
3626.000000	100.090708
3625.000000	100.101066
3624.000000	100.110927
3623.000000	100.117540
3622.000000	100.119277
3621.000000	100.117050
3620.000000	100.113768
3619.000000	100.111643
3618.000000	100.110577
3617.000000	100.109968
3616.000000	100.109768
3615.000000	100.109450
3614.000000	100.108142
3613.000000	100.105769
3612.000000	100.102824
3611.000000	100.098920
3610.000000	100.092773
3609.000000	100.084453
3608.000000	100.077184
3607.000000	100.075353
3606.000000	100.080466
3605.000000	100.089796
3604.000000	100.098415
3603.000000	100.102207
3602.000000	100.100476
3601.000000	100.096458
3600.000000	100.094651
3599.000000	100.097024
3598.000000	100.101788
3597.000000	100.105311
3596.000000	100.104839
3595.000000	100.100401
3594.000000	100.095161
3593.000000	100.093359
3592.000000	100.097105
3591.000000	100.105212
3590.000000	100.114306
3589.000000	100.120457
3588.000000	100.120378
3587.000000	100.113212
3586.000000	100.102453
3585.000000	100.093792
3584.000000	100.090269
3583.000000	100.090473
3582.000000	100.090846
3581.000000	100.089305
3580.000000	100.087012
3579.000000	100.086688
3578.000000	100.089559
3577.000000	100.094225
3576.000000	100.097674
3575.000000	100.097263
3574.000000	100.092611
3573.000000	100.086458
3572.000000	100.082709
3571.000000	100.082792
3570.000000	100.083771
3569.000000	100.080660
3568.000000	100.071742
3567.000000	100.062087
3566.000000	100.058892
3565.000000	100.063838
3564.000000	100.073314
3563.000000	100.083054
3562.000000	100.090413
3561.000000	100.094505
3560.000000	100.095531
3559.000000	100.093885
3558.000000	100.089743
3557.000000	100.083533
3556.000000	100.076463
3555.000000	100.070420
3554.000000	100.067493
3553.000000	100.069264
3552.000000	100.075672
3551.000000	100.084163
3550.000000	100.090756
3549.000000	100.092563
3548.000000	100.089717
3547.000000	100.085251
3546.000000	100.082565
3545.000000	100.082415
3544.000000	100.082843
3543.000000	100.081860
3542.000000	100.079316
3541.000000	100.076741
3540.000000	100.076071
3539.000000	100.078154
3538.000000	100.081839
3537.000000	100.084611
3536.000000	100.084580
3535.000000	100.081888
3534.000000	100.078005
3533.000000	100.074009
3532.000000	100.069877
3531.000000	100.065033
3530.000000	100.059158
3529.000000	100.052729
3528.000000	100.047137
3527.000000	100.044232
3526.000000	100.045299
3525.000000	100.050247
3524.000000	100.057645
3523.000000	100.065297
3522.000000	100.070914
3521.000000	100.072769
3520.000000	100.070396
3519.000000	100.065155
3518.000000	100.059950
3517.000000	100.057447
3516.000000	100.057814
3515.000000	100.058567
3514.000000	100.057138
3513.000000	100.053808
3512.000000	100.051767
3511.000000	100.054063
3510.000000	100.060417
3509.000000	100.067345
3508.000000	100.071514
3507.000000	100.072316
3506.000000	100.071006
3505.000000	100.068453
3504.000000	100.064563
3503.000000	100.059537
3502.000000	100.054835
3501.000000	100.052215
3500.000000	100.052042
3499.000000	100.052911
3498.000000	100.052771
3497.000000	100.050357
3496.000000	100.045861
3495.000000	100.040606
3494.000000	100.036294
3493.000000	100.034334
3492.000000	100.035262
3491.000000	100.038387
3490.000000	100.042124
3489.000000	100.044982
3488.000000	100.046248
3487.000000	100.045677
3486.000000	100.042906
3485.000000	100.037760
3484.000000	100.031358
3483.000000	100.026554
3482.000000	100.026562
3481.000000	100.032478
3480.000000	100.042109
3479.000000	100.051457
3478.000000	100.057464
3477.000000	100.059488
3476.000000	100.058670
3475.000000	100.056250
3474.000000	100.052566
3473.000000	100.047596
3472.000000	100.042093
3471.000000	100.037785
3470.000000	100.036230
3469.000000	100.037495
3468.000000	100.039898
3467.000000	100.041288
3466.000000	100.040975
3465.000000	100.040399
3464.000000	100.041556
3463.000000	100.044484
3462.000000	100.046605
3461.000000	100.044994
3460.000000	100.039291
3459.000000	100.032180
3458.000000	100.027151
3457.000000	100.026052
3456.000000	100.028314
3455.000000	100.031864
3454.000000	100.034831
3453.000000	100.036797
3452.000000	100.038595
3451.000000	100.040676
3450.000000	100.041810
3449.000000	100.039984
3448.000000	100.034848
3447.000000	100.028910
3446.000000	100.025600
3445.000000	100.026326
3444.000000	100.030036
3443.000000	100.035099
3442.000000	100.040670
3441.000000	100.046175
3440.000000	100.050344
3439.000000	100.051635
3438.000000	100.049843
3437.000000	100.046758
3436.000000	100.044528
3435.000000	100.043359
3434.000000	100.041391
3433.000000	100.037075
3432.000000	100.031208
3431.000000	100.026384
3430.000000	100.024924
3429.000000	100.027603
3428.000000	100.033437
3427.000000	100.039674
3426.000000	100.042575
3425.000000	100.039859
3424.000000	100.032974
3423.000000	100.026178
3422.000000	100.022896
3421.000000	100.023387
3420.000000	100.025874
3419.000000	100.028679
3418.000000	100.030445
3417.000000	100.029704
3416.000000	100.026134
3415.000000	100.022024
3414.000000	100.020794
3413.000000	100.023323
3412.000000	100.026681
3411.000000	100.027113
3410.000000	100.023797
3409.000000	100.019332
3408.000000	100.017161
3407.000000	100.019090
3406.000000	100.024669
3405.000000	100.031829
3404.000000	100.037856
3403.000000	100.040469
3402.000000	100.038848
3401.000000	100.033910
3400.000000	100.027518
3399.000000	100.021234
3398.000000	100.015743
3397.000000	100.011347
3396.000000	100.008733
3395.000000	100.008858
3394.000000	100.011826
3393.000000	100.016105
3392.000000	100.019416
3391.000000	100.020695
3390.000000	100.020883
3389.000000	100.021634
3388.000000	100.023500
3387.000000	100.025567
3386.000000	100.026568
3385.000000	100.025994
3384.000000	100.024231
3383.000000	100.022104
3382.000000	100.020472
3381.000000	100.019911
3380.000000	100.020390
3379.000000	100.021303
3378.000000	100.022074
3377.000000	100.022707
3376.000000	100.023584
3375.000000	100.024814
3374.000000	100.026094
3373.000000	100.027223
3372.000000	100.028296
3371.000000	100.029077
3370.000000	100.028519
3369.000000	100.025545
3368.000000	100.020534
3367.000000	100.015620
3366.000000	100.012980
3365.000000	100.012827
3364.000000	100.013392
3363.000000	100.012940
3362.000000	100.011481
3361.000000	100.010357
3360.000000	100.010441
3359.000000	100.011245
3358.000000	100.011844
3357.000000	100.012057
3356.000000	100.012196
3355.000000	100.011902
3354.000000	100.010100
3353.000000	100.006567
3352.000000	100.002992
3351.000000	100.001624
3350.000000	100.002678
3349.000000	100.003700
3348.000000	100.002046
3347.000000	99.997969
3346.000000	99.994825
3345.000000	99.995982
3344.000000	100.001719
3343.000000	100.009364
3342.000000	100.016255
3341.000000	100.021933
3340.000000	100.027209
3339.000000	100.031881
3338.000000	100.034332
3337.000000	100.033393
3336.000000	100.029710
3335.000000	100.024878
3334.000000	100.019821
3333.000000	100.014629
3332.000000	100.009473
3331.000000	100.004761
3330.000000	100.000586
3329.000000	99.996918
3328.000000	99.994479
3327.000000	99.994668
3326.000000	99.998021
3325.000000	100.003006
3324.000000	100.006760
3323.000000	100.007098
3322.000000	100.003948
3321.000000	99.999420
3320.000000	99.996693
3319.000000	99.998155
3318.000000	100.003612
3317.000000	100.009977
3316.000000	100.013181
3315.000000	100.011038
3314.000000	100.004759
3313.000000	99.997838
3312.000000	99.993362
3311.000000	99.991950
3310.000000	99.991961
3309.000000	99.991476
3308.000000	99.990033
3307.000000	99.988539
3306.000000	99.988037
3305.000000	99.989019
3304.000000	99.991717
3303.000000	99.996213
3302.000000	100.001837
3301.000000	100.006906
3300.000000	100.009752
3299.000000	100.010129
3298.000000	100.009339
3297.000000	100.008917
3296.000000	100.009211
3295.000000	100.009117
3294.000000	100.007086
3293.000000	100.002607
3292.000000	99.997039
3291.000000	99.992848
3290.000000	99.991620
3289.000000	99.992746
3288.000000	99.994288
3287.000000	99.994991
3286.000000	99.994969
3285.000000	99.994449
3284.000000	99.992703
3283.000000	99.989041
3282.000000	99.984659
3281.000000	99.982458
3280.000000	99.984376
3279.000000	99.989361
3278.000000	99.994577
3277.000000	99.998444
3276.000000	100.001906
3275.000000	100.006602
3274.000000	100.012600
3273.000000	100.018309
3272.000000	100.021942
3271.000000	100.022367
3270.000000	100.019042
3269.000000	100.012466
3268.000000	100.004963
3267.000000	99.999952
3266.000000	99.999281
3265.000000	100.001230
3264.000000	100.001970
3263.000000	99.999465
3262.000000	99.995743
3261.000000	99.994994
3260.000000	99.999219
3259.000000	100.005856
3258.000000	100.010070
3257.000000	100.009493
3256.000000	100.006520
3255.000000	100.005735
3254.000000	100.009144
3253.000000	100.014460
3252.000000	100.018013
3251.000000	100.018648
3250.000000	100.018434
3249.000000	100.019853
3248.000000	100.022857
3247.000000	100.024802
3246.000000	100.023108
3245.000000	100.017947
3244.000000	100.012149
3243.000000	100.008347
3242.000000	100.006542
3241.000000	100.004698
3240.000000	100.001377
3239.000000	99.997137
3238.000000	99.993473
3237.000000	99.991402
3236.000000	99.991528
3235.000000	99.994601
3234.000000	100.000773
3233.000000	100.008383
3232.000000	100.014565
3231.000000	100.017591
3230.000000	100.018192
3229.000000	100.018251
3228.000000	100.018674
3227.000000	100.018927
3226.000000	100.018354
3225.000000	100.017209
3224.000000	100.016180
3223.000000	100.015303
3222.000000	100.013841
3221.000000	100.011432
3220.000000	100.009200
3219.000000	100.009356
3218.000000	100.013313
3217.000000	100.020121
3216.000000	100.026710
3215.000000	100.029814
3214.000000	100.028168
3213.000000	100.023332
3212.000000	100.018526
3211.000000	100.016227
3210.000000	100.016448
3209.000000	100.017319
3208.000000	100.017350
3207.000000	100.016902
3206.000000	100.017216
3205.000000	100.018512
3204.000000	100.019796
3203.000000	100.020395
3202.000000	100.020768
3201.000000	100.021384
3200.000000	100.021533
3199.000000	100.020036
3198.000000	100.016968
3197.000000	100.013929
3196.000000	100.012438
3195.000000	100.012412
3194.000000	100.012409
3193.000000	100.011082
3192.000000	100.008428
3191.000000	100.005862
3190.000000	100.005012
3189.000000	100.006059
3188.000000	100.007242
3187.000000	100.006489
3186.000000	100.003739
3185.000000	100.001327
3184.000000	100.001735
3183.000000	100.005260
3182.000000	100.009979
3181.000000	100.013467
3180.000000	100.014134
3179.000000	100.011589
3178.000000	100.006944
3177.000000	100.002851
3176.000000	100.002175
3175.000000	100.005634
3174.000000	100.010861
3173.000000	100.014285
3172.000000	100.014224
3171.000000	100.012273
3170.000000	100.011623
3169.000000	100.014103
3168.000000	100.018575
3167.000000	100.022119
3166.000000	100.022735
3165.000000	100.021000
3164.000000	100.019142
3163.000000	100.018768
3162.000000	100.019683
3161.000000	100.020693
3160.000000	100.021009
3159.000000	100.020684
3158.000000	100.020086
3157.000000	100.019327
3156.000000	100.018230
3155.000000	100.016786
3154.000000	100.015676
3153.000000	100.016128
3152.000000	100.018790
3151.000000	100.022746
3150.000000	100.026069
3149.000000	100.027497
3148.000000	100.027182
3147.000000	100.025772
3146.000000	100.023388
3145.000000	100.019898
3144.000000	100.015702
3143.000000	100.011798
3142.000000	100.009373
3141.000000	100.009495
3140.000000	100.012524
3139.000000	100.017247
3138.000000	100.021128
3137.000000	100.022186
3136.000000	100.020443
3135.000000	100.017224
3134.000000	100.013750
3133.000000	100.011246
3132.000000	100.011563
3131.000000	100.015890
3130.000000	100.022596
3129.000000	100.027677
3128.000000	100.028072
3127.000000	100.024065
3126.000000	100.018296
3125.000000	100.013362
3124.000000	100.010856
3123.000000	100.011567
3122.000000	100.015293
3121.000000	100.020578
3120.000000	100.025443
3119.000000	100.028550
3118.000000	100.029624
3117.000000	100.029184
3116.000000	100.028227
3115.000000	100.027558
3114.000000	100.026924
3113.000000	100.025163
3112.000000	100.021811
3111.000000	100.018224
3110.000000	100.016427
3109.000000	100.016847
3108.000000	100.017738
3107.000000	100.017072
3106.000000	100.014623
3105.000000	100.012043
3104.000000	100.010975
3103.000000	100.011355
3102.000000	100.011708
3101.000000	100.011096
3100.000000	100.010381
3099.000000	100.011069
3098.000000	100.013281
3097.000000	100.015681
3096.000000	100.017316
3095.000000	100.018462
3094.000000	100.019273
3093.000000	100.018637
3092.000000	100.015430
3091.000000	100.010519
3090.000000	100.006663
3089.000000	100.006426
3088.000000	100.010378
3087.000000	100.016825
3086.000000	100.022762
3085.000000	100.025650
3084.000000	100.025064
3083.000000	100.022555
3082.000000	100.019620
3081.000000	100.016542
3080.000000	100.013724
3079.000000	100.012866
3078.000000	100.014983
3077.000000	100.017781
3076.000000	100.017161
3075.000000	100.011869
3074.000000	100.005307
3073.000000	100.002091
3072.000000	100.003994
3071.000000	100.009613
3070.000000	100.016402
3069.000000	100.021724
3068.000000	100.023175
3067.000000	100.020044
3066.000000	100.014498
3065.000000	100.010039
3064.000000	100.008487
3063.000000	100.009329
3062.000000	100.011697
3061.000000	100.015478
3060.000000	100.019947
3059.000000	100.022624
3058.000000	100.020923
3057.000000	100.015008
3056.000000	100.008358
3055.000000	100.005063
3054.000000	100.006523
3053.000000	100.010657
3052.000000	100.014099
3051.000000	100.015100
3050.000000	100.014490
3049.000000	100.014157
3048.000000	100.014983
3047.000000	100.016527
3046.000000	100.018271
3045.000000	100.020312
3044.000000	100.022587
3043.000000	100.024077
3042.000000	100.023372
3041.000000	100.020087
3040.000000	100.015460
3039.000000	100.011532
3038.000000	100.009702
3037.000000	100.009756
3036.000000	100.010110
3035.000000	100.009201
3034.000000	100.007046
3033.000000	100.005457
3032.000000	100.006459
3031.000000	100.010218
3030.000000	100.014545
3029.000000	100.016570
3028.000000	100.015113
3027.000000	100.011736
3026.000000	100.009593
3025.000000	100.010998
3024.000000	100.015701
3023.000000	100.021361
3022.000000	100.025618
3021.000000	100.027762
3020.000000	100.028619
3019.000000	100.029213
3018.000000	100.029725
3017.000000	100.029659
3016.000000	100.028785
3015.000000	100.027735
3014.000000	100.027420
3013.000000	100.027709
3012.000000	100.026953
3011.000000	100.023472
3010.000000	100.017636
3009.000000	100.011962
3008.000000	100.008941
3007.000000	100.009184
3006.000000	100.011929
3005.000000	100.016355
3004.000000	100.021429
3003.000000	100.024964
3002.000000	100.024514
3001.000000	100.019958
3000.000000	100.014313
2999.000000	100.011167
2998.000000	100.011426
2997.000000	100.013042
2996.000000	100.013459
2995.000000	100.011769
2994.000000	100.008874
2993.000000	100.006401
2992.000000	100.005663
2991.000000	100.007110
2990.000000	100.010363
2989.000000	100.014713
2988.000000	100.019362
2987.000000	100.023110
2986.000000	100.024353
2985.000000	100.022254
2984.000000	100.017963
2983.000000	100.014075
2982.000000	100.012466
2981.000000	100.012807
2980.000000	100.013121
2979.000000	100.011362
2978.000000	100.006647
2977.000000	99.999829
2976.000000	99.993475
2975.000000	99.990552
2974.000000	99.992057
2973.000000	99.995867
2972.000000	99.998558
2971.000000	99.998516
2970.000000	99.996784
2969.000000	99.994957
2968.000000	99.993248
2967.000000	99.991132
2966.000000	99.988966
2965.000000	99.987652
2964.000000	99.986766
2963.000000	99.984460
2962.000000	99.979936
2961.000000	99.975242
2960.000000	99.973572
2959.000000	99.976050
2958.000000	99.980993
2957.000000	99.985959
2956.000000	99.989393
2955.000000	99.990369
2954.000000	99.988442
2953.000000	99.984772
2952.000000	99.982254
2951.000000	99.982992
2950.000000	99.985825
2949.000000	99.987473
2948.000000	99.986051
2947.000000	99.982386
2946.000000	99.977877
2945.000000	99.972560
2944.000000	99.966149
2943.000000	99.960086
2942.000000	99.957236
2941.000000	99.959287
2940.000000	99.964904
2939.000000	99.970428
2938.000000	99.972317
2937.000000	99.969380
2936.000000	99.963415
2935.000000	99.957742
2934.000000	99.954612
2933.000000	99.953580
2932.000000	99.952237
2931.000000	99.948443
2930.000000	99.941970
2929.000000	99.934480
2928.000000	99.928387
2927.000000	99.925451
2926.000000	99.925709
2925.000000	99.927267
2924.000000	99.927442
2923.000000	99.924670
2922.000000	99.919622
2921.000000	99.914402
2920.000000	99.910682
2919.000000	99.908703
2918.000000	99.908057
2917.000000	99.908947
2916.000000	99.912000
2915.000000	99.916841
2914.000000	99.921680
2913.000000	99.925043
2912.000000	99.927532
2911.000000	99.931033
2910.000000	99.936230
2909.000000	99.941736
2908.000000	99.945927
2907.000000	99.948758
2906.000000	99.951206
2905.000000	99.953749
2904.000000	99.956376
2903.000000	99.959677
2902.000000	99.964586
2901.000000	99.970547
2900.000000	99.974920
2899.000000	99.975067
2898.000000	99.970912
2897.000000	99.965028
2896.000000	99.960350
2895.000000	99.958229
2894.000000	99.958430
2893.000000	99.960154
2892.000000	99.962507
2891.000000	99.964488
2890.000000	99.965421
2889.000000	99.965598
2888.000000	99.966027
2887.000000	99.967252
2886.000000	99.968807
2885.000000	99.970052
2884.000000	99.971062
2883.000000	99.972067
2882.000000	99.972356
2881.000000	99.970667
2880.000000	99.966953
2879.000000	99.963049
2878.000000	99.961097
2877.000000	99.961708
2876.000000	99.964093
2875.000000	99.967544
2874.000000	99.971836
2873.000000	99.976097
2872.000000	99.978249
2871.000000	99.976519
2870.000000	99.971581
2869.000000	99.966522
2868.000000	99.964187
2867.000000	99.964643
2866.000000	99.965474
2865.000000	99.964481
2864.000000	99.961606
2863.000000	99.958265
2862.000000	99.955619
2861.000000	99.954059
2860.000000	99.953802
2859.000000	99.954812
2858.000000	99.956005
2857.000000	99.955391
2856.000000	99.951623
2855.000000	99.945191
2854.000000	99.937887
2853.000000	99.931306
2852.000000	99.925996
2851.000000	99.921809
2850.000000	99.918832
2849.000000	99.917953
2848.000000	99.920247
2847.000000	99.925602
2846.000000	99.932345
2845.000000	99.938861
2844.000000	99.945289
2843.000000	99.952733
2842.000000	99.960844
2841.000000	99.967307
2840.000000	99.970292
2839.000000	99.970500
2838.000000	99.970249
2837.000000	99.971341
2836.000000	99.974389
2835.000000	99.979193
2834.000000	99.984499
2833.000000	99.988050
2832.000000	99.988369
2831.000000	99.986474
2830.000000	99.984658
2829.000000	99.983619
2828.000000	99.982070
2827.000000	99.979314
2826.000000	99.976734
2825.000000	99.975888
2824.000000	99.976261
2823.000000	99.976189
2822.000000	99.975530
2821.000000	99.976103
2820.000000	99.979218
2819.000000	99.983602
2818.000000	99.986396
2817.000000	99.985952
2816.000000	99.983363
2815.000000	99.981334
2814.000000	99.981753
2813.000000	99.984319
2812.000000	99.987139
2811.000000	99.988273
2810.000000	99.986850
2809.000000	99.983358
2808.000000	99.979372
2807.000000	99.976715
2806.000000	99.976223
2805.000000	99.977184
2804.000000	99.978298
2803.000000	99.979133
2802.000000	99.980094
2801.000000	99.980948
2800.000000	99.980211
2799.000000	99.976718
2798.000000	99.971679
2797.000000	99.968495
2796.000000	99.970108
2795.000000	99.976297
2794.000000	99.983547
2793.000000	99.987752
2792.000000	99.987571
2791.000000	99.985439
2790.000000	99.985123
2789.000000	99.988018
2788.000000	99.991913
2787.000000	99.993397
2786.000000	99.991257
2785.000000	99.987428
2784.000000	99.984975
2783.000000	99.985524
2782.000000	99.988385
2781.000000	99.991518
2780.000000	99.993104
2779.000000	99.992611
2778.000000	99.990916
2777.000000	99.989485
2776.000000	99.989121
2775.000000	99.989247
2774.000000	99.988569
2773.000000	99.986699
2772.000000	99.985096
2771.000000	99.985950
2770.000000	99.989795
2769.000000	99.994421
2768.000000	99.996585
2767.000000	99.994944
2766.000000	99.991169
2765.000000	99.988109
2764.000000	99.987076
2763.000000	99.986935
2762.000000	99.985662
2761.000000	99.982640
2760.000000	99.979444
2759.000000	99.978340
2758.000000	99.979969
2757.000000	99.982664
2756.000000	99.984210
2755.000000	99.984090
2754.000000	99.983630
2753.000000	99.984106
2752.000000	99.985374
2751.000000	99.986586
2750.000000	99.987632
2749.000000	99.989273
2748.000000	99.992007
2747.000000	99.995254
2746.000000	99.997678
2745.000000	99.998066
2744.000000	99.996082
2743.000000	99.992587
2742.000000	99.989180
2741.000000	99.986997
2740.000000	99.985784
2739.000000	99.984387
2738.000000	99.982254
2737.000000	99.980144
2736.000000	99.979200
2735.000000	99.979600
2734.000000	99.980374
2733.000000	99.980352
2732.000000	99.978980
2731.000000	99.976402
2730.000000	99.973396
2729.000000	99.971474
2728.000000	99.972454
2727.000000	99.977017
2726.000000	99.983427
2725.000000	99.988232
2724.000000	99.989042
2723.000000	99.986730
2722.000000	99.984559
2721.000000	99.984971
2720.000000	99.987468
2719.000000	99.989652
2718.000000	99.989785
2717.000000	99.987851
2716.000000	99.984530
2715.000000	99.980176
2714.000000	99.975226
2713.000000	99.971029
2712.000000	99.969480
2711.000000	99.971624
2710.000000	99.976762
2709.000000	99.982822
2708.000000	99.987421
2707.000000	99.988893
2706.000000	99.987107
2705.000000	99.983646
2704.000000	99.980751
2703.000000	99.979524
2702.000000	99.979212
2701.000000	99.978553
2700.000000	99.977579
2699.000000	99.977566
2698.000000	99.979287
2697.000000	99.982035
2696.000000	99.984605
2695.000000	99.986477
2694.000000	99.987437
2693.000000	99.986674
2692.000000	99.983477
2691.000000	99.978953
2690.000000	99.976005
2689.000000	99.976830
2688.000000	99.980845
2687.000000	99.985585
2686.000000	99.989314
2685.000000	99.991969
2684.000000	99.993723
2683.000000	99.993733
2682.000000	99.991089
2681.000000	99.986562
2680.000000	99.982551
2679.000000	99.980975
2678.000000	99.981487
2677.000000	99.982040
2676.000000	99.981076
2675.000000	99.979003
2674.000000	99.977556
2673.000000	99.977939
2672.000000	99.979728
2671.000000	99.981606
2670.000000	99.982900
2669.000000	99.984130
2668.000000	99.986025
2667.000000	99.988326
2666.000000	99.989832
2665.000000	99.989420
2664.000000	99.986617
2663.000000	99.981321
2662.000000	99.973832
2661.000000	99.965696
2660.000000	99.959952
2659.000000	99.959331
2658.000000	99.963626
2657.000000	99.969322
2656.000000	99.972512
2655.000000	99.972310
2654.000000	99.971145
2653.000000	99.971836
2652.000000	99.974789
2651.000000	99.978128
2650.000000	99.980068
2649.000000	99.980701
2648.000000	99.981614
2647.000000	99.984239
2646.000000	99.988600
2645.000000	99.993156
2644.000000	99.995536
2643.000000	99.993955
2642.000000	99.988816
2641.000000	99.983036
2640.000000	99.980036
2639.000000	99.980794
2638.000000	99.983190
2637.000000	99.984641
2636.000000	99.984966
2635.000000	99.985991
2634.000000	99.988751
2633.000000	99.992266
2632.000000	99.995219
2631.000000	99.997665
2630.000000	100.000244
2629.000000	100.002469
2628.000000	100.002904
2627.000000	100.000980
2626.000000	99.997836
2625.000000	99.995212
2624.000000	99.994050
2623.000000	99.994254
2622.000000	99.995256
2621.000000	99.996429
2620.000000	99.997206
2619.000000	99.997156
2618.000000	99.996159
2617.000000	99.994567
2616.000000	99.993042
2615.000000	99.991864
2614.000000	99.990480
2613.000000	99.988438
2612.000000	99.986924
2611.000000	99.988241
2610.000000	99.992755
2609.000000	99.997236
2608.000000	99.997920
2607.000000	99.995283
2606.000000	99.994096
2605.000000	99.998157
2604.000000	100.006295
2603.000000	100.014402
2602.000000	100.020222
2601.000000	100.024619
2600.000000	100.028732
2599.000000	100.031587
2598.000000	100.030955
2597.000000	100.025907
2596.000000	100.018315
2595.000000	100.012011
2594.000000	100.010040
2593.000000	100.011903
2592.000000	100.013692
2591.000000	100.011907
2590.000000	100.007053
2589.000000	100.002640
2588.000000	100.000731
2587.000000	99.999842
2586.000000	99.997803
2585.000000	99.995372
2584.000000	99.995772
2583.000000	100.000994
2582.000000	100.009768
2581.000000	100.019181
2580.000000	100.027493
2579.000000	100.034985
2578.000000	100.042442
2577.000000	100.049256
2576.000000	100.053137
2575.000000	100.051816
2574.000000	100.045201
2573.000000	100.035854
2572.000000	100.027264
2571.000000	100.021709
2570.000000	100.019599
2569.000000	100.020176
2568.000000	100.022301
2567.000000	100.024941
2566.000000	100.027612
2565.000000	100.030446
2564.000000	100.033475
2563.000000	100.036127
2562.000000	100.038144
2561.000000	100.040672
2560.000000	100.045058
2559.000000	100.049803
2558.000000	100.049887
2557.000000	100.040756
2556.000000	100.023562
2555.000000	100.005831
2554.000000	99.996426
2553.000000	99.999496
2552.000000	100.012385
2551.000000	100.028073
2550.000000	100.039464
2549.000000	100.042791
2548.000000	100.038859
2547.000000	100.031890
2546.000000	100.026522
2545.000000	100.024912
2544.000000	100.026039
2543.000000	100.027637
2542.000000	100.028946
2541.000000	100.031709
2540.000000	100.038319
2539.000000	100.048594
2538.000000	100.058384
2537.000000	100.061891
2536.000000	100.056090
2535.000000	100.043130
2534.000000	100.028436
2533.000000	100.016773
2532.000000	100.010145
2531.000000	100.008512
2530.000000	100.011139
2529.000000	100.016814
2528.000000	100.023749
2527.000000	100.030383
2526.000000	100.036275
2525.000000	100.041726
2524.000000	100.046699
2523.000000	100.050491
2522.000000	100.052157
2521.000000	100.050670
2520.000000	100.045141
2519.000000	100.036023
2518.000000	100.026421
2517.000000	100.021005
2516.000000	100.022287
2515.000000	100.027942
2514.000000	100.032423
2513.000000	100.031615
2512.000000	100.026188
2511.000000	100.020837
2510.000000	100.020450
2509.000000	100.026346
2508.000000	100.035125
2507.000000	100.040834
2506.000000	100.038879
2505.000000	100.029007
2504.000000	100.015469
2503.000000	100.004198
2502.000000	99.998717
2501.000000	99.997811
2500.000000	99.997487
2499.000000	99.996052
2498.000000	99.996765
2497.000000	100.003974
2496.000000	100.016926
2495.000000	100.029485
2494.000000	100.036611
2493.000000	100.039039
2492.000000	100.040239
2491.000000	100.041072
2490.000000	100.040140
2489.000000	100.038062
2488.000000	100.037948
2487.000000	100.041375
2486.000000	100.046461
2485.000000	100.050410
2484.000000	100.051620
2483.000000	100.048681
2482.000000	100.040296
2481.000000	100.028096
2480.000000	100.017565
2479.000000	100.013587
2478.000000	100.015564
2477.000000	100.018548
2476.000000	100.018681
2475.000000	100.016544
2474.000000	100.015747
2473.000000	100.019280
2472.000000	100.026845
2471.000000	100.034904
2470.000000	100.039851
2469.000000	100.041559
2468.000000	100.042733
2467.000000	100.044492
2466.000000	100.044474
2465.000000	100.040567
2464.000000	100.034571
2463.000000	100.029943
2462.000000	100.027426
2461.000000	100.025554
2460.000000	100.024477
2459.000000	100.025999
2458.000000	100.029752
2457.000000	100.032609
2456.000000	100.033145
2455.000000	100.034257
2454.000000	100.039350
2453.000000	100.047199
2452.000000	100.052237
2451.000000	100.049614
2450.000000	100.039477
2449.000000	100.026848
2448.000000	100.017678
2447.000000	100.014194
2446.000000	100.013534
2445.000000	100.011426
2444.000000	100.007164
2443.000000	100.004118
2442.000000	100.005606
2441.000000	100.011707
2440.000000	100.020191
2439.000000	100.028756
2438.000000	100.035671
2437.000000	100.039801
2436.000000	100.041212
2435.000000	100.041046
2434.000000	100.040164
2433.000000	100.038513
2432.000000	100.035909
2431.000000	100.032351
2430.000000	100.027609
2429.000000	100.022256
2428.000000	100.019265
2427.000000	100.022095
2426.000000	100.029959
2425.000000	100.037129
2424.000000	100.038805
2423.000000	100.036022
2422.000000	100.032791
2421.000000	100.030091
2420.000000	100.025789
2419.000000	100.020026
2418.000000	100.017582
2417.000000	100.023491
2416.000000	100.037439
2415.000000	100.053246
2414.000000	100.063209
2413.000000	100.063217
2412.000000	100.055150
2411.000000	100.045032
2410.000000	100.038448
2409.000000	100.037225
2408.000000	100.039900
2407.000000	100.043991
2406.000000	100.047143
2405.000000	100.047640
2404.000000	100.045971
2403.000000	100.045371
2402.000000	100.048688
2401.000000	100.054573
2400.000000	100.058534
2399.000000	100.058030
2398.000000	100.054641
2397.000000	100.050638
2396.000000	100.045758
2395.000000	100.039161
2394.000000	100.033265
2393.000000	100.033179
2392.000000	100.041742
2391.000000	100.055991
2390.000000	100.068751
2389.000000	100.073635
2388.000000	100.069426
2387.000000	100.061043
2386.000000	100.056396
2385.000000	100.060958
2384.000000	100.073909
2383.000000	100.089197
2382.000000	100.100636
2381.000000	100.106375
2380.000000	100.108918
2379.000000	100.111271
2378.000000	100.113585
2377.000000	100.113737
2376.000000	100.110606
2375.000000	100.105499
2374.000000	100.099861
2373.000000	100.093206
2372.000000	100.085371
2371.000000	100.080025
2370.000000	100.082601
2369.000000	100.093359
2368.000000	100.104841
2367.000000	100.108666
2366.000000	100.103693
2365.000000	100.095252
2364.000000	100.087660
2363.000000	100.081242
2362.000000	100.077154
2361.000000	100.078962
2360.000000	100.086660
2359.000000	100.093838
2358.000000	100.093504
2357.000000	100.088005
2356.000000	100.085634
2355.000000	100.088413
2354.000000	100.089259
2353.000000	100.082806
2352.000000	100.073804
2351.000000	100.068786
2350.000000	100.067895
2349.000000	100.067005
2348.000000	100.063972
2347.000000	100.061139
2346.000000	100.060141
2345.000000	100.058437
2344.000000	100.053193
2343.000000	100.047231
2342.000000	100.045183
2341.000000	100.047311
2340.000000	100.051407
2339.000000	100.056116
2338.000000	100.061976
2337.000000	100.068266
2336.000000	100.071734
2335.000000	100.067805
2334.000000	100.054634
2333.000000	100.034822
2332.000000	100.015889
2331.000000	100.005316
2330.000000	100.006423
2329.000000	100.014983
2328.000000	100.021540
2327.000000	100.018927
2326.000000	100.006943
2325.000000	99.992354
2324.000000	99.982086
2323.000000	99.978409
2322.000000	99.980225
2321.000000	99.987093
2320.000000	100.000177
2319.000000	100.016494
2318.000000	100.028205
2317.000000	100.028907
2316.000000	100.021206
2315.000000	100.013877
2314.000000	100.012587
2313.000000	100.015725
2312.000000	100.019872
2311.000000	100.024979
2310.000000	100.030912
2309.000000	100.032520
2308.000000	100.023777
2307.000000	100.007658
2306.000000	99.996420
2305.000000	99.999610
2304.000000	100.013811
2303.000000	100.026613
2302.000000	100.029392
2301.000000	100.023365
2300.000000	100.015450
2299.000000	100.011297
2298.000000	100.013038
2297.000000	100.019878
2296.000000	100.028643
2295.000000	100.035196
2294.000000	100.037015
2293.000000	100.034941
2292.000000	100.031502
2291.000000	100.028582
2290.000000	100.026284
2289.000000	100.023409
2288.000000	100.017996
2287.000000	100.008875
2286.000000	99.997396
2285.000000	99.987116
2284.000000	99.980778
2283.000000	99.978224
2282.000000	99.977826
2281.000000	99.978943
2280.000000	99.982352
2279.000000	99.989255
2278.000000	100.000982
2277.000000	100.017891
2276.000000	100.037129
2275.000000	100.052262
2274.000000	100.057169
2273.000000	100.050343
2272.000000	100.034829
2271.000000	100.015201
2270.000000	99.995835
2269.000000	99.980662
2268.000000	99.972045
2267.000000	99.970425
2266.000000	99.976556
2265.000000	99.992265
2264.000000	100.016205
2263.000000	100.040472
2262.000000	100.054871
2261.000000	100.054677
2260.000000	100.042063
2259.000000	100.021929
2258.000000	100.000901
2257.000000	99.989391
2256.000000	99.997305
2255.000000	100.023672
2254.000000	100.054517
2253.000000	100.074637
2252.000000	100.080008
2251.000000	100.076775
2250.000000	100.071590
2249.000000	100.066770
2248.000000	100.062845
2247.000000	100.061736
2246.000000	100.066551
2245.000000	100.078571
2244.000000	100.093071
2243.000000	100.098621
2242.000000	100.084744
2241.000000	100.053075
2240.000000	100.018404
2239.000000	99.995680
2238.000000	99.987802
2237.000000	99.987799
2236.000000	99.989707
2235.000000	99.994413
2234.000000	100.006837
2233.000000	100.029977
2232.000000	100.059720
2231.000000	100.084096
2230.000000	100.091319
2229.000000	100.081513
2228.000000	100.066628
2227.000000	100.055174
2226.000000	100.042381
2225.000000	100.021648
2224.000000	100.000435
2223.000000	99.994428
2222.000000	100.006997
2221.000000	100.024037
2220.000000	100.031947
2219.000000	100.033356
2218.000000	100.040696
2217.000000	100.059700
2216.000000	100.083323
2215.000000	100.098619
2214.000000	100.095899
2213.000000	100.074490
2212.000000	100.044537
2211.000000	100.022131
2210.000000	100.019074
2209.000000	100.035259
2208.000000	100.059558
2207.000000	100.077297
2206.000000	100.078025
2205.000000	100.059502
2204.000000	100.027249
2203.000000	99.991102
2202.000000	99.962694
2201.000000	99.953625
2200.000000	99.968645
2199.000000	99.997213
2198.000000	100.017528
2197.000000	100.016284
2196.000000	100.003760
2195.000000	100.003321
2194.000000	100.026772
2193.000000	100.065068
2192.000000	100.101429
2191.000000	100.126323
2190.000000	100.138278
2189.000000	100.138546
2188.000000	100.129605
2187.000000	100.113859
2186.000000	100.090579
2185.000000	100.058629
2184.000000	100.024986
2183.000000	100.005317
2182.000000	100.011616
2181.000000	100.041159
2180.000000	100.080345
2179.000000	100.117561
2178.000000	100.149015
2177.000000	100.173630
2176.000000	100.186625
2175.000000	100.180002
2174.000000	100.150322
2173.000000	100.106411
2172.000000	100.064613
2171.000000	100.031934
2170.000000	99.998426
2169.000000	99.953540
2168.000000	99.909382
2167.000000	99.897586
2166.000000	99.936551
2165.000000	100.003554
2164.000000	100.044827
2163.000000	100.020281
2162.000000	99.940898
2161.000000	99.865462
2160.000000	99.857508
2159.000000	99.930772
2158.000000	100.036316
2157.000000	100.114347
2156.000000	100.148567
2155.000000	100.158450
2154.000000	100.160404
2153.000000	100.156479
2152.000000	100.147614
2151.000000	100.138318
2150.000000	100.129137
2149.000000	100.116640
2148.000000	100.102955
2147.000000	100.095464
2146.000000	100.093868
2145.000000	100.086040
2144.000000	100.062035
2143.000000	100.027361
2142.000000	99.998941
2141.000000	99.991832
2140.000000	100.010644
2139.000000	100.049052
2138.000000	100.094203
2137.000000	100.133306
2136.000000	100.159149
2135.000000	100.169788
2134.000000	100.164618
2133.000000	100.144942
2132.000000	100.117548
2131.000000	100.092527
2130.000000	100.076573
2129.000000	100.070373
2128.000000	100.071158
2127.000000	100.075076
2126.000000	100.078174
2125.000000	100.078286
2124.000000	100.075641
2123.000000	100.069619
2122.000000	100.057609
2121.000000	100.041474
2120.000000	100.031957
2119.000000	100.038656
2118.000000	100.055538
2117.000000	100.064360
2116.000000	100.055385
2115.000000	100.037595
2114.000000	100.024042
2113.000000	100.014668
2112.000000	100.001006
2111.000000	99.983549
2110.000000	99.974613
2109.000000	99.982899
2108.000000	100.002215
2107.000000	100.018460
2106.000000	100.024293
2105.000000	100.024088
2104.000000	100.026058
2103.000000	100.031537
2102.000000	100.032870
2101.000000	100.023725
2100.000000	100.011194
2099.000000	100.013082
2098.000000	100.039364
2097.000000	100.077734
2096.000000	100.102556
2095.000000	100.099045
2094.000000	100.075394
2093.000000	100.051839
2092.000000	100.042321
2091.000000	100.047564
2090.000000	100.060206
2089.000000	100.071629
2088.000000	100.075146
2087.000000	100.067158
2086.000000	100.048534
2085.000000	100.025413
2084.000000	100.006413
2083.000000	99.996846
2082.000000	99.995992
2081.000000	100.000381
2080.000000	100.008019
2079.000000	100.018021
2078.000000	100.028151
2077.000000	100.036191
2076.000000	100.042866
2075.000000	100.049281
2074.000000	100.051622
2073.000000	100.043771
2072.000000	100.026989
2071.000000	100.011953
2070.000000	100.008267
2069.000000	100.014840
2068.000000	100.022980
2067.000000	100.026273
2066.000000	100.024714
2065.000000	100.022326
2064.000000	100.023916
2063.000000	100.031842
2062.000000	100.043379
2061.000000	100.052685
2060.000000	100.057198
2059.000000	100.060577
2058.000000	100.068156
2057.000000	100.081774
2056.000000	100.098773
2055.000000	100.111315
2054.000000	100.106507
2053.000000	100.075713
2052.000000	100.028342
2051.000000	99.989272
2050.000000	99.976376
2049.000000	99.981630
2048.000000	99.980115
2047.000000	99.958465
2046.000000	99.925929
2045.000000	99.899095
2044.000000	99.888210
2043.000000	99.897543
2042.000000	99.924666
2041.000000	99.953400
2040.000000	99.960479
2039.000000	99.941032
2038.000000	99.920514
2037.000000	99.932228
2036.000000	99.982116
2035.000000	100.040311
2034.000000	100.069916
2033.000000	100.060929
2032.000000	100.035795
2031.000000	100.023471
2030.000000	100.031357
2029.000000	100.042505
2028.000000	100.036583
2027.000000	100.012621
2026.000000	99.990759
2025.000000	99.992985
2024.000000	100.023332
2023.000000	100.066258
2022.000000	100.101242
2021.000000	100.115598
2020.000000	100.106590
2019.000000	100.078954
2018.000000	100.045937
2017.000000	100.028440
2016.000000	100.039937
2015.000000	100.071612
2014.000000	100.102069
2013.000000	100.119574
2012.000000	100.126298
2011.000000	100.122708
2010.000000	100.103105
2009.000000	100.074846
2008.000000	100.064956
2007.000000	100.088840
2006.000000	100.123994
2005.000000	100.135983
2004.000000	100.122331
2003.000000	100.109290
2002.000000	100.112270
2001.000000	100.121683
2000.000000	100.125115
1999.000000	100.122098
1998.000000	100.113431
1997.000000	100.096387
1996.000000	100.078607
1995.000000	100.078379
1994.000000	100.099793
1993.000000	100.118809
1992.000000	100.108815
1991.000000	100.074294
1990.000000	100.040354
1989.000000	100.017757
1988.000000	99.999296
1987.000000	99.982927
1986.000000	99.978608
1985.000000	99.990333
1984.000000	100.004230
1983.000000	100.000411
1982.000000	99.972216
1981.000000	99.933550
1980.000000	99.911692
1979.000000	99.929014
1978.000000	99.982163
1977.000000	100.038264
1976.000000	100.063088
1975.000000	100.054069
1974.000000	100.036831
1973.000000	100.036286
1972.000000	100.057425
1971.000000	100.086117
1970.000000	100.102556
1969.000000	100.099411
1968.000000	100.093287
1967.000000	100.110958
1966.000000	100.155118
1965.000000	100.192384
1964.000000	100.185304
1963.000000	100.128939
1962.000000	100.053516
1961.000000	99.999791
1960.000000	99.989878
1959.000000	100.013571
1958.000000	100.039722
1957.000000	100.043974
1956.000000	100.030118
1955.000000	100.022479
1954.000000	100.036419
1953.000000	100.062617
1952.000000	100.082345
1951.000000	100.089766
1950.000000	100.092859
1949.000000	100.099104
1948.000000	100.108161
1947.000000	100.114074
1946.000000	100.108062
1945.000000	100.084941
1944.000000	100.055022
1943.000000	100.045353
1942.000000	100.074465
1941.000000	100.125846
1940.000000	100.164145
1939.000000	100.171919
1938.000000	100.157354
1937.000000	100.136967
1936.000000	100.120179
1935.000000	100.108498
1934.000000	100.102273
1933.000000	100.102402
1932.000000	100.107488
1931.000000	100.113384
1930.000000	100.116111
1929.000000	100.114979
1928.000000	100.114410
1927.000000	100.120759
1926.000000	100.134787
1925.000000	100.147958
1924.000000	100.148220
1923.000000	100.131018
1922.000000	100.102902
1921.000000	100.073487
1920.000000	100.048864
1919.000000	100.034383
1918.000000	100.035840
1917.000000	100.051601
1916.000000	100.070831
1915.000000	100.084936
1914.000000	100.093684
1913.000000	100.100595
1912.000000	100.107460
1911.000000	100.113019
1910.000000	100.115003
1909.000000	100.112594
1908.000000	100.107911
1907.000000	100.103771
1906.000000	100.099733
1905.000000	100.092336
1904.000000	100.080872
1903.000000	100.071865
1902.000000	100.074231
1901.000000	100.089493
1900.000000	100.109660
1899.000000	100.125262
1898.000000	100.132223
1897.000000	100.130903
1896.000000	100.123215
1895.000000	100.113036
1894.000000	100.105639
1893.000000	100.102678
1892.000000	100.099327
1891.000000	100.089147
1890.000000	100.072308
1889.000000	100.057680
1888.000000	100.052990
1887.000000	100.056233
1886.000000	100.060781
1885.000000	100.064125
1884.000000	100.069146
1883.000000	100.078246
1882.000000	100.088216
1881.000000	100.092442
1880.000000	100.087308
1879.000000	100.074680
1878.000000	100.059184
1877.000000	100.046105
1876.000000	100.040995
1875.000000	100.047276
1874.000000	100.062462
1873.000000	100.078366
1872.000000	100.087693
1871.000000	100.089895
1870.000000	100.089799
1869.000000	100.091779
1868.000000	100.095742
1867.000000	100.099356
1866.000000	100.101318
1865.000000	100.100821
1864.000000	100.097565
1863.000000	100.093178
1862.000000	100.090757
1861.000000	100.092162
1860.000000	100.095986
1859.000000	100.098737
1858.000000	100.098184
1857.000000	100.095878
1856.000000	100.096232
1855.000000	100.101713
1854.000000	100.108919
1853.000000	100.110650
1852.000000	100.103623
1851.000000	100.092537
1850.000000	100.085653
1849.000000	100.088772
1848.000000	100.102548
1847.000000	100.123062
1846.000000	100.143021
1845.000000	100.153028
1844.000000	100.148540
1843.000000	100.137033
1842.000000	100.128460
1841.000000	100.123025
1840.000000	100.115677
1839.000000	100.105386
1838.000000	100.097304
1837.000000	100.096494
1836.000000	100.101531
1835.000000	100.106982
1834.000000	100.109720
1833.000000	100.110278
1832.000000	100.109515
1831.000000	100.106048
1830.000000	100.098636
1829.000000	100.091367
1828.000000	100.090720
1827.000000	100.097573
1826.000000	100.106510
1825.000000	100.111345
1824.000000	100.111528
1823.000000	100.111500
1822.000000	100.113076
1821.000000	100.113541
1820.000000	100.110845
1819.000000	100.106413
1818.000000	100.102053
1817.000000	100.096935
1816.000000	100.090309
1815.000000	100.085040
1814.000000	100.084715
1813.000000	100.088945
1812.000000	100.093504
1811.000000	100.095013
1810.000000	100.094348
1809.000000	100.093468
1808.000000	100.091907
1807.000000	100.088648
1806.000000	100.084788
1805.000000	100.082761
1804.000000	100.083606
1803.000000	100.085814
1802.000000	100.085935
1801.000000	100.081097
1800.000000	100.072394
1799.000000	100.064290
1798.000000	100.060068
1797.000000	100.059132
1796.000000	100.059040
1795.000000	100.059072
1794.000000	100.060954
1793.000000	100.066529
1792.000000	100.073345
1791.000000	100.075843
1790.000000	100.073399
1789.000000	100.070450
1788.000000	100.070690
1787.000000	100.074797
1786.000000	100.080891
1785.000000	100.086470
1784.000000	100.090518
1783.000000	100.093359
1782.000000	100.093828
1781.000000	100.090355
1780.000000	100.085762
1779.000000	100.085949
1778.000000	100.093097
1777.000000	100.103422
1776.000000	100.112504
1775.000000	100.119216
1774.000000	100.123686
1773.000000	100.123655
1772.000000	100.116772
1771.000000	100.106676
1770.000000	100.099551
1769.000000	100.096378
1768.000000	100.094426
1767.000000	100.092846
1766.000000	100.093230
1765.000000	100.096315
1764.000000	100.100418
1763.000000	100.102562
1762.000000	100.099838
1761.000000	100.092076
1760.000000	100.083103
1759.000000	100.077422
1758.000000	100.076968
1757.000000	100.080364
1756.000000	100.085017
1755.000000	100.089894
1754.000000	100.095233
1753.000000	100.099542
1752.000000	100.099526
1751.000000	100.094044
1750.000000	100.087330
1749.000000	100.084351
1748.000000	100.084775
1747.000000	100.085857
1746.000000	100.086672
1745.000000	100.088215
1744.000000	100.090983
1743.000000	100.093448
1742.000000	100.093166
1741.000000	100.088500
1740.000000	100.080396
1739.000000	100.073587
1738.000000	100.072276
1737.000000	100.074536
1736.000000	100.073636
1735.000000	100.063318
1734.000000	100.048841
1733.000000	100.043295
1732.000000	100.046940
1731.000000	100.050735
1730.000000	100.050562
1729.000000	100.049300
1728.000000	100.052934
1727.000000	100.063301
1726.000000	100.076366
1725.000000	100.086243
1724.000000	100.089248
1723.000000	100.085743
1722.000000	100.079128
1721.000000	100.072460
1720.000000	100.067560
1719.000000	100.066350
1718.000000	100.071709
1717.000000	100.081508
1716.000000	100.087535
1715.000000	100.086921
1714.000000	100.083076
1713.000000	100.078912
1712.000000	100.075644
1711.000000	100.073699
1710.000000	100.073037
1709.000000	100.072536
1708.000000	100.071098
1707.000000	100.068912
1706.000000	100.067303
1705.000000	100.067152
1704.000000	100.067178
1703.000000	100.065671
1702.000000	100.060509
1701.000000	100.052802
1700.000000	100.050745
1699.000000	100.058002
1698.000000	100.068876
1697.000000	100.075501
1696.000000	100.071441
1695.000000	100.059301
1694.000000	100.048403
1693.000000	100.042784
1692.000000	100.040736
1691.000000	100.039363
1690.000000	100.036855
1689.000000	100.032862
1688.000000	100.028600
1687.000000	100.025263
1686.000000	100.021489
1685.000000	100.016416
1684.000000	100.011981
1683.000000	100.008678
1682.000000	100.004682
1681.000000	99.998722
1680.000000	99.992172
1679.000000	99.989397
1678.000000	99.993115
1677.000000	100.000406
1676.000000	100.004659
1675.000000	100.000481
1674.000000	99.989287
1673.000000	99.977035
1672.000000	99.967260
1671.000000	99.961123
1670.000000	99.959430
1669.000000	99.959765
1668.000000	99.959037
1667.000000	99.958268
1666.000000	99.959484
1665.000000	99.962278
1664.000000	99.964452
1663.000000	99.964391
1662.000000	99.962638
1661.000000	99.960329
1660.000000	99.957856
1659.000000	99.954403
1658.000000	99.950061
1657.000000	99.945731
1656.000000	99.942927
1655.000000	99.940595
1654.000000	99.938949
1653.000000	99.941890
1652.000000	99.946057
1651.000000	99.947791
1650.000000	99.950004
1649.000000	99.954235
1648.000000	99.958566
1647.000000	99.959377
1646.000000	99.954740
1645.000000	99.948386
1644.000000	99.944193
1643.000000	99.942883
1642.000000	99.942875
1641.000000	99.941951
1640.000000	99.939357
1639.000000	99.936559
1638.000000	99.935969
1637.000000	99.939373
1636.000000	99.945803
1635.000000	99.949457
1634.000000	99.947589
1633.000000	99.944692
1632.000000	99.943895
1631.000000	99.945061
1630.000000	99.947203
1629.000000	99.949480
1628.000000	99.951385
1627.000000	99.952170
1626.000000	99.951016
1625.000000	99.948057
1624.000000	99.945332
1623.000000	99.945164
1622.000000	99.947025
1621.000000	99.949017
1620.000000	99.951868
1619.000000	99.957181
1618.000000	99.964670
1617.000000	99.971453
1616.000000	99.974484
1615.000000	99.974766
1614.000000	99.975076
1613.000000	99.975681
1612.000000	99.975386
1611.000000	99.974182
1610.000000	99.972793
1609.000000	99.971283
1608.000000	99.969650
1607.000000	99.968869
1606.000000	99.969706
1605.000000	99.971701
1604.000000	99.974248
1603.000000	99.977057
1602.000000	99.980026
1601.000000	99.983156
1600.000000	99.986391
1599.000000	99.989231
1598.000000	99.990864
1597.000000	99.991095
1596.000000	99.990381
1595.000000	99.988986
1594.000000	99.987179
1593.000000	99.986139
1592.000000	99.986954
1591.000000	99.988227
1590.000000	99.986634
1589.000000	99.981361
1588.000000	99.976051
1587.000000	99.974099
1586.000000	99.973966
1585.000000	99.971367
1584.000000	99.965536
1583.000000	99.959865
1582.000000	99.956543
1581.000000	99.954694
1580.000000	99.953311
1579.000000	99.952227
1578.000000	99.949780
1577.000000	99.943941
1576.000000	99.938459
1575.000000	99.940001
1574.000000	99.947754
1573.000000	99.956824
1572.000000	99.964315
1571.000000	99.968605
1570.000000	99.969133
1569.000000	99.967336
1568.000000	99.967415
1567.000000	99.971225
1566.000000	99.975800
1565.000000	99.977237
1564.000000	99.976242
1563.000000	99.976573
1562.000000	99.979349
1561.000000	99.980841
1560.000000	99.979373
1559.000000	99.977285
1558.000000	99.973831
1557.000000	99.969293
1556.000000	99.966450
1555.000000	99.965577
1554.000000	99.962769
1553.000000	99.955359
1552.000000	99.945077
1551.000000	99.937118
1550.000000	99.934567
1549.000000	99.935326
1548.000000	99.934607
1547.000000	99.930016
1546.000000	99.920616
1545.000000	99.905826
1544.000000	99.887880
1543.000000	99.871984
1542.000000	99.861362
1541.000000	99.854839
1540.000000	99.852765
1539.000000	99.856612
1538.000000	99.861090
1537.000000	99.860732
1536.000000	99.855665
1535.000000	99.848893
1534.000000	99.845517
1533.000000	99.847147
1532.000000	99.849490
1531.000000	99.849609
1530.000000	99.847452
1529.000000	99.841019
1528.000000	99.827135
1527.000000	99.806759
1526.000000	99.787603
1525.000000	99.777167
1524.000000	99.775070
1523.000000	99.774817
1522.000000	99.768919
1521.000000	99.755144
1520.000000	99.740279
1519.000000	99.730950
1518.000000	99.725959
1517.000000	99.719265
1516.000000	99.706655
1515.000000	99.690694
1514.000000	99.675690
1513.000000	99.662527
1512.000000	99.650654
1511.000000	99.639776
1510.000000	99.629354
1509.000000	99.618285
1508.000000	99.606876
1507.000000	99.600548
1506.000000	99.599982
1505.000000	99.595031
1504.000000	99.581907
1503.000000	99.564585
1502.000000	99.546673
1501.000000	99.531177
1500.000000	99.518927
1499.000000	99.508655
1498.000000	99.498370
1497.000000	99.488868
1496.000000	99.481404
1495.000000	99.473827
1494.000000	99.462984
1493.000000	99.448533
1492.000000	99.433641
1491.000000	99.424403
1490.000000	99.424108
1489.000000	99.425833
1488.000000	99.420040
1487.000000	99.406300
1486.000000	99.390375
1485.000000	99.376554
1484.000000	99.366238
1483.000000	99.358605
1482.000000	99.350570
1481.000000	99.338222
1480.000000	99.320746
1479.000000	99.302017
1478.000000	99.286727
1477.000000	99.276328
1476.000000	99.267497
1475.000000	99.256651
1474.000000	99.245577
1473.000000	99.239588
1472.000000	99.237870
1471.000000	99.233208
1470.000000	99.224086
1469.000000	99.214309
1468.000000	99.206017
1467.000000	99.198603
1466.000000	99.190735
1465.000000	99.183282
1464.000000	99.178430
1463.000000	99.174826
1462.000000	99.168706
1461.000000	99.158226
1460.000000	99.144903
1459.000000	99.132323
1458.000000	99.125057
1457.000000	99.124512
1456.000000	99.124114
1455.000000	99.118709
1454.000000	99.109193
1453.000000	99.096789
1452.000000	99.082017
1451.000000	99.065673
1450.000000	99.048888
1449.000000	99.033829
1448.000000	99.023113
1447.000000	99.016642
1446.000000	99.010150
1445.000000	99.000500
1444.000000	98.990015
1443.000000	98.983493
1442.000000	98.982661
1441.000000	98.983449
1440.000000	98.979906
1439.000000	98.969718
1438.000000	98.956518
1437.000000	98.948133
1436.000000	98.946436
1435.000000	98.943281
1434.000000	98.933201
1433.000000	98.918602
1432.000000	98.904803
1431.000000	98.896584
1430.000000	98.894089
1429.000000	98.891904
1428.000000	98.883559
1427.000000	98.867636
1426.000000	98.848557
1425.000000	98.833170
1424.000000	98.824900
1423.000000	98.817618
1422.000000	98.802176
1421.000000	98.777317
1420.000000	98.752883
1419.000000	98.742728
1418.000000	98.745989
1417.000000	98.749195
1416.000000	98.746195
1415.000000	98.738150
1414.000000	98.725983
1413.000000	98.710266
1412.000000	98.692891
1411.000000	98.676218
1410.000000	98.660463
1409.000000	98.644437
1408.000000	98.627865
1407.000000	98.611563
1406.000000	98.595469
1405.000000	98.578088
1404.000000	98.558641
1403.000000	98.537688
1402.000000	98.516282
1401.000000	98.496324
1400.000000	98.481051
1399.000000	98.470828
1398.000000	98.460276
1397.000000	98.446005
1396.000000	98.433132
1395.000000	98.429034
1394.000000	98.431548
1393.000000	98.430885
1392.000000	98.422480
1391.000000	98.408896
1390.000000	98.394760
1389.000000	98.386021
1388.000000	98.390318
1387.000000	98.410141
1386.000000	98.436277
1385.000000	98.457915
1384.000000	98.474356
1383.000000	98.491050
1382.000000	98.511838
1381.000000	98.537187
1380.000000	98.566065
1379.000000	98.595930
1378.000000	98.622531
1377.000000	98.644480
1376.000000	98.666674
1375.000000	98.695807
1374.000000	98.731615
1373.000000	98.766653
1372.000000	98.796029
1371.000000	98.821111
1370.000000	98.845100
1369.000000	98.870376
1368.000000	98.897535
1367.000000	98.924168
1366.000000	98.947257
1365.000000	98.967945
1364.000000	98.992178
1363.000000	99.024479
1362.000000	99.061144
1361.000000	99.094267
1360.000000	99.120530
1359.000000	99.140699
1358.000000	99.156169
1357.000000	99.169917
1356.000000	99.186491
1355.000000	99.207563
1354.000000	99.229377
1353.000000	99.247561
1352.000000	99.262488
1351.000000	99.277515
1350.000000	99.293965
1349.000000	99.310284
1348.000000	99.325018
1347.000000	99.338191
1346.000000	99.350448
1345.000000	99.362334
1344.000000	99.373774
1343.000000	99.383305
1342.000000	99.389288
1341.000000	99.392867
1340.000000	99.398386
1339.000000	99.408525
1338.000000	99.420479
1337.000000	99.430258
1336.000000	99.437889
1335.000000	99.445887
1334.000000	99.455615
1333.000000	99.466823
1332.000000	99.478972
1331.000000	99.491009
1330.000000	99.500832
1329.000000	99.507246
1328.000000	99.512148
1327.000000	99.519056
1326.000000	99.529304
1325.000000	99.540747
1324.000000	99.550133
1323.000000	99.555721
1322.000000	99.557826
1321.000000	99.557971
1320.000000	99.558167
1319.000000	99.560559
1318.000000	99.566660
1317.000000	99.576053
1316.000000	99.585982
1315.000000	99.593253
1314.000000	99.597507
1313.000000	99.602118
1312.000000	99.610192
1311.000000	99.620012
1310.000000	99.626446
1309.000000	99.627090
1308.000000	99.625413
1307.000000	99.627440
1306.000000	99.636194
1305.000000	99.649629
1304.000000	99.663009
1303.000000	99.672532
1302.000000	99.677702
1301.000000	99.680963
1300.000000	99.684561
1299.000000	99.687908
1298.000000	99.688938
1297.000000	99.687627
1296.000000	99.686541
1295.000000	99.687615
1294.000000	99.690118
1293.000000	99.692638
1292.000000	99.695494
1291.000000	99.699991
1290.000000	99.706181
1289.000000	99.712589
1288.000000	99.717699
1287.000000	99.720912
1286.000000	99.722512
1285.000000	99.723289
1284.000000	99.723870
1283.000000	99.724109
1282.000000	99.723647
1281.000000	99.723395
1280.000000	99.725472
1279.000000	99.730730
1278.000000	99.736893
1277.000000	99.740351
1276.000000	99.739874
1275.000000	99.737717
1274.000000	99.736958
1273.000000	99.738513
1272.000000	99.741105
1271.000000	99.743595
1270.000000	99.746415
1269.000000	99.750461
1268.000000	99.755364
1267.000000	99.759674
1266.000000	99.762636
1265.000000	99.764999
1264.000000	99.767767
1263.000000	99.770841
1262.000000	99.773341
1261.000000	99.774710
1260.000000	99.774967
1259.000000	99.774380
1258.000000	99.773475
1257.000000	99.772884
1256.000000	99.772623
1255.000000	99.771797
1254.000000	99.769456
1253.000000	99.765457
1252.000000	99.760242
1251.000000	99.754523
1250.000000	99.749643
1249.000000	99.747307
1248.000000	99.747960
1247.000000	99.749933
1246.000000	99.751102
1245.000000	99.750852
1244.000000	99.749521
1243.000000	99.746820
1242.000000	99.742643
1241.000000	99.739005
1240.000000	99.738839
1239.000000	99.742011
1238.000000	99.744189
1237.000000	99.741164
1236.000000	99.733528
1235.000000	99.726108
1234.000000	99.723378
1233.000000	99.726156
1232.000000	99.732111
1231.000000	99.737981
1230.000000	99.741250
1229.000000	99.741179
1228.000000	99.739168
1227.000000	99.738086
1226.000000	99.740695
1225.000000	99.748125
1224.000000	99.759290
1223.000000	99.771368
1222.000000	99.781146
1221.000000	99.786706
1220.000000	99.788395
1219.000000	99.788249
1218.000000	99.788311
1217.000000	99.789488
1216.000000	99.792014
1215.000000	99.796393
1214.000000	99.802793
1213.000000	99.809362
1212.000000	99.812393
1211.000000	99.809572
1210.000000	99.802982
1209.000000	99.797573
1208.000000	99.796504
1207.000000	99.798895
1206.000000	99.802003
1205.000000	99.804205
1204.000000	99.805138
1203.000000	99.804373
1202.000000	99.801673
1201.000000	99.798346
1200.000000	99.796955
1199.000000	99.799115
1198.000000	99.803824
1197.000000	99.808207
1196.000000	99.810128
1195.000000	99.810389
1194.000000	99.812107
1193.000000	99.817113
1192.000000	99.823179
1191.000000	99.826233
1190.000000	99.825688
1189.000000	99.825718
1188.000000	99.830068
1187.000000	99.837290
1186.000000	99.842923
1185.000000	99.845085
1184.000000	99.845191
1183.000000	99.844083
1182.000000	99.840872
1181.000000	99.836091
1180.000000	99.832789
1179.000000	99.832722
1178.000000	99.834017
1177.000000	99.834677
1176.000000	99.835937
1175.000000	99.839406
1174.000000	99.842855
1173.000000	99.842508
1172.000000	99.839051
1171.000000	99.837471
1170.000000	99.840119
1169.000000	99.843374
1168.000000	99.843010
1167.000000	99.840022
1166.000000	99.838399
1165.000000	99.839276
1164.000000	99.840607
1163.000000	99.841432
1162.000000	99.842670
1161.000000	99.843768
1160.000000	99.842378
1159.000000	99.838567
1158.000000	99.836222
1157.000000	99.838373
1156.000000	99.843447
1155.000000	99.847996
1154.000000	99.851019
1153.000000	99.853415
1152.000000	99.855051
1151.000000	99.855148
1150.000000	99.854534
1149.000000	99.854779
1148.000000	99.855551
1147.000000	99.855259
1146.000000	99.853901
1145.000000	99.852811
1144.000000	99.851637
1143.000000	99.848074
1142.000000	99.841360
1141.000000	99.834409
1140.000000	99.831759
1139.000000	99.836154
1138.000000	99.846665
1137.000000	99.858623
1136.000000	99.865851
1135.000000	99.865245
1134.000000	99.859797
1133.000000	99.855762
1132.000000	99.856538
1131.000000	99.860320
1130.000000	99.863193
1129.000000	99.862966
1128.000000	99.860379
1127.000000	99.858408
1126.000000	99.859992
1125.000000	99.864487
1124.000000	99.867055
1123.000000	99.864005
1122.000000	99.858259
1121.000000	99.856501
1120.000000	99.861018
1119.000000	99.867587
1118.000000	99.871504
1117.000000	99.872025
1116.000000	99.870179
1115.000000	99.866374
1114.000000	99.861925
1113.000000	99.859262
1112.000000	99.858384
1111.000000	99.856395
1110.000000	99.852821
1109.000000	99.851889
1108.000000	99.856472
1107.000000	99.862707
1106.000000	99.864481
1105.000000	99.861136
1104.000000	99.857014
1103.000000	99.855149
1102.000000	99.855160
1101.000000	99.856128
1100.000000	99.857663
1099.000000	99.858576
1098.000000	99.858030
1097.000000	99.857959
1096.000000	99.861227
1095.000000	99.867139
1094.000000	99.871509
1093.000000	99.871494
1092.000000	99.867783
1091.000000	99.861763
1090.000000	99.853067
1089.000000	99.841116
1088.000000	99.827657
1087.000000	99.816575
1086.000000	99.811258
1085.000000	99.811768
1084.000000	99.814181
1083.000000	99.813627
1082.000000	99.809040
1081.000000	99.804027
1080.000000	99.802249
1079.000000	99.803331
1078.000000	99.804664
1077.000000	99.805323
1076.000000	99.806046
1075.000000	99.807083
1074.000000	99.808717
1073.000000	99.812556
1072.000000	99.819253
1071.000000	99.825755
1070.000000	99.828086
1069.000000	99.826905
1068.000000	99.827203
1067.000000	99.831945
1066.000000	99.838405
1065.000000	99.841336
1064.000000	99.837884
1063.000000	99.829281
1062.000000	99.819901
1061.000000	99.814778
1060.000000	99.815985
1059.000000	99.820975
1058.000000	99.825810
1057.000000	99.829521
1056.000000	99.833392
1055.000000	99.836821
1054.000000	99.837372
1053.000000	99.835324
1052.000000	99.834752
1051.000000	99.838216
1050.000000	99.842877
1049.000000	99.844059
1048.000000	99.840716
1047.000000	99.835491
1046.000000	99.830998
1045.000000	99.828092
1044.000000	99.826855
1043.000000	99.827405
1042.000000	99.829894
1041.000000	99.834627
1040.000000	99.841822
1039.000000	99.850597
1038.000000	99.858561
1037.000000	99.863034
1036.000000	99.862636
1035.000000	99.857784
1034.000000	99.850163
1033.000000	99.841823
1032.000000	99.834294
1031.000000	99.828535
1030.000000	99.825753
1029.000000	99.827646
1028.000000	99.835120
1027.000000	99.846999
1026.000000	99.860439
1025.000000	99.872194
1024.000000	99.879433
1023.000000	99.880990
1022.000000	99.879202
1021.000000	99.878976
1020.000000	99.883108
1019.000000	99.888939
1018.000000	99.891190
1017.000000	99.887646
1016.000000	99.880726
1015.000000	99.874629
1014.000000	99.872659
1013.000000	99.876026
1012.000000	99.882914
1011.000000	99.889334
1010.000000	99.893146
1009.000000	99.896594
1008.000000	99.902423
1007.000000	99.908668
1006.000000	99.910778
1005.000000	99.908485
1004.000000	99.906951
1003.000000	99.910255
1002.000000	99.917011
1001.000000	99.923453
1000.000000	99.927691
999.000000	99.929580
998.000000	99.929529
997.000000	99.929753
996.000000	99.934414
995.000000	99.945668
994.000000	99.960341
993.000000	99.972358
992.000000	99.977737
991.000000	99.976385
990.000000	99.970909
989.000000	99.965455
988.000000	99.964387
987.000000	99.969769
986.000000	99.979548
985.000000	99.988806
984.000000	99.992772
983.000000	99.989244
982.000000	99.980067
981.000000	99.970829
980.000000	99.966871
979.000000	99.968376
978.000000	99.970973
977.000000	99.971817
976.000000	99.972792
975.000000	99.976425
974.000000	99.981473
973.000000	99.985175
972.000000	99.987343
971.000000	99.989005
970.000000	99.988856
969.000000	99.985170
968.000000	99.980430
967.000000	99.979773
966.000000	99.984290
965.000000	99.989697
964.000000	99.992686
963.000000	99.994710
962.000000	99.997880
961.000000	100.000811
960.000000	100.001921
959.000000	100.004013
958.000000	100.011121
957.000000	100.021560
956.000000	100.028190
955.000000	100.026797
954.000000	100.021188
953.000000	100.018473
952.000000	100.021304
951.000000	100.026667
950.000000	100.031020
949.000000	100.034175
948.000000	100.038078
947.000000	100.043523
946.000000	100.048744
945.000000	100.050448
944.000000	100.045945
943.000000	100.035286
942.000000	100.022222
941.000000	100.012632
940.000000	100.011145
939.000000	100.018367
938.000000	100.030338
937.000000	100.040494
936.000000	100.043572
935.000000	100.039424
934.000000	100.033345
933.000000	100.031269
932.000000	100.033950
931.000000	100.037025
930.000000	100.036981
929.000000	100.035355
928.000000	100.036096
927.000000	100.040298
926.000000	100.045426
925.000000	100.048775
924.000000	100.049750
923.000000	100.049239
922.000000	100.048671
921.000000	100.049576
920.000000	100.052140
919.000000	100.054132
918.000000	100.053156
917.000000	100.050183
916.000000	100.048872
915.000000	100.051019
914.000000	100.054595
913.000000	100.057192
912.000000	100.059310
911.000000	100.062746
910.000000	100.067603
909.000000	100.072626
908.000000	100.077384
907.000000	100.082037
906.000000	100.085692
905.000000	100.087099
904.000000	100.086940
903.000000	100.087770
902.000000	100.091322
901.000000	100.096774
900.000000	100.101698
899.000000	100.104176
898.000000	100.104374
897.000000	100.104949
896.000000	100.109510
895.000000	100.119459
894.000000	100.132077
893.000000	100.142370
892.000000	100.146788
891.000000	100.145136
890.000000	100.139823
889.000000	100.133719
888.000000	100.127946
887.000000	100.120565
886.000000	100.107718
885.000000	100.086050
884.000000	100.052676
883.000000	100.002857
882.000000	99.930262
881.000000	99.832389
880.000000	99.713794
879.000000	99.580838
878.000000	99.434440
877.000000	99.270264
876.000000	99.085775
875.000000	98.885547
874.000000	98.686319
873.000000	98.525417
872.000000	98.461099
871.000000	98.542495
870.000000	98.763196
869.000000	99.051592
868.000000	99.317746
867.000000	99.511979
866.000000	99.638761
865.000000	99.724472
864.000000	99.786200
863.000000	99.829844
862.000000	99.860387
861.000000	99.882768
860.000000	99.898049
859.000000	99.907237
858.000000	99.917105
857.000000	99.935648
856.000000	99.962794
855.000000	99.990515
854.000000	100.011129
853.000000	100.021811
852.000000	100.022410
851.000000	100.014334
850.000000	100.002507
849.000000	99.994072
848.000000	99.993058
847.000000	99.997772
846.000000	100.003920
845.000000	100.008541
844.000000	100.011286
843.000000	100.014554
842.000000	100.022704
841.000000	100.038320
840.000000	100.057884
839.000000	100.072589
838.000000	100.074969
837.000000	100.065039
836.000000	100.050463
835.000000	100.041357
834.000000	100.043281
833.000000	100.053047
832.000000	100.062374
831.000000	100.067245
830.000000	100.071669
829.000000	100.079542
828.000000	100.085683
827.000000	100.081454
826.000000	100.068992
825.000000	100.061864
824.000000	100.068445
823.000000	100.081386
822.000000	100.088644
821.000000	100.088763
820.000000	100.088830
819.000000	100.091957
818.000000	100.094294
817.000000	100.092789
816.000000	100.088851
815.000000	100.083834
814.000000	100.076577
813.000000	100.067766
812.000000	100.062423
811.000000	100.064768
810.000000	100.072703
809.000000	100.080242
808.000000	100.084581
807.000000	100.088442
806.000000	100.095623
805.000000	100.105831
804.000000	100.114355
803.000000	100.116503
802.000000	100.112203
801.000000	100.106076
800.000000	100.102748
799.000000	100.102783
798.000000	100.103988
797.000000	100.105535
796.000000	100.108307
795.000000	100.111162
794.000000	100.110209
793.000000	100.104014
792.000000	100.097708
791.000000	100.098821
790.000000	100.108442
789.000000	100.118623
788.000000	100.119914
787.000000	100.110674
786.000000	100.098284
785.000000	100.091731
784.000000	100.093637
783.000000	100.099158
782.000000	100.101461
781.000000	100.097790
780.000000	100.091187
779.000000	100.087356
778.000000	100.089971
777.000000	100.097856
776.000000	100.105735
775.000000	100.108095
774.000000	100.103505
773.000000	100.095984
772.000000	100.091598
771.000000	100.092735
770.000000	100.095780
769.000000	100.095275
768.000000	100.090672
767.000000	100.087934
766.000000	100.093092
765.000000	100.104574
764.000000	100.113848
763.000000	100.114720
762.000000	100.110892
761.000000	100.112353
760.000000	100.124242
759.000000	100.140817
758.000000	100.150938
757.000000	100.148523
756.000000	100.136880
755.000000	100.124206
754.000000	100.116631
753.000000	100.115392
752.000000	100.118409
751.000000	100.122592
750.000000	100.125131
749.000000	100.124828
748.000000	100.123493
747.000000	100.125112
746.000000	100.131899
745.000000	100.140658
744.000000	100.144492
743.000000	100.139286
742.000000	100.127892
741.000000	100.116911
740.000000	100.109682
739.000000	100.103563
738.000000	100.094087
737.000000	100.080508
736.000000	100.066718
735.000000	100.057616
734.000000	100.055724
733.000000	100.061142
732.000000	100.073357
731.000000	100.091869
730.000000	100.114566
729.000000	100.136309
728.000000	100.150899
727.000000	100.155143
726.000000	100.150255
725.000000	100.139121
724.000000	100.124179
723.000000	100.109355
722.000000	100.101430
721.000000	100.104602
720.000000	100.112150
719.000000	100.107725
718.000000	100.078052
717.000000	100.023121
716.000000	99.953736
715.000000	99.882464
714.000000	99.819973
713.000000	99.777212
712.000000	99.764031
711.000000	99.781648
710.000000	99.819040
709.000000	99.860381
708.000000	99.896117
707.000000	99.926282
706.000000	99.954695
705.000000	99.982820
704.000000	100.008861
703.000000	100.029659
702.000000	100.042652
701.000000	100.048192
700.000000	100.050801
699.000000	100.055861
698.000000	100.063434
697.000000	100.067125
696.000000	100.061568
695.000000	100.050006
694.000000	100.041906
693.000000	100.043452
692.000000	100.052638
691.000000	100.064030
690.000000	100.074929
689.000000	100.084647
688.000000	100.090806
687.000000	100.090773
686.000000	100.086524
685.000000	100.083816
684.000000	100.084751
683.000000	100.083884
682.000000	100.074682
681.000000	100.058269
680.000000	100.043143
679.000000	100.036890
678.000000	100.040968
677.000000	100.054090
676.000000	100.074830
675.000000	100.097570
674.000000	100.111819
673.000000	100.108316
672.000000	100.086835
671.000000	100.055977
670.000000	100.029455
669.000000	100.017439
668.000000	100.016752
667.000000	100.023441
666.000000	100.029938
665.000000	100.030433
664.000000	100.034634
663.000000	100.049774
662.000000	100.068599
661.000000	100.073838
660.000000	100.058974
659.000000	100.035945
658.000000	100.021826
657.000000	100.023197
656.000000	100.035799
655.000000	100.052608
654.000000	100.069245
653.000000	100.083024
652.000000	100.091177
651.000000	100.092392
650.000000	100.088397
649.000000	100.081660
648.000000	100.072665
647.000000	100.061864
646.000000	100.053138
645.000000	100.051909
644.000000	100.058865
643.000000	100.067982
642.000000	100.072719
641.000000	100.072716
640.000000	100.071526
639.000000	100.069077
638.000000	100.061378
637.000000	100.048523
636.000000	100.038796
635.000000	100.041099
634.000000	100.054366
633.000000	100.068693
632.000000	100.075632
631.000000	100.072978
630.000000	100.061249
629.000000	100.042571
628.000000	100.025589
627.000000	100.024881
626.000000	100.047768
625.000000	100.082357
624.000000	100.105531
623.000000	100.103474
622.000000	100.081648
621.000000	100.056688
620.000000	100.043392
619.000000	100.048763
618.000000	100.069631
617.000000	100.091603
616.000000	100.096953
615.000000	100.080146
614.000000	100.054037
613.000000	100.036950
612.000000	100.033976
611.000000	100.034070
610.000000	100.025105
609.000000	100.007844
608.000000	99.994517
607.000000	99.996238
606.000000	100.013107
605.000000	100.035427
604.000000	100.052421
603.000000	100.059175
602.000000	100.057031
601.000000	100.049723
600.000000	100.040173
599.000000	100.029793
598.000000	100.018778
597.000000	100.006780
596.000000	99.995443
595.000000	99.990872
594.000000	99.999913
593.000000	100.021711
592.000000	100.046031
591.000000	100.062613
590.000000	100.070193
589.000000	100.073026
588.000000	100.071599
587.000000	100.063471
586.000000	100.052054
585.000000	100.047089
584.000000	100.053899
583.000000	100.066753
582.000000	100.075214
581.000000	100.074006
580.000000	100.064797
579.000000	100.051593
578.000000	100.037316
577.000000	100.024129
576.000000	100.015361
575.000000	100.016000
574.000000	100.029410
573.000000	100.051953
572.000000	100.072419
571.000000	100.079001
570.000000	100.068656
569.000000	100.048500
568.000000	100.027249
567.000000	100.010147
566.000000	100.000684
565.000000	99.999734
564.000000	100.003113
563.000000	100.006278
562.000000	100.012427
561.000000	100.028343
560.000000	100.048606
559.000000	100.054814
558.000000	100.039959
557.000000	100.023268
556.000000	100.028115
555.000000	100.050770
554.000000	100.066540
553.000000	100.065594
552.000000	100.063693
551.000000	100.074234
550.000000	100.085362
549.000000	100.076816
548.000000	100.050533
547.000000	100.031317
546.000000	100.040877
545.000000	100.077622
544.000000	100.121142
543.000000	100.149668
542.000000	100.153518
541.000000	100.139723
540.000000	100.123334
539.000000	100.111649
538.000000	100.099454
537.000000	100.081007
536.000000	100.060686
535.000000	100.046974
534.000000	100.042277
533.000000	100.043953
532.000000	100.049455
531.000000	100.053216
530.000000	100.045794
529.000000	100.027754
528.000000	100.018926
527.000000	100.041237
526.000000	100.088223
525.000000	100.124783
524.000000	100.127246
523.000000	100.103910
522.000000	100.073755
521.000000	100.047270
520.000000	100.030726
519.000000	100.032518
518.000000	100.052528
517.000000	100.073165
516.000000	100.074938
515.000000	100.053272
514.000000	100.015138
513.000000	99.974584
512.000000	99.956680
511.000000	99.986931
510.000000	100.059853
509.000000	100.131114
508.000000	100.158391
507.000000	100.145689
506.000000	100.132168
505.000000	100.137406
504.000000	100.143604
503.000000	100.133188
502.000000	100.119796
501.000000	100.127221
500.000000	100.149513
499.000000	100.156425
498.000000	100.130077
497.000000	100.084056
496.000000	100.050694
495.000000	100.051220
494.000000	100.075862
493.000000	100.092375
492.000000	100.076977
491.000000	100.038568
490.000000	100.006489
489.000000	99.995558
488.000000	99.997585
487.000000	100.002671
486.000000	100.011733
485.000000	100.026773
484.000000	100.043732
483.000000	100.065658
482.000000	100.106176
481.000000	100.167854
480.000000	100.231619
479.000000	100.276648
478.000000	100.300167
477.000000	100.307453
476.000000	100.293265
475.000000	100.250647
474.000000	100.191776
473.000000	100.141579
472.000000	100.105724
471.000000	100.067724
470.000000	100.027876
469.000000	100.014621
468.000000	100.050062
467.000000	100.115873
466.000000	100.164280
465.000000	100.164804
464.000000	100.123453
463.000000	100.068111
462.000000	100.029116
461.000000	100.021198
460.000000	100.042197
459.000000	100.088888
458.000000	100.161520
457.000000	100.242265
456.000000	100.291270
455.000000	100.287056
454.000000	100.242603
453.000000	100.182231
452.000000	100.114976
451.000000	100.033337
450.000000	99.943301
