PE IR       SUBTECH     SPECTRUM    ASCII       PEDS        4.00        
   -1
AD10-C013_1.ASC
23/09/08
11:09:09.00
23/09/08
11:14:38.00
uco
Sample 013 By uco Date Friday, September 08 2023
450.000000
#HDR
-1
-1
#GR
cm-1
%T
1.0
0.0
4000.000000
-1.000000
3551
8
99.850521
83.108186
#DATA
4000.000000	99.766471
3999.000000	99.771601
3998.000000	99.776133
3997.000000	99.777449
3996.000000	99.774839
3995.000000	99.769510
3994.000000	99.763328
3993.000000	99.775865
3992.000000	99.772107
3991.000000	99.769770
3990.000000	99.768285
3989.000000	99.767447
3988.000000	99.767522
3987.000000	99.768603
3986.000000	99.770129
3985.000000	99.771216
3984.000000	99.771395
3983.000000	99.770898
3982.000000	99.770210
3981.000000	99.769422
3980.000000	99.768169
3979.000000	99.766078
3978.000000	99.763290
3977.000000	99.760464
3976.000000	99.758312
3975.000000	99.757298
3974.000000	99.757702
3973.000000	99.759825
3972.000000	99.763649
3971.000000	99.768168
3970.000000	99.771455
3969.000000	99.771727
3968.000000	99.769008
3967.000000	99.765386
3966.000000	99.763202
3965.000000	99.762784
3964.000000	99.762000
3963.000000	99.758432
3962.000000	99.752309
3961.000000	99.747139
3960.000000	99.746527
3959.000000	99.750709
3958.000000	99.756486
3957.000000	99.759870
3956.000000	99.759193
3955.000000	99.755510
3954.000000	99.751031
3953.000000	99.747548
3952.000000	99.745615
3951.000000	99.744840
3950.000000	99.744315
3949.000000	99.743335
3948.000000	99.742110
3947.000000	99.741908
3946.000000	99.744466
3945.000000	99.750094
3944.000000	99.755981
3943.000000	99.757340
3942.000000	99.751163
3941.000000	99.739715
3940.000000	99.728842
3939.000000	99.722926
3938.000000	99.722395
3937.000000	99.724677
3936.000000	99.727148
3935.000000	99.728366
3934.000000	99.727708
3933.000000	99.725800
3932.000000	99.724500
3931.000000	99.725897
3930.000000	99.729921
3929.000000	99.734494
3928.000000	99.738514
3927.000000	99.741969
3926.000000	99.744411
3925.000000	99.744327
3924.000000	99.740877
3923.000000	99.735258
3922.000000	99.729153
3921.000000	99.722812
3920.000000	99.716336
3919.000000	99.711569
3918.000000	99.711350
3917.000000	99.716075
3916.000000	99.722442
3915.000000	99.726864
3914.000000	99.728227
3913.000000	99.727570
3912.000000	99.726574
3911.000000	99.726583
3910.000000	99.728188
3909.000000	99.730496
3908.000000	99.732040
3907.000000	99.731030
3906.000000	99.725014
3905.000000	99.711334
3904.000000	99.690872
3903.000000	99.671793
3902.000000	99.665253
3901.000000	99.675072
3900.000000	99.694348
3899.000000	99.711659
3898.000000	99.720640
3897.000000	99.722710
3896.000000	99.721266
3895.000000	99.717953
3894.000000	99.714143
3893.000000	99.711443
3892.000000	99.709909
3891.000000	99.706729
3890.000000	99.700838
3889.000000	99.696077
3888.000000	99.696909
3887.000000	99.702891
3886.000000	99.708424
3885.000000	99.708615
3884.000000	99.706438
3883.000000	99.708912
3882.000000	99.718607
3881.000000	99.730648
3880.000000	99.736827
3879.000000	99.734131
3878.000000	99.728248
3877.000000	99.725987
3876.000000	99.728613
3875.000000	99.731216
3874.000000	99.727787
3873.000000	99.719373
3872.000000	99.713954
3871.000000	99.716452
3870.000000	99.721430
3869.000000	99.720419
3868.000000	99.715035
3867.000000	99.712891
3866.000000	99.715723
3865.000000	99.718533
3864.000000	99.716708
3863.000000	99.710778
3862.000000	99.704453
3861.000000	99.699892
3860.000000	99.697476
3859.000000	99.695084
3858.000000	99.690232
3857.000000	99.682844
3856.000000	99.677661
3855.000000	99.680166
3854.000000	99.685307
3853.000000	99.683982
3852.000000	99.681845
3851.000000	99.687842
3850.000000	99.699089
3849.000000	99.708597
3848.000000	99.713842
3847.000000	99.717472
3846.000000	99.722814
3845.000000	99.730277
3844.000000	99.736511
3843.000000	99.736601
3842.000000	99.728770
3841.000000	99.716724
3840.000000	99.707337
3839.000000	99.705554
3838.000000	99.711480
3837.000000	99.720198
3836.000000	99.726399
3835.000000	99.728400
3834.000000	99.727697
3833.000000	99.726668
3832.000000	99.726782
3831.000000	99.727374
3830.000000	99.727562
3829.000000	99.727383
3828.000000	99.726897
3827.000000	99.724076
3826.000000	99.716395
3825.000000	99.705403
3824.000000	99.697705
3823.000000	99.700517
3822.000000	99.713110
3821.000000	99.723513
3820.000000	99.721585
3819.000000	99.711402
3818.000000	99.702865
3817.000000	99.699352
3816.000000	99.698755
3815.000000	99.699759
3814.000000	99.705119
3813.000000	99.715365
3812.000000	99.724963
3811.000000	99.728882
3810.000000	99.727808
3809.000000	99.726177
3808.000000	99.725011
3807.000000	99.720161
3806.000000	99.710337
3805.000000	99.702267
3804.000000	99.703022
3803.000000	99.712522
3802.000000	99.722599
3801.000000	99.724074
3800.000000	99.718330
3799.000000	99.715152
3798.000000	99.717707
3797.000000	99.721399
3796.000000	99.721840
3795.000000	99.720678
3794.000000	99.722573
3793.000000	99.728764
3792.000000	99.735919
3791.000000	99.740488
3790.000000	99.741242
3789.000000	99.738988
3788.000000	99.736020
3787.000000	99.735261
3786.000000	99.738644
3785.000000	99.745303
3784.000000	99.752172
3783.000000	99.757052
3782.000000	99.760193
3781.000000	99.761784
3780.000000	99.760313
3779.000000	99.754598
3778.000000	99.746682
3777.000000	99.740565
3776.000000	99.737792
3775.000000	99.736056
3774.000000	99.732593
3773.000000	99.727907
3772.000000	99.724905
3771.000000	99.724783
3770.000000	99.725651
3769.000000	99.725349
3768.000000	99.725268
3767.000000	99.727728
3766.000000	99.731669
3765.000000	99.733167
3764.000000	99.730236
3763.000000	99.725455
3762.000000	99.722710
3761.000000	99.722722
3760.000000	99.723478
3759.000000	99.722630
3758.000000	99.718633
3757.000000	99.711048
3756.000000	99.701458
3755.000000	99.692608
3754.000000	99.685096
3753.000000	99.675919
3752.000000	99.662763
3751.000000	99.649596
3750.000000	99.642871
3749.000000	99.642799
3748.000000	99.646846
3747.000000	99.655509
3746.000000	99.669173
3745.000000	99.681763
3744.000000	99.684487
3743.000000	99.683471
3742.000000	99.690889
3741.000000	99.703989
3740.000000	99.712836
3739.000000	99.712681
3738.000000	99.706110
3737.000000	99.698141
3736.000000	99.695642
3735.000000	99.706087
3734.000000	99.726049
3733.000000	99.741665
3732.000000	99.743006
3731.000000	99.731589
3730.000000	99.715979
3729.000000	99.703754
3728.000000	99.698486
3727.000000	99.699896
3726.000000	99.704714
3725.000000	99.709168
3724.000000	99.711162
3723.000000	99.711162
3722.000000	99.711064
3721.000000	99.713204
3720.000000	99.718551
3719.000000	99.724195
3718.000000	99.724889
3717.000000	99.718058
3716.000000	99.707879
3715.000000	99.701972
3714.000000	99.703146
3713.000000	99.706436
3712.000000	99.705606
3711.000000	99.702887
3710.000000	99.706552
3709.000000	99.718790
3708.000000	99.734664
3707.000000	99.747894
3706.000000	99.755385
3705.000000	99.759479
3704.000000	99.765047
3703.000000	99.773916
3702.000000	99.782209
3701.000000	99.784082
3700.000000	99.779082
3699.000000	99.772043
3698.000000	99.766147
3697.000000	99.759860
3696.000000	99.750281
3695.000000	99.737443
3694.000000	99.724395
3693.000000	99.715505
3692.000000	99.714994
3691.000000	99.724647
3690.000000	99.739578
3689.000000	99.748554
3688.000000	99.745439
3687.000000	99.737179
3686.000000	99.733957
3685.000000	99.737162
3684.000000	99.741061
3683.000000	99.740984
3682.000000	99.737819
3681.000000	99.734147
3680.000000	99.729161
3679.000000	99.721435
3678.000000	99.714045
3677.000000	99.713477
3676.000000	99.720222
3675.000000	99.724092
3674.000000	99.717102
3673.000000	99.705766
3672.000000	99.697929
3671.000000	99.695945
3670.000000	99.699295
3669.000000	99.705883
3668.000000	99.714233
3667.000000	99.724081
3666.000000	99.733504
3665.000000	99.740217
3664.000000	99.743753
3663.000000	99.745604
3662.000000	99.747041
3661.000000	99.747590
3660.000000	99.746347
3659.000000	99.743721
3658.000000	99.740390
3657.000000	99.735487
3656.000000	99.727437
3655.000000	99.718394
3654.000000	99.712985
3653.000000	99.713251
3652.000000	99.716238
3651.000000	99.715728
3650.000000	99.708874
3649.000000	99.703067
3648.000000	99.705471
3647.000000	99.710909
3646.000000	99.713048
3645.000000	99.712822
3644.000000	99.713974
3643.000000	99.717930
3642.000000	99.723486
3641.000000	99.728259
3640.000000	99.730778
3639.000000	99.730860
3638.000000	99.728754
3637.000000	99.725540
3636.000000	99.722242
3635.000000	99.717752
3634.000000	99.708975
3633.000000	99.695052
3632.000000	99.679804
3631.000000	99.669225
3630.000000	99.666477
3629.000000	99.670186
3628.000000	99.677934
3627.000000	99.689743
3626.000000	99.706140
3625.000000	99.722585
3624.000000	99.733714
3623.000000	99.738283
3622.000000	99.739263
3621.000000	99.740472
3620.000000	99.742915
3619.000000	99.742897
3618.000000	99.735599
3617.000000	99.721561
3616.000000	99.706842
3615.000000	99.696890
3614.000000	99.691369
3613.000000	99.684553
3612.000000	99.672121
3611.000000	99.657398
3610.000000	99.647775
3609.000000	99.648468
3608.000000	99.658897
3607.000000	99.672919
3606.000000	99.684551
3605.000000	99.691952
3604.000000	99.696933
3603.000000	99.701716
3602.000000	99.706646
3601.000000	99.710456
3600.000000	99.712044
3599.000000	99.711905
3598.000000	99.710714
3597.000000	99.707961
3596.000000	99.702145
3595.000000	99.693835
3594.000000	99.686150
3593.000000	99.682660
3592.000000	99.683545
3591.000000	99.686071
3590.000000	99.686794
3589.000000	99.683812
3588.000000	99.678142
3587.000000	99.673723
3586.000000	99.672524
3585.000000	99.673517
3584.000000	99.675269
3583.000000	99.676355
3582.000000	99.675564
3581.000000	99.673012
3580.000000	99.669609
3579.000000	99.666451
3578.000000	99.663818
3577.000000	99.661413
3576.000000	99.658719
3575.000000	99.655759
3574.000000	99.653449
3573.000000	99.652827
3572.000000	99.654192
3571.000000	99.656666
3570.000000	99.658874
3569.000000	99.659064
3568.000000	99.656603
3567.000000	99.653508
3566.000000	99.651677
3565.000000	99.649884
3564.000000	99.647479
3563.000000	99.645325
3562.000000	99.643916
3561.000000	99.643098
3560.000000	99.643070
3559.000000	99.644122
3558.000000	99.646103
3557.000000	99.648119
3556.000000	99.649197
3555.000000	99.648566
3554.000000	99.645645
3553.000000	99.640158
3552.000000	99.632943
3551.000000	99.625801
3550.000000	99.620011
3549.000000	99.615379
3548.000000	99.611118
3547.000000	99.607962
3546.000000	99.608314
3545.000000	99.613276
3544.000000	99.620590
3543.000000	99.626917
3542.000000	99.630441
3541.000000	99.631171
3540.000000	99.630184
3539.000000	99.628545
3538.000000	99.626402
3537.000000	99.622648
3536.000000	99.615993
3535.000000	99.606940
3534.000000	99.598163
3533.000000	99.593095
3532.000000	99.593367
3531.000000	99.597620
3530.000000	99.602053
3529.000000	99.602914
3528.000000	99.599313
3527.000000	99.594113
3526.000000	99.591622
3525.000000	99.594223
3524.000000	99.600474
3523.000000	99.606025
3522.000000	99.607338
3521.000000	99.605129
3520.000000	99.603576
3519.000000	99.605484
3518.000000	99.608883
3517.000000	99.609203
3516.000000	99.604142
3515.000000	99.595601
3514.000000	99.586729
3513.000000	99.578974
3512.000000	99.572317
3511.000000	99.567174
3510.000000	99.564605
3509.000000	99.564896
3508.000000	99.566787
3507.000000	99.568089
3506.000000	99.566571
3505.000000	99.560775
3504.000000	99.551981
3503.000000	99.544786
3502.000000	99.543234
3501.000000	99.546498
3500.000000	99.550057
3499.000000	99.550782
3498.000000	99.549596
3497.000000	99.549754
3496.000000	99.552679
3495.000000	99.556169
3494.000000	99.556947
3493.000000	99.554579
3492.000000	99.551903
3491.000000	99.551502
3490.000000	99.552470
3489.000000	99.551409
3488.000000	99.546445
3487.000000	99.539439
3486.000000	99.534017
3485.000000	99.532195
3484.000000	99.533401
3483.000000	99.535987
3482.000000	99.538692
3481.000000	99.540676
3480.000000	99.540991
3479.000000	99.538791
3478.000000	99.534274
3477.000000	99.528815
3476.000000	99.523746
3475.000000	99.518896
3474.000000	99.513175
3473.000000	99.507027
3472.000000	99.503225
3471.000000	99.504055
3470.000000	99.508124
3469.000000	99.511212
3468.000000	99.510302
3467.000000	99.505934
3466.000000	99.500808
3465.000000	99.497346
3464.000000	99.496859
3463.000000	99.499647
3462.000000	99.504714
3461.000000	99.509960
3460.000000	99.513437
3459.000000	99.514291
3458.000000	99.512340
3457.000000	99.507440
3456.000000	99.500095
3455.000000	99.492379
3454.000000	99.486971
3453.000000	99.485216
3452.000000	99.486127
3451.000000	99.487585
3450.000000	99.488029
3449.000000	99.487224
3448.000000	99.486161
3447.000000	99.486306
3446.000000	99.488001
3445.000000	99.489593
3444.000000	99.488592
3443.000000	99.483791
3442.000000	99.476465
3441.000000	99.469468
3440.000000	99.465121
3439.000000	99.463686
3438.000000	99.463557
3437.000000	99.462938
3436.000000	99.461512
3435.000000	99.460546
3434.000000	99.460927
3433.000000	99.461663
3432.000000	99.460703
3431.000000	99.457378
3430.000000	99.453160
3429.000000	99.450031
3428.000000	99.448857
3427.000000	99.449325
3426.000000	99.450475
3425.000000	99.450646
3424.000000	99.447771
3423.000000	99.440756
3422.000000	99.430721
3421.000000	99.420622
3420.000000	99.413256
3419.000000	99.409443
3418.000000	99.407830
3417.000000	99.406339
3416.000000	99.403797
3415.000000	99.400484
3414.000000	99.397278
3413.000000	99.394528
3412.000000	99.392053
3411.000000	99.389920
3410.000000	99.388654
3409.000000	99.388626
3408.000000	99.389544
3407.000000	99.390471
3406.000000	99.390303
3405.000000	99.388452
3404.000000	99.385315
3403.000000	99.381829
3402.000000	99.378283
3401.000000	99.374171
3400.000000	99.369428
3399.000000	99.365393
3398.000000	99.363940
3397.000000	99.365747
3396.000000	99.369694
3395.000000	99.373768
3394.000000	99.376330
3393.000000	99.376886
3392.000000	99.376039
3391.000000	99.374536
3390.000000	99.372260
3389.000000	99.368420
3388.000000	99.362672
3387.000000	99.355674
3386.000000	99.348472
3385.000000	99.341866
3384.000000	99.336399
3383.000000	99.332410
3382.000000	99.329829
3381.000000	99.328541
3380.000000	99.328830
3379.000000	99.330760
3378.000000	99.332933
3377.000000	99.332920
3376.000000	99.329479
3375.000000	99.323732
3374.000000	99.317833
3373.000000	99.313071
3372.000000	99.309485
3371.000000	99.306357
3370.000000	99.302527
3369.000000	99.297023
3368.000000	99.290342
3367.000000	99.284641
3366.000000	99.281720
3365.000000	99.280947
3364.000000	99.279952
3363.000000	99.277270
3362.000000	99.273816
3361.000000	99.271852
3360.000000	99.272792
3359.000000	99.275761
3358.000000	99.277998
3357.000000	99.276882
3356.000000	99.271987
3355.000000	99.265114
3354.000000	99.258356
3353.000000	99.252640
3352.000000	99.248241
3351.000000	99.245539
3350.000000	99.244365
3349.000000	99.243206
3348.000000	99.240277
3347.000000	99.235466
3346.000000	99.230632
3345.000000	99.227934
3344.000000	99.228043
3343.000000	99.229713
3342.000000	99.230432
3341.000000	99.227830
3340.000000	99.221488
3339.000000	99.213832
3338.000000	99.208833
3337.000000	99.209109
3336.000000	99.213730
3335.000000	99.218613
3334.000000	99.219346
3333.000000	99.214451
3332.000000	99.206584
3331.000000	99.200508
3330.000000	99.199282
3329.000000	99.201895
3328.000000	99.204357
3327.000000	99.203087
3326.000000	99.197664
3325.000000	99.191046
3324.000000	99.187215
3323.000000	99.188022
3322.000000	99.191717
3321.000000	99.194709
3320.000000	99.194784
3319.000000	99.192385
3318.000000	99.188993
3317.000000	99.185285
3316.000000	99.181299
3315.000000	99.177578
3314.000000	99.175061
3313.000000	99.173892
3312.000000	99.173003
3311.000000	99.171037
3310.000000	99.167652
3309.000000	99.164247
3308.000000	99.163382
3307.000000	99.166682
3306.000000	99.172752
3305.000000	99.177407
3304.000000	99.176511
3303.000000	99.168826
3302.000000	99.156588
3301.000000	99.144062
3300.000000	99.135490
3299.000000	99.133088
3298.000000	99.135773
3297.000000	99.140315
3296.000000	99.144428
3295.000000	99.148488
3294.000000	99.153624
3293.000000	99.158877
3292.000000	99.161441
3291.000000	99.159617
3290.000000	99.154589
3289.000000	99.149080
3288.000000	99.144946
3287.000000	99.142276
3286.000000	99.140195
3285.000000	99.138033
3284.000000	99.135854
3283.000000	99.134219
3282.000000	99.133829
3281.000000	99.135440
3280.000000	99.139496
3279.000000	99.144973
3278.000000	99.148903
3277.000000	99.148359
3276.000000	99.143454
3275.000000	99.137584
3274.000000	99.134179
3273.000000	99.134024
3272.000000	99.135848
3271.000000	99.138194
3270.000000	99.139704
3269.000000	99.138853
3268.000000	99.134971
3267.000000	99.129274
3266.000000	99.124020
3265.000000	99.121008
3264.000000	99.121473
3263.000000	99.126301
3262.000000	99.134878
3261.000000	99.144057
3260.000000	99.149873
3259.000000	99.150592
3258.000000	99.147493
3257.000000	99.142915
3256.000000	99.138542
3255.000000	99.135463
3254.000000	99.134665
3253.000000	99.136798
3252.000000	99.141643
3251.000000	99.147867
3250.000000	99.153076
3249.000000	99.154839
3248.000000	99.152662
3247.000000	99.148810
3246.000000	99.146393
3245.000000	99.146372
3244.000000	99.146828
3243.000000	99.145123
3242.000000	99.140394
3241.000000	99.134599
3240.000000	99.131931
3239.000000	99.136325
3238.000000	99.147929
3237.000000	99.161710
3236.000000	99.170744
3235.000000	99.171669
3234.000000	99.166557
3233.000000	99.159856
3232.000000	99.154543
3231.000000	99.151358
3230.000000	99.150172
3229.000000	99.150792
3228.000000	99.152885
3227.000000	99.156007
3226.000000	99.159755
3225.000000	99.163527
3224.000000	99.166233
3223.000000	99.166702
3222.000000	99.164579
3221.000000	99.160885
3220.000000	99.157735
3219.000000	99.156981
3218.000000	99.158730
3217.000000	99.161385
3216.000000	99.163515
3215.000000	99.165434
3214.000000	99.168227
3213.000000	99.171344
3212.000000	99.172403
3211.000000	99.169868
3210.000000	99.165138
3209.000000	99.161032
3208.000000	99.158901
3207.000000	99.157943
3206.000000	99.157105
3205.000000	99.156525
3204.000000	99.157098
3203.000000	99.159370
3202.000000	99.163213
3201.000000	99.168055
3200.000000	99.173190
3199.000000	99.177989
3198.000000	99.181889
3197.000000	99.184111
3196.000000	99.183845
3195.000000	99.181411
3194.000000	99.179029
3193.000000	99.179380
3192.000000	99.182825
3191.000000	99.186581
3190.000000	99.187296
3189.000000	99.184262
3188.000000	99.179812
3187.000000	99.176811
3186.000000	99.176399
3185.000000	99.177718
3184.000000	99.179247
3183.000000	99.180154
3182.000000	99.180856
3181.000000	99.182385
3180.000000	99.184986
3179.000000	99.187486
3178.000000	99.188310
3177.000000	99.187104
3176.000000	99.185096
3175.000000	99.184016
3174.000000	99.185008
3173.000000	99.188297
3172.000000	99.193149
3171.000000	99.198114
3170.000000	99.201999
3169.000000	99.204981
3168.000000	99.208338
3167.000000	99.212649
3166.000000	99.216624
3165.000000	99.218063
3164.000000	99.216043
3163.000000	99.212023
3162.000000	99.209005
3161.000000	99.209269
3160.000000	99.212490
3159.000000	99.215789
3158.000000	99.216124
3157.000000	99.212978
3156.000000	99.208808
3155.000000	99.206830
3154.000000	99.208501
3153.000000	99.212824
3152.000000	99.217490
3151.000000	99.220655
3150.000000	99.222159
3149.000000	99.223330
3148.000000	99.225140
3147.000000	99.226445
3146.000000	99.224752
3145.000000	99.219327
3144.000000	99.213072
3143.000000	99.210413
3142.000000	99.213249
3141.000000	99.219552
3140.000000	99.225948
3139.000000	99.231105
3138.000000	99.236306
3137.000000	99.243082
3136.000000	99.250725
3135.000000	99.256292
3134.000000	99.257287
3133.000000	99.254383
3132.000000	99.251209
3131.000000	99.251341
3130.000000	99.255608
3129.000000	99.261911
3128.000000	99.266829
3127.000000	99.267568
3126.000000	99.263594
3125.000000	99.257154
3124.000000	99.251896
3123.000000	99.250254
3122.000000	99.251992
3121.000000	99.255073
3120.000000	99.257542
3119.000000	99.258519
3118.000000	99.258248
3117.000000	99.257796
3116.000000	99.258224
3115.000000	99.259345
3114.000000	99.259657
3113.000000	99.257869
3112.000000	99.254072
3111.000000	99.249388
3110.000000	99.245350
3109.000000	99.244065
3108.000000	99.247596
3107.000000	99.255704
3106.000000	99.264501
3105.000000	99.268779
3104.000000	99.266132
3103.000000	99.258279
3102.000000	99.248773
3101.000000	99.240542
3100.000000	99.235350
3099.000000	99.233748
3098.000000	99.234461
3097.000000	99.235133
3096.000000	99.234749
3095.000000	99.234811
3094.000000	99.237209
3093.000000	99.241641
3092.000000	99.245907
3091.000000	99.248122
3090.000000	99.247677
3089.000000	99.244665
3088.000000	99.239692
3087.000000	99.234351
3086.000000	99.230903
3085.000000	99.230849
3084.000000	99.234012
3083.000000	99.238757
3082.000000	99.242963
3081.000000	99.245189
3080.000000	99.245726
3079.000000	99.246310
3078.000000	99.248234
3077.000000	99.250846
3076.000000	99.252457
3075.000000	99.252434
3074.000000	99.251612
3073.000000	99.250872
3072.000000	99.250337
3071.000000	99.250146
3070.000000	99.250830
3069.000000	99.252172
3068.000000	99.252542
3067.000000	99.250382
3066.000000	99.246155
3065.000000	99.242079
3064.000000	99.239962
3063.000000	99.239905
3062.000000	99.240984
3061.000000	99.242385
3060.000000	99.243675
3059.000000	99.244653
3058.000000	99.245555
3057.000000	99.247072
3056.000000	99.249505
3055.000000	99.252131
3054.000000	99.253801
3053.000000	99.254113
3052.000000	99.253385
3051.000000	99.251776
3050.000000	99.249482
3049.000000	99.247883
3048.000000	99.249212
3047.000000	99.253990
3046.000000	99.259640
3045.000000	99.262834
3044.000000	99.262917
3043.000000	99.261957
3042.000000	99.261808
3041.000000	99.262350
3040.000000	99.262856
3039.000000	99.263637
3038.000000	99.265598
3037.000000	99.268747
3036.000000	99.271859
3035.000000	99.273380
3034.000000	99.272456
3033.000000	99.269517
3032.000000	99.266219
3031.000000	99.264560
3030.000000	99.265760
3029.000000	99.269838
3028.000000	99.275645
3027.000000	99.280893
3026.000000	99.282833
3025.000000	99.280136
3024.000000	99.274334
3023.000000	99.268713
3022.000000	99.265813
3021.000000	99.266354
3020.000000	99.270019
3019.000000	99.275798
3018.000000	99.281431
3017.000000	99.283955
3016.000000	99.281957
3015.000000	99.276861
3014.000000	99.271601
3013.000000	99.268288
3012.000000	99.267076
3011.000000	99.266126
3010.000000	99.262575
3009.000000	99.254958
3008.000000	99.245540
3007.000000	99.239328
3006.000000	99.239723
3005.000000	99.245376
3004.000000	99.251782
3003.000000	99.255381
3002.000000	99.255659
3001.000000	99.254318
3000.000000	99.253480
2999.000000	99.254239
2998.000000	99.255816
2997.000000	99.256397
2996.000000	99.255526
2995.000000	99.255029
2994.000000	99.256434
2993.000000	99.257948
2992.000000	99.255506
2991.000000	99.247114
2990.000000	99.235077
2989.000000	99.223653
2988.000000	99.215488
2987.000000	99.210653
2986.000000	99.207937
2985.000000	99.205858
2984.000000	99.202600
2983.000000	99.196338
2982.000000	99.186413
2981.000000	99.174165
2980.000000	99.162110
2979.000000	99.152185
2978.000000	99.144645
2977.000000	99.138400
2976.000000	99.131813
2975.000000	99.123140
2974.000000	99.110854
2973.000000	99.094451
2972.000000	99.075084
2971.000000	99.054829
2970.000000	99.035084
2969.000000	99.015937
2968.000000	98.997244
2967.000000	98.979711
2966.000000	98.964249
2965.000000	98.950288
2964.000000	98.935316
2963.000000	98.916743
2962.000000	98.894387
2961.000000	98.870880
2960.000000	98.849244
2959.000000	98.830147
2958.000000	98.812096
2957.000000	98.794232
2956.000000	98.778211
2955.000000	98.766871
2954.000000	98.761690
2953.000000	98.762141
2952.000000	98.766600
2951.000000	98.772833
2950.000000	98.777700
2949.000000	98.777894
2948.000000	98.771692
2947.000000	98.759809
2946.000000	98.744310
2945.000000	98.726782
2944.000000	98.707466
2943.000000	98.685512
2942.000000	98.660003
2941.000000	98.630958
2940.000000	98.599421
2939.000000	98.566383
2938.000000	98.531645
2937.000000	98.493908
2936.000000	98.451592
2935.000000	98.403527
2934.000000	98.349665
2933.000000	98.291638
2932.000000	98.231908
2931.000000	98.171543
2930.000000	98.109287
2929.000000	98.043554
2928.000000	97.974622
2927.000000	97.904174
2926.000000	97.833710
2925.000000	97.765340
2924.000000	97.703340
2923.000000	97.652570
2922.000000	97.614608
2921.000000	97.587183
2920.000000	97.568663
2919.000000	97.561925
2918.000000	97.573335
2917.000000	97.608382
2916.000000	97.668123
2915.000000	97.748364
2914.000000	97.840987
2913.000000	97.937091
2912.000000	98.029977
2911.000000	98.115953
2910.000000	98.192757
2909.000000	98.258594
2908.000000	98.313204
2907.000000	98.358642
2906.000000	98.398061
2905.000000	98.433853
2904.000000	98.467149
2903.000000	98.498012
2902.000000	98.525458
2901.000000	98.548654
2900.000000	98.568092
2899.000000	98.586512
2898.000000	98.606689
2897.000000	98.629001
2896.000000	98.651518
2895.000000	98.672014
2894.000000	98.689568
2893.000000	98.704737
2892.000000	98.718953
2891.000000	98.733495
2890.000000	98.748475
2889.000000	98.762938
2888.000000	98.776069
2887.000000	98.787857
2886.000000	98.798498
2885.000000	98.807867
2884.000000	98.815985
2883.000000	98.823233
2882.000000	98.829482
2881.000000	98.833641
2880.000000	98.834731
2879.000000	98.833001
2878.000000	98.829476
2877.000000	98.824905
2876.000000	98.819602
2875.000000	98.813723
2874.000000	98.807093
2873.000000	98.799304
2872.000000	98.790844
2871.000000	98.783739
2870.000000	98.780205
2869.000000	98.780380
2868.000000	98.781617
2867.000000	98.779608
2866.000000	98.770272
2865.000000	98.751846
2864.000000	98.726142
2863.000000	98.697213
2862.000000	98.667607
2861.000000	98.635887
2860.000000	98.598454
2859.000000	98.553220
2858.000000	98.500914
2857.000000	98.443644
2856.000000	98.383448
2855.000000	98.321952
2854.000000	98.260597
2853.000000	98.201519
2852.000000	98.149789
2851.000000	98.115055
2850.000000	98.108784
2849.000000	98.138058
2848.000000	98.200871
2847.000000	98.287373
2846.000000	98.385468
2845.000000	98.485803
2844.000000	98.582448
2843.000000	98.670840
2842.000000	98.746555
2841.000000	98.806859
2840.000000	98.853354
2839.000000	98.891545
2838.000000	98.926837
2837.000000	98.960911
2836.000000	98.992034
2835.000000	99.018178
2834.000000	99.039109
2833.000000	99.056014
2832.000000	99.070373
2831.000000	99.083332
2830.000000	99.095320
2829.000000	99.105905
2828.000000	99.114310
2827.000000	99.120290
2826.000000	99.124357
2825.000000	99.127226
2824.000000	99.129514
2823.000000	99.132095
2822.000000	99.136316
2821.000000	99.143296
2820.000000	99.152738
2819.000000	99.162611
2818.000000	99.170574
2817.000000	99.176040
2816.000000	99.180487
2815.000000	99.185273
2814.000000	99.189561
2813.000000	99.191396
2812.000000	99.190653
2811.000000	99.189625
2810.000000	99.190309
2809.000000	99.192233
2808.000000	99.193912
2807.000000	99.195393
2806.000000	99.198050
2805.000000	99.202305
2804.000000	99.206784
2803.000000	99.209879
2802.000000	99.211224
2801.000000	99.211612
2800.000000	99.212215
2799.000000	99.214039
2798.000000	99.217399
2797.000000	99.221558
2796.000000	99.225135
2795.000000	99.227088
2794.000000	99.227285
2793.000000	99.226526
2792.000000	99.226306
2791.000000	99.228024
2790.000000	99.231644
2789.000000	99.235370
2788.000000	99.237439
2787.000000	99.238157
2786.000000	99.239278
2785.000000	99.241276
2784.000000	99.242335
2783.000000	99.240727
2782.000000	99.237449
2781.000000	99.235589
2780.000000	99.237148
2779.000000	99.241228
2778.000000	99.245400
2777.000000	99.248202
2776.000000	99.249938
2775.000000	99.251562
2774.000000	99.253524
2773.000000	99.255851
2772.000000	99.258685
2771.000000	99.262138
2770.000000	99.265865
2769.000000	99.269389
2768.000000	99.272726
2767.000000	99.276040
2766.000000	99.278632
2765.000000	99.279107
2764.000000	99.277094
2763.000000	99.274290
2762.000000	99.273044
2761.000000	99.273956
2760.000000	99.275464
2759.000000	99.275896
2758.000000	99.275414
2757.000000	99.275620
2756.000000	99.277641
2755.000000	99.281160
2754.000000	99.285299
2753.000000	99.289601
2752.000000	99.293547
2751.000000	99.295653
2750.000000	99.294291
2749.000000	99.289788
2748.000000	99.284835
2747.000000	99.282075
2746.000000	99.281861
2745.000000	99.283038
2744.000000	99.285198
2743.000000	99.288922
2742.000000	99.293942
2741.000000	99.298288
2740.000000	99.299794
2739.000000	99.297963
2738.000000	99.294352
2737.000000	99.291730
2736.000000	99.292619
2735.000000	99.297444
2734.000000	99.303655
2733.000000	99.307452
2732.000000	99.306950
2731.000000	99.303239
2730.000000	99.298447
2729.000000	99.293786
2728.000000	99.289911
2727.000000	99.288058
2726.000000	99.289549
2725.000000	99.294328
2724.000000	99.300722
2723.000000	99.306676
2722.000000	99.310904
2721.000000	99.313042
2720.000000	99.313202
2719.000000	99.311581
2718.000000	99.308650
2717.000000	99.305750
2716.000000	99.304835
2715.000000	99.306641
2714.000000	99.309259
2713.000000	99.309733
2712.000000	99.307365
2711.000000	99.304380
2710.000000	99.302977
2709.000000	99.303068
2708.000000	99.303693
2707.000000	99.305339
2706.000000	99.309298
2705.000000	99.315193
2704.000000	99.320644
2703.000000	99.323506
2702.000000	99.323585
2701.000000	99.322190
2700.000000	99.320847
2699.000000	99.320472
2698.000000	99.320984
2697.000000	99.321420
2696.000000	99.320894
2695.000000	99.319608
2694.000000	99.318678
2693.000000	99.319112
2692.000000	99.321285
2691.000000	99.324954
2690.000000	99.329030
2689.000000	99.331571
2688.000000	99.331121
2687.000000	99.328514
2686.000000	99.326567
2685.000000	99.327327
2684.000000	99.329811
2683.000000	99.330938
2682.000000	99.328556
2681.000000	99.323173
2680.000000	99.317000
2679.000000	99.311935
2678.000000	99.308730
2677.000000	99.307463
2676.000000	99.307938
2675.000000	99.309438
2674.000000	99.310836
2673.000000	99.311668
2672.000000	99.312943
2671.000000	99.316195
2670.000000	99.321478
2669.000000	99.326709
2668.000000	99.329331
2667.000000	99.328418
2666.000000	99.324945
2665.000000	99.320288
2664.000000	99.314971
2663.000000	99.309090
2662.000000	99.303612
2661.000000	99.300489
2660.000000	99.300857
2659.000000	99.303381
2658.000000	99.305343
2657.000000	99.305768
2656.000000	99.306697
2655.000000	99.310600
2654.000000	99.317113
2653.000000	99.323355
2652.000000	99.327006
2651.000000	99.327901
2650.000000	99.326787
2649.000000	99.324136
2648.000000	99.320735
2647.000000	99.318167
2646.000000	99.317659
2645.000000	99.318982
2644.000000	99.321206
2643.000000	99.323967
2642.000000	99.327234
2641.000000	99.330328
2640.000000	99.332255
2639.000000	99.333307
2638.000000	99.335704
2637.000000	99.341882
2636.000000	99.351620
2635.000000	99.361042
2634.000000	99.365389
2633.000000	99.363571
2632.000000	99.359504
2631.000000	99.358019
2630.000000	99.359750
2629.000000	99.361295
2628.000000	99.359986
2627.000000	99.356726
2626.000000	99.353727
2625.000000	99.351338
2624.000000	99.348659
2623.000000	99.346251
2622.000000	99.346473
2621.000000	99.350891
2620.000000	99.358211
2619.000000	99.365030
2618.000000	99.368446
2617.000000	99.368091
2616.000000	99.365928
2615.000000	99.364356
2614.000000	99.364775
2613.000000	99.367726
2612.000000	99.373053
2611.000000	99.378863
2610.000000	99.381465
2609.000000	99.378489
2608.000000	99.371963
2607.000000	99.366460
2606.000000	99.364018
2605.000000	99.363060
2604.000000	99.362617
2603.000000	99.365004
2602.000000	99.372472
2601.000000	99.382814
2600.000000	99.390671
2599.000000	99.392697
2598.000000	99.390035
2597.000000	99.386080
2596.000000	99.383405
2595.000000	99.382973
2594.000000	99.384801
2593.000000	99.388178
2592.000000	99.391203
2591.000000	99.391157
2590.000000	99.386738
2589.000000	99.380527
2588.000000	99.378034
2587.000000	99.382594
2586.000000	99.391453
2585.000000	99.398306
2584.000000	99.399709
2583.000000	99.397941
2582.000000	99.397722
2581.000000	99.401661
2580.000000	99.408378
2579.000000	99.413256
2578.000000	99.411315
2577.000000	99.401798
2576.000000	99.390507
2575.000000	99.385532
2574.000000	99.389832
2573.000000	99.399454
2572.000000	99.408658
2571.000000	99.414296
2570.000000	99.415132
2569.000000	99.410809
2568.000000	99.403658
2567.000000	99.398862
2566.000000	99.399978
2565.000000	99.405396
2564.000000	99.410609
2563.000000	99.412684
2562.000000	99.411134
2561.000000	99.406602
2560.000000	99.400671
2559.000000	99.395563
2558.000000	99.392002
2557.000000	99.388433
2556.000000	99.383778
2555.000000	99.379538
2554.000000	99.377741
2553.000000	99.378552
2552.000000	99.381799
2551.000000	99.388663
2550.000000	99.399018
2549.000000	99.408218
2548.000000	99.409874
2547.000000	99.401999
2546.000000	99.388670
2545.000000	99.375969
2544.000000	99.368206
2543.000000	99.367252
2542.000000	99.372487
2541.000000	99.380452
2540.000000	99.386293
2539.000000	99.386775
2538.000000	99.381707
2537.000000	99.372952
2536.000000	99.363104
2535.000000	99.354685
2534.000000	99.349021
2533.000000	99.345494
2532.000000	99.342435
2531.000000	99.338640
2530.000000	99.333600
2529.000000	99.327010
2528.000000	99.319161
2527.000000	99.311370
2526.000000	99.305011
2525.000000	99.300370
2524.000000	99.297188
2523.000000	99.295592
2522.000000	99.295318
2521.000000	99.294410
2520.000000	99.290103
2519.000000	99.281255
2518.000000	99.269397
2517.000000	99.257729
2516.000000	99.249655
2515.000000	99.247606
2514.000000	99.251811
2513.000000	99.259691
2512.000000	99.266940
2511.000000	99.269599
2510.000000	99.265449
2509.000000	99.254448
2508.000000	99.238983
2507.000000	99.223886
2506.000000	99.215526
2505.000000	99.219435
2504.000000	99.236697
2503.000000	99.261300
2502.000000	99.282315
2501.000000	99.291804
2500.000000	99.291452
2499.000000	99.290229
2498.000000	99.294529
2497.000000	99.302433
2496.000000	99.308207
2495.000000	99.310176
2494.000000	99.312339
2493.000000	99.319424
2492.000000	99.332522
2491.000000	99.349017
2490.000000	99.364638
2489.000000	99.375441
2488.000000	99.379241
2487.000000	99.376169
2486.000000	99.367996
2485.000000	99.357625
2484.000000	99.349168
2483.000000	99.346928
2482.000000	99.352751
2481.000000	99.364622
2480.000000	99.378490
2479.000000	99.391076
2478.000000	99.400703
2477.000000	99.406857
2476.000000	99.410565
2475.000000	99.414119
2474.000000	99.418695
2473.000000	99.422514
2472.000000	99.423081
2471.000000	99.421079
2470.000000	99.420394
2469.000000	99.423928
2468.000000	99.430846
2467.000000	99.438504
2466.000000	99.445464
2465.000000	99.451258
2464.000000	99.454398
2463.000000	99.453138
2462.000000	99.448699
2461.000000	99.445751
2460.000000	99.447700
2459.000000	99.452154
2458.000000	99.453012
2457.000000	99.447277
2456.000000	99.438340
2455.000000	99.431995
2454.000000	99.430642
2453.000000	99.432291
2452.000000	99.433611
2451.000000	99.432535
2450.000000	99.429290
2449.000000	99.426709
2448.000000	99.428759
2447.000000	99.436691
2446.000000	99.446849
2445.000000	99.453789
2444.000000	99.455417
2443.000000	99.453913
2442.000000	99.452477
2441.000000	99.452960
2440.000000	99.455875
2439.000000	99.460310
2438.000000	99.463745
2437.000000	99.464088
2436.000000	99.462256
2435.000000	99.461193
2434.000000	99.462376
2433.000000	99.464905
2432.000000	99.467742
2431.000000	99.470842
2430.000000	99.474063
2429.000000	99.477040
2428.000000	99.480350
2427.000000	99.484752
2426.000000	99.489074
2425.000000	99.490959
2424.000000	99.490025
2423.000000	99.488013
2422.000000	99.485384
2421.000000	99.480534
2420.000000	99.473551
2419.000000	99.468160
2418.000000	99.467701
2417.000000	99.470382
2416.000000	99.470757
2415.000000	99.465706
2414.000000	99.457767
2413.000000	99.452598
2412.000000	99.453658
2411.000000	99.459190
2410.000000	99.464170
2409.000000	99.465286
2408.000000	99.463931
2407.000000	99.464022
2406.000000	99.467452
2405.000000	99.472598
2404.000000	99.476751
2403.000000	99.479023
2402.000000	99.480953
2401.000000	99.484904
2400.000000	99.491394
2399.000000	99.497450
2398.000000	99.498765
2397.000000	99.494467
2396.000000	99.488503
2395.000000	99.484945
2394.000000	99.483386
2393.000000	99.481039
2392.000000	99.477667
2391.000000	99.475707
2390.000000	99.476022
2389.000000	99.476548
2388.000000	99.475920
2387.000000	99.475232
2386.000000	99.476676
2385.000000	99.481772
2384.000000	99.491068
2383.000000	99.504307
2382.000000	99.518567
2381.000000	99.529477
2380.000000	99.533342
2379.000000	99.527882
2378.000000	99.512897
2377.000000	99.492162
2376.000000	99.473798
2375.000000	99.464732
2374.000000	99.465924
2373.000000	99.474092
2372.000000	99.486614
2371.000000	99.501129
2370.000000	99.513523
2369.000000	99.520778
2368.000000	99.520676
2367.000000	99.510390
2366.000000	99.490059
2365.000000	99.469243
2364.000000	99.461007
2363.000000	99.463937
2362.000000	99.463562
2361.000000	99.455765
2360.000000	99.453679
2359.000000	99.470320
2358.000000	99.502564
2357.000000	99.534015
2356.000000	99.548646
2355.000000	99.537805
2354.000000	99.517091
2353.000000	99.509887
2352.000000	99.519293
2351.000000	99.525960
2350.000000	99.515848
2349.000000	99.492512
2348.000000	99.469736
2347.000000	99.462879
2346.000000	99.473940
2345.000000	99.482338
2344.000000	99.469874
2343.000000	99.442665
2342.000000	99.422410
2341.000000	99.420773
2340.000000	99.430650
2339.000000	99.439446
2338.000000	99.443455
2337.000000	99.447656
2336.000000	99.453467
2335.000000	99.461126
2334.000000	99.472742
2333.000000	99.491001
2332.000000	99.504925
2331.000000	99.504216
2330.000000	99.487659
2329.000000	99.468340
2328.000000	99.450506
2327.000000	99.432895
2326.000000	99.414041
2325.000000	99.399638
2324.000000	99.394860
2323.000000	99.399312
2322.000000	99.404692
2321.000000	99.402219
2320.000000	99.388312
2319.000000	99.370320
2318.000000	99.355067
2317.000000	99.347726
2316.000000	99.348455
2315.000000	99.360770
2314.000000	99.381880
2313.000000	99.404122
2312.000000	99.416828
2311.000000	99.421145
2310.000000	99.424529
2309.000000	99.433094
2308.000000	99.443959
2307.000000	99.453318
2306.000000	99.458740
2305.000000	99.460308
2304.000000	99.458631
2303.000000	99.457520
2302.000000	99.459577
2301.000000	99.464340
2300.000000	99.467950
2299.000000	99.470416
2298.000000	99.472100
2297.000000	99.471872
2296.000000	99.465352
2295.000000	99.453467
2294.000000	99.442262
2293.000000	99.438498
2292.000000	99.443353
2291.000000	99.453782
2290.000000	99.464478
2289.000000	99.468852
2288.000000	99.461769
2287.000000	99.443875
2286.000000	99.422822
2285.000000	99.407822
2284.000000	99.404952
2283.000000	99.414607
2282.000000	99.432480
2281.000000	99.451465
2280.000000	99.466838
2279.000000	99.479129
2278.000000	99.490577
2277.000000	99.499206
2276.000000	99.499109
2275.000000	99.488040
2274.000000	99.472192
2273.000000	99.463087
2272.000000	99.468763
2271.000000	99.487293
2270.000000	99.506860
2269.000000	99.514191
2268.000000	99.505423
2267.000000	99.489144
2266.000000	99.476961
2265.000000	99.472712
2264.000000	99.472681
2263.000000	99.474306
2262.000000	99.480236
2261.000000	99.493101
2260.000000	99.510033
2259.000000	99.523583
2258.000000	99.527710
2257.000000	99.522078
2256.000000	99.511315
2255.000000	99.499176
2254.000000	99.484207
2253.000000	99.464342
2252.000000	99.445245
2251.000000	99.439294
2250.000000	99.452797
2249.000000	99.477947
2248.000000	99.499843
2247.000000	99.510219
2246.000000	99.510521
2245.000000	99.506357
2244.000000	99.503622
2243.000000	99.508024
2242.000000	99.521915
2241.000000	99.540370
2240.000000	99.552944
2239.000000	99.550595
2238.000000	99.531010
2237.000000	99.500366
2236.000000	99.471691
2235.000000	99.458204
2234.000000	99.464659
2233.000000	99.485622
2232.000000	99.512302
2231.000000	99.538043
2230.000000	99.556639
2229.000000	99.561867
2228.000000	99.553829
2227.000000	99.541565
2226.000000	99.534490
2225.000000	99.534171
2224.000000	99.537918
2223.000000	99.545811
2222.000000	99.558415
2221.000000	99.570510
2220.000000	99.572654
2219.000000	99.558229
2218.000000	99.526342
2217.000000	99.483177
2216.000000	99.445098
2215.000000	99.434228
2214.000000	99.461111
2213.000000	99.511585
2212.000000	99.556563
2211.000000	99.576045
2210.000000	99.569306
2209.000000	99.544942
2208.000000	99.510256
2207.000000	99.472155
2206.000000	99.441493
2205.000000	99.429774
2204.000000	99.440067
2203.000000	99.462772
2202.000000	99.482592
2201.000000	99.491680
2200.000000	99.495801
2199.000000	99.504726
2198.000000	99.517699
2197.000000	99.524096
2196.000000	99.519586
2195.000000	99.514128
2194.000000	99.519477
2193.000000	99.534417
2192.000000	99.546999
2191.000000	99.546872
2190.000000	99.529718
2189.000000	99.495990
2188.000000	99.454263
2187.000000	99.423195
2186.000000	99.420163
2185.000000	99.444228
2184.000000	99.474132
2183.000000	99.487533
2182.000000	99.482289
2181.000000	99.478109
2180.000000	99.496917
2179.000000	99.539967
2178.000000	99.584206
2177.000000	99.602399
2176.000000	99.589198
2175.000000	99.566536
2174.000000	99.561734
2173.000000	99.581438
2172.000000	99.606868
2171.000000	99.611967
2170.000000	99.586642
2169.000000	99.547545
2168.000000	99.525214
2167.000000	99.534714
2166.000000	99.560538
2165.000000	99.574666
2164.000000	99.566900
2163.000000	99.550885
2162.000000	99.544620
2161.000000	99.559147
2160.000000	99.601838
2159.000000	99.670157
2158.000000	99.738244
2157.000000	99.773128
2156.000000	99.770261
2155.000000	99.752356
2154.000000	99.738012
2153.000000	99.730960
2152.000000	99.734197
2151.000000	99.752985
2150.000000	99.779714
2149.000000	99.790831
2148.000000	99.770286
2147.000000	99.728257
2146.000000	99.690009
2145.000000	99.672069
2144.000000	99.672740
2143.000000	99.678971
2142.000000	99.677696
2141.000000	99.665582
2140.000000	99.652291
2139.000000	99.651021
2138.000000	99.663931
2137.000000	99.679985
2136.000000	99.686488
2135.000000	99.679548
2134.000000	99.664467
2133.000000	99.651738
2132.000000	99.651015
2131.000000	99.661875
2130.000000	99.671248
2129.000000	99.666067
2128.000000	99.648164
2127.000000	99.630595
2126.000000	99.621207
2125.000000	99.617619
2124.000000	99.617421
2123.000000	99.622045
2122.000000	99.627787
2121.000000	99.622875
2120.000000	99.600701
2119.000000	99.569914
2118.000000	99.545431
2117.000000	99.534376
2116.000000	99.534945
2115.000000	99.543630
2114.000000	99.556625
2113.000000	99.567673
2112.000000	99.571734
2111.000000	99.570067
2110.000000	99.566647
2109.000000	99.561261
2108.000000	99.551291
2107.000000	99.539299
2106.000000	99.533344
2105.000000	99.538658
2104.000000	99.552206
2103.000000	99.566234
2102.000000	99.575140
2101.000000	99.578358
2100.000000	99.578504
2099.000000	99.577804
2098.000000	99.576828
2097.000000	99.576735
2096.000000	99.580245
2095.000000	99.587327
2094.000000	99.591551
2093.000000	99.585524
2092.000000	99.570682
2091.000000	99.557570
2090.000000	99.555499
2089.000000	99.564352
2088.000000	99.576363
2087.000000	99.583292
2086.000000	99.581035
2085.000000	99.570690
2084.000000	99.556862
2083.000000	99.543384
2082.000000	99.530909
2081.000000	99.520165
2080.000000	99.514797
2079.000000	99.517533
2078.000000	99.526013
2077.000000	99.537152
2076.000000	99.552843
2075.000000	99.575013
2074.000000	99.596926
2073.000000	99.607581
2072.000000	99.605181
2071.000000	99.597971
2070.000000	99.592150
2069.000000	99.587882
2068.000000	99.587307
2067.000000	99.595370
2066.000000	99.609273
2065.000000	99.616683
2064.000000	99.610293
2063.000000	99.597634
2062.000000	99.591693
2061.000000	99.597821
2060.000000	99.610676
2059.000000	99.617078
2058.000000	99.602227
2057.000000	99.563581
2056.000000	99.521203
2055.000000	99.502878
2054.000000	99.513364
2053.000000	99.528053
2052.000000	99.523510
2051.000000	99.504438
2050.000000	99.493788
2049.000000	99.504598
2048.000000	99.529465
2047.000000	99.554213
2046.000000	99.572319
2045.000000	99.584730
2044.000000	99.594052
2043.000000	99.601226
2042.000000	99.605183
2041.000000	99.606248
2040.000000	99.608572
2039.000000	99.614474
2038.000000	99.618506
2037.000000	99.615046
2036.000000	99.611468
2035.000000	99.623701
2034.000000	99.656385
2033.000000	99.696098
2032.000000	99.724784
2031.000000	99.731981
2030.000000	99.716035
2029.000000	99.687920
2028.000000	99.673013
2027.000000	99.692311
2026.000000	99.740879
2025.000000	99.794517
2024.000000	99.833935
2023.000000	99.850521
2022.000000	99.835034
2021.000000	99.782471
2020.000000	99.708532
2019.000000	99.642459
2018.000000	99.604393
2017.000000	99.601227
2016.000000	99.633424
2015.000000	99.687986
2014.000000	99.731993
2013.000000	99.735441
2012.000000	99.705554
2011.000000	99.680775
2010.000000	99.686431
2009.000000	99.712528
2008.000000	99.734852
2007.000000	99.740802
2006.000000	99.730687
2005.000000	99.710989
2004.000000	99.692621
2003.000000	99.683331
2002.000000	99.681295
2001.000000	99.683095
2000.000000	99.691212
1999.000000	99.704403
1998.000000	99.709338
1997.000000	99.697367
1996.000000	99.681103
1995.000000	99.674737
1994.000000	99.666858
1993.000000	99.637770
1992.000000	99.601193
1991.000000	99.595796
1990.000000	99.630314
1989.000000	99.672687
1988.000000	99.695992
1987.000000	99.703272
1986.000000	99.701799
1985.000000	99.683378
1984.000000	99.643702
1983.000000	99.597259
1982.000000	99.558514
1981.000000	99.528360
1980.000000	99.512417
1979.000000	99.531984
1978.000000	99.595022
1977.000000	99.670617
1976.000000	99.717211
1975.000000	99.725049
1974.000000	99.711323
1973.000000	99.694973
1972.000000	99.690359
1971.000000	99.704155
1970.000000	99.726904
1969.000000	99.742435
1968.000000	99.750816
1967.000000	99.765318
1966.000000	99.784374
1965.000000	99.790312
1964.000000	99.778503
1963.000000	99.761442
1962.000000	99.743086
1961.000000	99.715119
1960.000000	99.682530
1959.000000	99.666136
1958.000000	99.671663
1957.000000	99.680726
1956.000000	99.680912
1955.000000	99.683577
1954.000000	99.701738
1953.000000	99.727162
1952.000000	99.739907
1951.000000	99.729400
1950.000000	99.700968
1949.000000	99.672287
1948.000000	99.665223
1947.000000	99.688082
1946.000000	99.722416
1945.000000	99.739681
1944.000000	99.733194
1943.000000	99.721160
1942.000000	99.715703
1941.000000	99.706884
1940.000000	99.686986
1939.000000	99.667654
1938.000000	99.663048
1937.000000	99.673015
1936.000000	99.688958
1935.000000	99.705108
1934.000000	99.716535
1933.000000	99.716959
1932.000000	99.706906
1931.000000	99.695723
1930.000000	99.691873
1929.000000	99.696699
1928.000000	99.709398
1927.000000	99.729871
1926.000000	99.752823
1925.000000	99.768484
1924.000000	99.772180
1923.000000	99.768010
1922.000000	99.759540
1921.000000	99.744750
1920.000000	99.724719
1919.000000	99.707746
1918.000000	99.699750
1917.000000	99.696155
1916.000000	99.688881
1915.000000	99.677641
1914.000000	99.666704
1913.000000	99.657806
1912.000000	99.650701
1911.000000	99.645627
1910.000000	99.643245
1909.000000	99.644434
1908.000000	99.650870
1907.000000	99.662141
1906.000000	99.671527
1905.000000	99.671793
1904.000000	99.665756
1903.000000	99.664867
1902.000000	99.674181
1901.000000	99.684630
1900.000000	99.685403
1899.000000	99.677377
1898.000000	99.667962
1897.000000	99.660917
1896.000000	99.655881
1895.000000	99.653656
1894.000000	99.656255
1893.000000	99.663336
1892.000000	99.673066
1891.000000	99.684012
1890.000000	99.693111
1889.000000	99.696945
1888.000000	99.696631
1887.000000	99.697054
1886.000000	99.699654
1885.000000	99.700545
1884.000000	99.697429
1883.000000	99.693775
1882.000000	99.694033
1881.000000	99.698068
1880.000000	99.703371
1879.000000	99.708730
1878.000000	99.713178
1877.000000	99.716614
1876.000000	99.721860
1875.000000	99.729684
1874.000000	99.732570
1873.000000	99.721831
1872.000000	99.702084
1871.000000	99.691747
1870.000000	99.705753
1869.000000	99.739137
1868.000000	99.770510
1867.000000	99.785190
1866.000000	99.785935
1865.000000	99.780707
1864.000000	99.774497
1863.000000	99.768980
1862.000000	99.762063
1861.000000	99.750635
1860.000000	99.736463
1859.000000	99.725625
1858.000000	99.721260
1857.000000	99.721476
1856.000000	99.725818
1855.000000	99.737882
1854.000000	99.757053
1853.000000	99.773508
1852.000000	99.777708
1851.000000	99.771478
1850.000000	99.761612
1849.000000	99.749638
1848.000000	99.733647
1847.000000	99.715973
1846.000000	99.703246
1845.000000	99.700334
1844.000000	99.707162
1843.000000	99.719814
1842.000000	99.733090
1841.000000	99.743340
1840.000000	99.750717
1839.000000	99.756724
1838.000000	99.759554
1837.000000	99.757309
1836.000000	99.753856
1835.000000	99.755733
1834.000000	99.762814
1833.000000	99.768738
1832.000000	99.771716
1831.000000	99.775625
1830.000000	99.779260
1829.000000	99.776409
1828.000000	99.767333
1827.000000	99.759540
1826.000000	99.756756
1825.000000	99.756161
1824.000000	99.756323
1823.000000	99.759036
1822.000000	99.763074
1821.000000	99.764179
1820.000000	99.762434
1819.000000	99.762894
1818.000000	99.767566
1817.000000	99.773331
1816.000000	99.777239
1815.000000	99.779646
1814.000000	99.780710
1813.000000	99.778273
1812.000000	99.772231
1811.000000	99.763997
1810.000000	99.752885
1809.000000	99.737752
1808.000000	99.719295
1807.000000	99.699270
1806.000000	99.677497
1805.000000	99.651148
1804.000000	99.618399
1803.000000	99.580874
1802.000000	99.541654
1801.000000	99.503136
1800.000000	99.467740
1799.000000	99.436324
1798.000000	99.409785
1797.000000	99.388765
1796.000000	99.371957
1795.000000	99.358837
1794.000000	99.352941
1793.000000	99.361535
1792.000000	99.390492
1791.000000	99.433769
1790.000000	99.477936
1789.000000	99.515454
1788.000000	99.545598
1787.000000	99.571579
1786.000000	99.597789
1785.000000	99.625356
1784.000000	99.650058
1783.000000	99.668044
1782.000000	99.679990
1781.000000	99.687832
1780.000000	99.694673
1779.000000	99.702796
1778.000000	99.711816
1777.000000	99.718072
1776.000000	99.718489
1775.000000	99.716064
1774.000000	99.717598
1773.000000	99.726354
1772.000000	99.741911
1771.000000	99.759800
1770.000000	99.771432
1769.000000	99.773706
1768.000000	99.771012
1767.000000	99.769556
1766.000000	99.770363
1765.000000	99.769943
1764.000000	99.767296
1763.000000	99.765382
1762.000000	99.765697
1761.000000	99.765576
1760.000000	99.763776
1759.000000	99.760537
1758.000000	99.755344
1757.000000	99.744879
1756.000000	99.729123
1755.000000	99.712759
1754.000000	99.695987
1753.000000	99.675005
1752.000000	99.650404
1751.000000	99.630767
1750.000000	99.620124
1749.000000	99.609894
1748.000000	99.595756
1747.000000	99.585200
1746.000000	99.581642
1745.000000	99.578745
1744.000000	99.571875
1743.000000	99.561980
1742.000000	99.549721
1741.000000	99.534813
1740.000000	99.521012
1739.000000	99.511619
1738.000000	99.500729
1737.000000	99.481887
1736.000000	99.463012
1735.000000	99.464259
1734.000000	99.496243
1733.000000	99.535462
1732.000000	99.558412
1731.000000	99.572380
1730.000000	99.588734
1729.000000	99.605170
1728.000000	99.616963
1727.000000	99.627733
1726.000000	99.640036
1725.000000	99.649428
1724.000000	99.653577
1723.000000	99.656201
1722.000000	99.658828
1721.000000	99.658051
1720.000000	99.654135
1719.000000	99.650737
1718.000000	99.644696
1717.000000	99.639738
1716.000000	99.643684
1715.000000	99.652888
1714.000000	99.663045
1713.000000	99.669997
1712.000000	99.671748
1711.000000	99.672074
1710.000000	99.673607
1709.000000	99.672593
1708.000000	99.666495
1707.000000	99.660532
1706.000000	99.660017
1705.000000	99.660519
1704.000000	99.648855
1703.000000	99.618775
1702.000000	99.576943
1701.000000	99.536912
1700.000000	99.511767
1699.000000	99.503350
1698.000000	99.500198
1697.000000	99.495638
1696.000000	99.491191
1695.000000	99.483151
1694.000000	99.468698
1693.000000	99.451001
1692.000000	99.433530
1691.000000	99.417538
1690.000000	99.399118
1689.000000	99.372352
1688.000000	99.337944
1687.000000	99.302836
1686.000000	99.272762
1685.000000	99.248000
1684.000000	99.227874
1683.000000	99.215720
1682.000000	99.205220
1681.000000	99.191274
1680.000000	99.173527
1679.000000	99.152649
1678.000000	99.127827
1677.000000	99.096810
1676.000000	99.060888
1675.000000	99.028613
1674.000000	99.006352
1673.000000	98.986031
1672.000000	98.959807
1671.000000	98.929443
1670.000000	98.902664
1669.000000	98.884757
1668.000000	98.874143
1667.000000	98.866843
1666.000000	98.855973
1665.000000	98.836291
1664.000000	98.809336
1663.000000	98.782017
1662.000000	98.760634
1661.000000	98.742231
1660.000000	98.722515
1659.000000	98.703810
1658.000000	98.686741
1657.000000	98.666957
1656.000000	98.643265
1655.000000	98.625905
1654.000000	98.620826
1653.000000	98.618273
1652.000000	98.614245
1651.000000	98.614861
1650.000000	98.612889
1649.000000	98.604191
1648.000000	98.588802
1647.000000	98.581991
1646.000000	98.602409
1645.000000	98.633821
1644.000000	98.655760
1643.000000	98.665630
1642.000000	98.668398
1641.000000	98.668159
1640.000000	98.667722
1639.000000	98.669748
1638.000000	98.675942
1637.000000	98.687183
1636.000000	98.704658
1635.000000	98.730384
1634.000000	98.754610
1633.000000	98.771177
1632.000000	98.780842
1631.000000	98.787299
1630.000000	98.793302
1629.000000	98.798969
1628.000000	98.804575
1627.000000	98.812730
1626.000000	98.823237
1625.000000	98.833383
1624.000000	98.845350
1623.000000	98.863687
1622.000000	98.883972
1621.000000	98.893889
1620.000000	98.892428
1619.000000	98.889978
1618.000000	98.894882
1617.000000	98.907068
1616.000000	98.924349
1615.000000	98.946438
1614.000000	98.967995
1613.000000	98.981074
1612.000000	98.984370
1611.000000	98.984674
1610.000000	98.988698
1609.000000	98.993612
1608.000000	98.994645
1607.000000	98.994939
1606.000000	98.998198
1605.000000	98.999717
1604.000000	98.995415
1603.000000	98.988788
1602.000000	98.983114
1601.000000	98.975660
1600.000000	98.965562
1599.000000	98.957893
1598.000000	98.953149
1597.000000	98.943720
1596.000000	98.925666
1595.000000	98.904961
1594.000000	98.887384
1593.000000	98.869443
1592.000000	98.847375
1591.000000	98.825455
1590.000000	98.807493
1589.000000	98.788142
1588.000000	98.761297
1587.000000	98.729169
1586.000000	98.695795
1585.000000	98.658986
1584.000000	98.616360
1583.000000	98.573235
1582.000000	98.534457
1581.000000	98.496656
1580.000000	98.456885
1579.000000	98.422211
1578.000000	98.402161
1577.000000	98.399509
1576.000000	98.415119
1575.000000	98.449801
1574.000000	98.490072
1573.000000	98.520939
1572.000000	98.544399
1571.000000	98.573084
1570.000000	98.614298
1569.000000	98.655446
1568.000000	98.682417
1567.000000	98.701776
1566.000000	98.721416
1565.000000	98.737682
1564.000000	98.744013
1563.000000	98.742678
1562.000000	98.739260
1561.000000	98.736336
1560.000000	98.725438
1559.000000	98.683578
1558.000000	98.653870
1557.000000	98.634383
1556.000000	98.612383
1555.000000	98.591918
1554.000000	98.571245
1553.000000	98.541550
1552.000000	98.498132
1551.000000	98.439200
1550.000000	98.363656
1549.000000	98.277211
1548.000000	98.188774
1547.000000	98.095869
1546.000000	97.982581
1545.000000	97.837265
1544.000000	97.677732
1543.000000	97.537594
1542.000000	97.420933
1541.000000	97.308983
1540.000000	97.216331
1539.000000	97.182191
1538.000000	97.181967
1537.000000	97.181577
1536.000000	97.174143
1535.000000	97.161430
1534.000000	97.137162
1533.000000	97.097699
1532.000000	97.057780
1531.000000	97.023628
1530.000000	96.985005
1529.000000	96.929387
1528.000000	96.851558
1527.000000	96.755142
1526.000000	96.650089
1525.000000	96.551610
1524.000000	96.468567
1523.000000	96.386579
1522.000000	96.273510
1521.000000	96.136895
1520.000000	96.032416
1519.000000	95.968338
1518.000000	95.901381
1517.000000	95.799668
1516.000000	95.683597
1515.000000	95.587969
1514.000000	95.505028
1513.000000	95.411840
1512.000000	95.310749
1511.000000	95.221618
1510.000000	95.147236
1509.000000	95.059729
1508.000000	94.915588
1507.000000	94.705649
1506.000000	94.520499
1505.000000	94.415597
1504.000000	94.362922
1503.000000	94.321367
1502.000000	94.262662
1501.000000	94.173888
1500.000000	94.063607
1499.000000	93.947349
1498.000000	93.816090
1497.000000	93.656605
1496.000000	93.502984
1495.000000	93.399466
1494.000000	93.335788
1493.000000	93.275151
1492.000000	93.192774
1491.000000	93.076395
1490.000000	92.927187
1489.000000	92.777625
1488.000000	92.661794
1487.000000	92.575045
1486.000000	92.497950
1485.000000	92.421720
1484.000000	92.345435
1483.000000	92.263361
1482.000000	92.162420
1481.000000	92.046734
1480.000000	91.943234
1479.000000	91.863436
1478.000000	91.784994
1477.000000	91.682105
1476.000000	91.560240
1475.000000	91.437235
1474.000000	91.297576
1473.000000	91.115314
1472.000000	90.934899
1471.000000	90.822023
1470.000000	90.763146
1469.000000	90.716236
1468.000000	90.663351
1467.000000	90.597354
1466.000000	90.500587
1465.000000	90.363755
1464.000000	90.228122
1463.000000	90.144221
1462.000000	90.106134
1461.000000	90.079210
1460.000000	90.037495
1459.000000	89.955774
1458.000000	89.788453
1457.000000	89.543006
1456.000000	89.360865
1455.000000	89.300861
1454.000000	89.284463
1453.000000	89.249485
1452.000000	89.190403
1451.000000	89.126791
1450.000000	89.060016
1449.000000	88.970885
1448.000000	88.858383
1447.000000	88.753284
1446.000000	88.675052
1445.000000	88.610891
1444.000000	88.545694
1443.000000	88.477732
1442.000000	88.410276
1441.000000	88.346689
1440.000000	88.291457
1439.000000	88.238806
1438.000000	88.157349
1437.000000	88.017279
1436.000000	87.864322
1435.000000	87.778667
1434.000000	87.748683
1433.000000	87.715333
1432.000000	87.646915
1431.000000	87.545435
1430.000000	87.424242
1429.000000	87.299445
1428.000000	87.195459
1427.000000	87.123192
1426.000000	87.056529
1425.000000	86.954390
1424.000000	86.818933
1423.000000	86.704099
1422.000000	86.630037
1421.000000	86.548137
1420.000000	86.394894
1419.000000	86.171103
1418.000000	85.963243
1417.000000	85.822771
1416.000000	85.725931
1415.000000	85.640543
1414.000000	85.544765
1413.000000	85.423711
1412.000000	85.280461
1411.000000	85.135438
1410.000000	85.001408
1409.000000	84.875079
1408.000000	84.755444
1407.000000	84.643382
1406.000000	84.525638
1405.000000	84.390511
1404.000000	84.266833
1403.000000	84.195386
1402.000000	84.161969
1401.000000	84.110565
1400.000000	84.006386
1399.000000	83.876251
1398.000000	83.767717
1397.000000	83.676693
1396.000000	83.565787
1395.000000	83.426020
1394.000000	83.289674
1393.000000	83.190894
1392.000000	83.141716
1391.000000	83.133974
1390.000000	83.141727
1389.000000	83.134828
1388.000000	83.110836
1387.000000	83.108186
1386.000000	83.161858
1385.000000	83.265197
1384.000000	83.400118
1383.000000	83.558988
1382.000000	83.733958
1381.000000	83.918094
1380.000000	84.116552
1379.000000	84.337578
1378.000000	84.574769
1377.000000	84.815414
1376.000000	85.060796
1375.000000	85.320319
1374.000000	85.591949
1373.000000	85.866521
1372.000000	86.144986
1371.000000	86.430375
1370.000000	86.716645
1369.000000	86.998556
1368.000000	87.282376
1367.000000	87.571717
1366.000000	87.855881
1365.000000	88.127062
1364.000000	88.392464
1363.000000	88.660541
1362.000000	88.927535
1361.000000	89.188229
1360.000000	89.446458
1359.000000	89.701453
1358.000000	89.942940
1357.000000	90.167699
1356.000000	90.385415
1355.000000	90.600230
1354.000000	90.803007
1353.000000	90.989965
1352.000000	91.170864
1351.000000	91.350086
1350.000000	91.519721
1349.000000	91.674426
1348.000000	91.820458
1347.000000	91.962179
1346.000000	92.095180
1345.000000	92.219022
1344.000000	92.341888
1343.000000	92.465957
1342.000000	92.582526
1341.000000	92.687079
1340.000000	92.787661
1339.000000	92.891210
1338.000000	92.991806
1337.000000	93.085837
1336.000000	93.181588
1335.000000	93.284004
1334.000000	93.387078
1333.000000	93.485886
1332.000000	93.583665
1331.000000	93.682352
1330.000000	93.777332
1329.000000	93.865965
1328.000000	93.951927
1327.000000	94.036824
1326.000000	94.117061
1325.000000	94.191110
1324.000000	94.263069
1323.000000	94.334470
1322.000000	94.401105
1321.000000	94.461028
1320.000000	94.518315
1319.000000	94.576834
1318.000000	94.637009
1317.000000	94.700521
1316.000000	94.769384
1315.000000	94.839374
1314.000000	94.903245
1313.000000	94.961970
1312.000000	95.023605
1311.000000	95.090178
1310.000000	95.155360
1309.000000	95.215753
1308.000000	95.274760
1307.000000	95.334655
1306.000000	95.394088
1305.000000	95.452680
1304.000000	95.510927
1303.000000	95.564500
1302.000000	95.607962
1301.000000	95.644478
1300.000000	95.683530
1299.000000	95.728775
1298.000000	95.776353
1297.000000	95.824044
1296.000000	95.872525
1295.000000	95.918090
1294.000000	95.954379
1293.000000	95.982063
1292.000000	96.007612
1291.000000	96.032244
1290.000000	96.051120
1289.000000	96.064579
1288.000000	96.080263
1287.000000	96.102182
1286.000000	96.126120
1285.000000	96.148286
1284.000000	96.170516
1283.000000	96.194505
1282.000000	96.218143
1281.000000	96.239596
1280.000000	96.259305
1279.000000	96.277359
1278.000000	96.293996
1277.000000	96.312593
1276.000000	96.336219
1275.000000	96.361931
1274.000000	96.384224
1273.000000	96.402850
1272.000000	96.421145
1271.000000	96.438307
1270.000000	96.450838
1269.000000	96.460480
1268.000000	96.472528
1267.000000	96.486812
1266.000000	96.498131
1265.000000	96.505967
1264.000000	96.515610
1263.000000	96.528774
1262.000000	96.540823
1261.000000	96.549107
1260.000000	96.556869
1259.000000	96.567427
1258.000000	96.580219
1257.000000	96.593963
1256.000000	96.607743
1255.000000	96.618332
1254.000000	96.622152
1253.000000	96.620579
1252.000000	96.618353
1251.000000	96.617177
1250.000000	96.615422
1249.000000	96.612982
1248.000000	96.611189
1247.000000	96.608719
1246.000000	96.603351
1245.000000	96.597601
1244.000000	96.596816
1243.000000	96.601436
1242.000000	96.606717
1241.000000	96.610150
1240.000000	96.613304
1239.000000	96.616466
1238.000000	96.617451
1237.000000	96.616787
1236.000000	96.618754
1235.000000	96.626470
1234.000000	96.640104
1233.000000	96.659401
1232.000000	96.683171
1231.000000	96.706766
1230.000000	96.725959
1229.000000	96.744012
1228.000000	96.768974
1227.000000	96.803599
1226.000000	96.843000
1225.000000	96.882440
1224.000000	96.921835
1223.000000	96.961519
1222.000000	96.999385
1221.000000	97.034050
1220.000000	97.066840
1219.000000	97.099545
1218.000000	97.133075
1217.000000	97.167872
1216.000000	97.202054
1215.000000	97.230393
1214.000000	97.249309
1213.000000	97.262123
1212.000000	97.274849
1211.000000	97.287955
1210.000000	97.297246
1209.000000	97.301558
1208.000000	97.304234
1207.000000	97.307422
1206.000000	97.310152
1205.000000	97.312026
1204.000000	97.313893
1203.000000	97.315123
1202.000000	97.314716
1201.000000	97.315058
1200.000000	97.320240
1199.000000	97.330642
1198.000000	97.342770
1197.000000	97.354268
1196.000000	97.365634
1195.000000	97.377453
1194.000000	97.389841
1193.000000	97.403760
1192.000000	97.419374
1191.000000	97.434102
1190.000000	97.445900
1189.000000	97.456993
1188.000000	97.470213
1187.000000	97.482955
1186.000000	97.489088
1185.000000	97.486467
1184.000000	97.478430
1183.000000	97.469088
1182.000000	97.461130
1181.000000	97.456831
1180.000000	97.456920
1179.000000	97.458787
1178.000000	97.459262
1177.000000	97.458155
1176.000000	97.456168
1175.000000	97.451599
1174.000000	97.442856
1173.000000	97.432176
1172.000000	97.423172
1171.000000	97.416310
1170.000000	97.410046
1169.000000	97.404081
1168.000000	97.397960
1167.000000	97.389230
1166.000000	97.377360
1165.000000	97.367062
1164.000000	97.363076
1163.000000	97.363708
1162.000000	97.363939
1161.000000	97.362848
1160.000000	97.363247
1159.000000	97.366500
1158.000000	97.373007
1157.000000	97.385281
1156.000000	97.405098
1155.000000	97.428743
1154.000000	97.450332
1153.000000	97.468625
1152.000000	97.485790
1151.000000	97.501870
1150.000000	97.516069
1149.000000	97.531399
1148.000000	97.551725
1147.000000	97.575453
1146.000000	97.597779
1145.000000	97.617636
1144.000000	97.636594
1143.000000	97.652969
1142.000000	97.663898
1141.000000	97.672343
1140.000000	97.685216
1139.000000	97.704427
1138.000000	97.725226
1137.000000	97.743241
1136.000000	97.757971
1135.000000	97.770138
1134.000000	97.781075
1133.000000	97.793922
1132.000000	97.809854
1131.000000	97.823455
1130.000000	97.827383
1129.000000	97.821718
1128.000000	97.813711
1127.000000	97.809103
1126.000000	97.808679
1125.000000	97.812176
1124.000000	97.819351
1123.000000	97.826828
1122.000000	97.829787
1121.000000	97.828100
1120.000000	97.826251
1119.000000	97.826380
1118.000000	97.825045
1117.000000	97.817480
1116.000000	97.802112
1115.000000	97.781382
1114.000000	97.761159
1113.000000	97.747711
1112.000000	97.741779
1111.000000	97.737285
1110.000000	97.729540
1109.000000	97.722100
1108.000000	97.721321
1107.000000	97.726235
1106.000000	97.729958
1105.000000	97.729277
1104.000000	97.726394
1103.000000	97.722371
1102.000000	97.715801
1101.000000	97.707829
1100.000000	97.703115
1099.000000	97.702797
1098.000000	97.703874
1097.000000	97.704009
1096.000000	97.702990
1095.000000	97.699622
1094.000000	97.692374
1093.000000	97.682906
1092.000000	97.673382
1091.000000	97.660645
1090.000000	97.638475
1089.000000	97.606439
1088.000000	97.570987
1087.000000	97.537351
1086.000000	97.505975
1085.000000	97.477819
1084.000000	97.457463
1083.000000	97.447733
1082.000000	97.445035
1081.000000	97.442790
1080.000000	97.437922
1079.000000	97.432659
1078.000000	97.432064
1077.000000	97.440428
1076.000000	97.457354
1075.000000	97.477317
1074.000000	97.495230
1073.000000	97.511687
1072.000000	97.529799
1071.000000	97.548234
1070.000000	97.561589
1069.000000	97.567212
1068.000000	97.567667
1067.000000	97.567100
1066.000000	97.569032
1065.000000	97.576749
1064.000000	97.590974
1063.000000	97.606890
1062.000000	97.617528
1061.000000	97.621105
1060.000000	97.622188
1059.000000	97.626048
1058.000000	97.635084
1057.000000	97.649700
1056.000000	97.668370
1055.000000	97.686780
1054.000000	97.700837
1053.000000	97.710801
1052.000000	97.719621
1051.000000	97.727959
1050.000000	97.734615
1049.000000	97.740729
1048.000000	97.749004
1047.000000	97.759278
1046.000000	97.769129
1045.000000	97.778146
1044.000000	97.787149
1043.000000	97.794131
1042.000000	97.795387
1041.000000	97.791084
1040.000000	97.785806
1039.000000	97.783276
1038.000000	97.783691
1037.000000	97.785998
1036.000000	97.789398
1035.000000	97.792231
1034.000000	97.792594
1033.000000	97.790688
1032.000000	97.788685
1031.000000	97.788689
1030.000000	97.792594
1029.000000	97.802384
1028.000000	97.817615
1027.000000	97.833928
1026.000000	97.847363
1025.000000	97.859142
1024.000000	97.873643
1023.000000	97.892697
1022.000000	97.914726
1021.000000	97.937830
1020.000000	97.960367
1019.000000	97.980101
1018.000000	97.996206
1017.000000	98.010876
1016.000000	98.026184
1015.000000	98.041647
1014.000000	98.058023
1013.000000	98.080246
1012.000000	98.111623
1011.000000	98.147566
1010.000000	98.180297
1009.000000	98.208417
1008.000000	98.236363
1007.000000	98.265262
1006.000000	98.290293
1005.000000	98.307511
1004.000000	98.318682
1003.000000	98.328522
1002.000000	98.340802
1001.000000	98.357703
1000.000000	98.379660
999.000000	98.405082
998.000000	98.432284
997.000000	98.461386
996.000000	98.492481
995.000000	98.523112
994.000000	98.550443
993.000000	98.575104
992.000000	98.600204
991.000000	98.627487
990.000000	98.656399
989.000000	98.685304
988.000000	98.711541
987.000000	98.732620
986.000000	98.750005
985.000000	98.769269
984.000000	98.793197
983.000000	98.817183
982.000000	98.834839
981.000000	98.845329
980.000000	98.851723
979.000000	98.854674
978.000000	98.852406
977.000000	98.845190
976.000000	98.835752
975.000000	98.826831
974.000000	98.821411
973.000000	98.822484
972.000000	98.828442
971.000000	98.831277
970.000000	98.825008
969.000000	98.814664
968.000000	98.812114
967.000000	98.823702
966.000000	98.845911
965.000000	98.872009
964.000000	98.898049
963.000000	98.922610
962.000000	98.945418
961.000000	98.967403
960.000000	98.989321
959.000000	99.010499
958.000000	99.030965
957.000000	99.053074
956.000000	99.078118
955.000000	99.103148
954.000000	99.124506
953.000000	99.142343
952.000000	99.158392
951.000000	99.171530
950.000000	99.179758
949.000000	99.184624
948.000000	99.189729
947.000000	99.196543
946.000000	99.205104
945.000000	99.216123
944.000000	99.228281
943.000000	99.236274
942.000000	99.236792
941.000000	99.234399
940.000000	99.236221
939.000000	99.243078
938.000000	99.251145
937.000000	99.260583
936.000000	99.275994
935.000000	99.298537
934.000000	99.323157
933.000000	99.343760
932.000000	99.356842
931.000000	99.360832
930.000000	99.357625
929.000000	99.354805
928.000000	99.361216
927.000000	99.378636
926.000000	99.401005
925.000000	99.421432
924.000000	99.436822
923.000000	99.446634
922.000000	99.451652
921.000000	99.454356
920.000000	99.457571
919.000000	99.462879
918.000000	99.472092
917.000000	99.487665
916.000000	99.508172
915.000000	99.526120
914.000000	99.535014
913.000000	99.537127
912.000000	99.539748
911.000000	99.546115
910.000000	99.554663
909.000000	99.564561
908.000000	99.576113
907.000000	99.587266
906.000000	99.595963
905.000000	99.604946
904.000000	99.618556
903.000000	99.635633
902.000000	99.651189
901.000000	99.663735
900.000000	99.675832
899.000000	99.689056
898.000000	99.704591
897.000000	99.725903
896.000000	99.753818
895.000000	99.780470
894.000000	99.796176
893.000000	99.801609
892.000000	99.805626
891.000000	99.812916
890.000000	99.820879
889.000000	99.824579
888.000000	99.812957
887.000000	99.757562
886.000000	99.617528
885.000000	99.357204
884.000000	98.950233
883.000000	98.371759
882.000000	97.596109
881.000000	96.610081
880.000000	95.418762
879.000000	94.041663
878.000000	92.518116
877.000000	90.905951
876.000000	89.260773
875.000000	87.623254
874.000000	86.096488
873.000000	84.964845
872.000000	84.685639
871.000000	85.610562
870.000000	87.637634
869.000000	90.189613
868.000000	92.574943
867.000000	94.387250
866.000000	95.605487
865.000000	96.408666
864.000000	96.966803
863.000000	97.377396
862.000000	97.693719
861.000000	97.946847
860.000000	98.148559
859.000000	98.301840
858.000000	98.418596
857.000000	98.515151
856.000000	98.598941
855.000000	98.671445
854.000000	98.737338
853.000000	98.796981
852.000000	98.830470
851.000000	98.808542
850.000000	98.730607
849.000000	98.644877
848.000000	98.619098
847.000000	98.686088
846.000000	98.818988
845.000000	98.959692
844.000000	99.066609
843.000000	99.135101
842.000000	99.180724
841.000000	99.214925
840.000000	99.240777
839.000000	99.262287
838.000000	99.286356
837.000000	99.315111
836.000000	99.344377
835.000000	99.371801
834.000000	99.400061
833.000000	99.429605
832.000000	99.454624
831.000000	99.471371
830.000000	99.485570
829.000000	99.505269
828.000000	99.528855
827.000000	99.546836
826.000000	99.554514
825.000000	99.556575
824.000000	99.558848
823.000000	99.561208
822.000000	99.560678
821.000000	99.557599
820.000000	99.556464
819.000000	99.562346
818.000000	99.576711
817.000000	99.595189
816.000000	99.610313
815.000000	99.618652
814.000000	99.624785
813.000000	99.635805
812.000000	99.652263
811.000000	99.666704
810.000000	99.671193
809.000000	99.665192
808.000000	99.656638
807.000000	99.655975
806.000000	99.667716
805.000000	99.686305
804.000000	99.701451
803.000000	99.707956
802.000000	99.707721
801.000000	99.702894
800.000000	99.693061
799.000000	99.681504
798.000000	99.677031
797.000000	99.683584
796.000000	99.692801
795.000000	99.693916
794.000000	99.687812
793.000000	99.683772
792.000000	99.684806
791.000000	99.684626
790.000000	99.679249
789.000000	99.673619
788.000000	99.673840
787.000000	99.678466
786.000000	99.680949
785.000000	99.677646
784.000000	99.670593
783.000000	99.664036
782.000000	99.660441
781.000000	99.659812
780.000000	99.661896
779.000000	99.667267
778.000000	99.673735
777.000000	99.673252
776.000000	99.658626
775.000000	99.635524
774.000000	99.621324
773.000000	99.626848
772.000000	99.643985
771.000000	99.656925
770.000000	99.660501
769.000000	99.660026
768.000000	99.657573
767.000000	99.649429
766.000000	99.637040
765.000000	99.630156
764.000000	99.635939
763.000000	99.651528
762.000000	99.669683
761.000000	99.686137
760.000000	99.699558
759.000000	99.709687
758.000000	99.718362
757.000000	99.728232
756.000000	99.738750
755.000000	99.747073
754.000000	99.753303
753.000000	99.760301
752.000000	99.768058
751.000000	99.773190
750.000000	99.774539
749.000000	99.774447
748.000000	99.773663
747.000000	99.769975
746.000000	99.763552
745.000000	99.759248
744.000000	99.761297
743.000000	99.768829
742.000000	99.777547
741.000000	99.782958
740.000000	99.782500
739.000000	99.777783
738.000000	99.772910
737.000000	99.766462
736.000000	99.748183
735.000000	99.710412
734.000000	99.661430
733.000000	99.619293
732.000000	99.592734
731.000000	99.575143
730.000000	99.557123
729.000000	99.535535
728.000000	99.512514
727.000000	99.492134
726.000000	99.474763
725.000000	99.452926
724.000000	99.415324
723.000000	99.357988
722.000000	99.286215
721.000000	99.200607
720.000000	99.084747
719.000000	98.910324
718.000000	98.647737
717.000000	98.267672
716.000000	97.754539
715.000000	97.152183
714.000000	96.597849
713.000000	96.273563
712.000000	96.289887
711.000000	96.607491
710.000000	97.074268
709.000000	97.531848
708.000000	97.893190
707.000000	98.150322
706.000000	98.331346
705.000000	98.460662
704.000000	98.550830
703.000000	98.612929
702.000000	98.664622
701.000000	98.722445
700.000000	98.786155
699.000000	98.843669
698.000000	98.887624
697.000000	98.922266
696.000000	98.955935
695.000000	98.989822
694.000000	99.022553
693.000000	99.055442
692.000000	99.086785
691.000000	99.114342
690.000000	99.138978
689.000000	99.161365
688.000000	99.176803
687.000000	99.180386
686.000000	99.182078
685.000000	99.196877
684.000000	99.217181
683.000000	99.218755
682.000000	99.195659
681.000000	99.167888
680.000000	99.150532
679.000000	99.140435
678.000000	99.138155
677.000000	99.147647
676.000000	99.162659
675.000000	99.167036
674.000000	99.158908
673.000000	99.157545
672.000000	99.182531
671.000000	99.242010
670.000000	99.341912
669.000000	99.473470
668.000000	99.538082
667.000000	99.447906
666.000000	99.329082
665.000000	99.230490
664.000000	99.147465
663.000000	99.092666
662.000000	99.073310
661.000000	99.078233
660.000000	99.087827
659.000000	99.090555
658.000000	99.084911
657.000000	99.068556
656.000000	99.050817
655.000000	99.050085
654.000000	99.067230
653.000000	99.081725
652.000000	99.085205
651.000000	99.091579
650.000000	99.110874
649.000000	99.130972
648.000000	99.137036
647.000000	99.127710
646.000000	99.103990
645.000000	99.068631
644.000000	99.035560
643.000000	99.019054
642.000000	99.015896
641.000000	99.009397
640.000000	98.995455
639.000000	98.989092
638.000000	98.998048
637.000000	99.009913
636.000000	99.013599
635.000000	99.011648
634.000000	99.007390
633.000000	98.997192
632.000000	98.980732
631.000000	98.967029
630.000000	98.963662
629.000000	98.969009
628.000000	98.980994
627.000000	99.001710
626.000000	99.024862
625.000000	99.036477
624.000000	99.029192
623.000000	99.007179
622.000000	98.978521
621.000000	98.951366
620.000000	98.935843
619.000000	98.937114
618.000000	98.945876
617.000000	98.945986
616.000000	98.932485
615.000000	98.913636
614.000000	98.897786
613.000000	98.889322
612.000000	98.894378
611.000000	98.914931
610.000000	98.938791
609.000000	98.950030
608.000000	98.949769
607.000000	98.952874
606.000000	98.959938
605.000000	98.956009
604.000000	98.936847
603.000000	98.918716
602.000000	98.917641
601.000000	98.931727
600.000000	98.949132
599.000000	98.962319
598.000000	98.967154
597.000000	98.959462
596.000000	98.942032
595.000000	98.927392
594.000000	98.925259
593.000000	98.930897
592.000000	98.933223
591.000000	98.930515
590.000000	98.931477
589.000000	98.943175
588.000000	98.963106
587.000000	98.978989
586.000000	98.974136
585.000000	98.942408
584.000000	98.900386
583.000000	98.877167
582.000000	98.887461
581.000000	98.920482
580.000000	98.955495
579.000000	98.980812
578.000000	98.992651
577.000000	98.987656
576.000000	98.966904
575.000000	98.939922
574.000000	98.916913
573.000000	98.901500
572.000000	98.896308
571.000000	98.904456
570.000000	98.919751
569.000000	98.923613
568.000000	98.902968
567.000000	98.865007
566.000000	98.828043
565.000000	98.804923
564.000000	98.798725
563.000000	98.805673
562.000000	98.814459
561.000000	98.812749
560.000000	98.801278
559.000000	98.793520
558.000000	98.796497
557.000000	98.802708
556.000000	98.805953
555.000000	98.814589
554.000000	98.839227
553.000000	98.873616
552.000000	98.897477
551.000000	98.893998
550.000000	98.863113
549.000000	98.822974
548.000000	98.800102
547.000000	98.810771
546.000000	98.844412
545.000000	98.870631
544.000000	98.868963
543.000000	98.844542
542.000000	98.815642
541.000000	98.797712
540.000000	98.799076
539.000000	98.818210
538.000000	98.838126
537.000000	98.836870
536.000000	98.811733
535.000000	98.785095
534.000000	98.777199
533.000000	98.783530
532.000000	98.784580
531.000000	98.771128
530.000000	98.751747
529.000000	98.739833
528.000000	98.739249
527.000000	98.743345
526.000000	98.744179
525.000000	98.743222
524.000000	98.750663
523.000000	98.767372
522.000000	98.778148
521.000000	98.772898
520.000000	98.766739
519.000000	98.785280
518.000000	98.830354
517.000000	98.879136
516.000000	98.920144
515.000000	98.959949
514.000000	98.995754
513.000000	99.013109
512.000000	99.015061
511.000000	99.028595
510.000000	99.068831
509.000000	99.117537
508.000000	99.145543
507.000000	99.143907
506.000000	99.119462
505.000000	99.074558
504.000000	99.012792
503.000000	98.956355
502.000000	98.937520
501.000000	98.961573
500.000000	98.998232
499.000000	99.019861
498.000000	99.026752
497.000000	99.039921
496.000000	99.077036
495.000000	99.128458
494.000000	99.158333
493.000000	99.137604
492.000000	99.079475
491.000000	99.032868
490.000000	99.031751
489.000000	99.068748
488.000000	99.118575
487.000000	99.163952
486.000000	99.192787
485.000000	99.197903
484.000000	99.193866
483.000000	99.208894
482.000000	99.239876
481.000000	99.240731
480.000000	99.179966
479.000000	99.089039
478.000000	99.031827
477.000000	99.039542
476.000000	99.095530
475.000000	99.174081
474.000000	99.257761
473.000000	99.323297
472.000000	99.346505
471.000000	99.334659
470.000000	99.315152
469.000000	99.298873
468.000000	99.282002
467.000000	99.266012
466.000000	99.255892
465.000000	99.249806
464.000000	99.246837
463.000000	99.252390
462.000000	99.265535
461.000000	99.274271
460.000000	99.278525
459.000000	99.294963
458.000000	99.325011
457.000000	99.346576
456.000000	99.363505
455.000000	99.416342
454.000000	99.525019
453.000000	99.657797
452.000000	99.760932
451.000000	99.810864
450.000000	99.811465
