PE IR       SUBTECH     SPECTRUM    ASCII       PEDS        4.00        
   -1
AD10-F004_1.ASC
23/09/08
10:50:01.00
23/09/08
11:14:38.00
uco
Sample 004 By uco Date Friday, September 08 2023
450.000000
#HDR
-1
-1
#GR
cm-1
%T
1.0
0.0
4000.000000
-1.000000
3551
8
99.750267
84.059035
#DATA
4000.000000	99.669799
3999.000000	99.677567
3998.000000	99.683771
3997.000000	99.687164
3996.000000	99.686311
3995.000000	99.681915
3994.000000	99.676257
3993.000000	99.671345
3992.000000	99.667864
3991.000000	99.665673
3990.000000	99.664770
3989.000000	99.665379
3988.000000	99.667326
3987.000000	99.669940
3986.000000	99.672553
3985.000000	99.674741
3984.000000	99.676038
3983.000000	99.675879
3982.000000	99.674308
3981.000000	99.672504
3980.000000	99.672081
3979.000000	99.673507
3978.000000	99.675442
3977.000000	99.675822
3976.000000	99.673735
3975.000000	99.670282
3974.000000	99.667489
3973.000000	99.666450
3972.000000	99.666341
3971.000000	99.665295
3970.000000	99.662236
3969.000000	99.657979
3968.000000	99.654552
3967.000000	99.653394
3966.000000	99.654195
3965.000000	99.655164
3964.000000	99.654373
3963.000000	99.651130
3962.000000	99.646524
3961.000000	99.642786
3960.000000	99.641548
3959.000000	99.642877
3958.000000	99.645551
3957.000000	99.647845
3956.000000	99.648090
3955.000000	99.645092
3954.000000	99.639184
3953.000000	99.632599
3952.000000	99.628198
3951.000000	99.627452
3950.000000	99.629299
3949.000000	99.631366
3948.000000	99.632511
3947.000000	99.634030
3946.000000	99.638264
3945.000000	99.645204
3944.000000	99.650967
3943.000000	99.651134
3942.000000	99.645359
3941.000000	99.637551
3940.000000	99.631469
3939.000000	99.627874
3938.000000	99.625485
3937.000000	99.623597
3936.000000	99.622904
3935.000000	99.623720
3934.000000	99.625061
3933.000000	99.625882
3932.000000	99.626398
3931.000000	99.627186
3930.000000	99.627494
3929.000000	99.626536
3928.000000	99.625279
3927.000000	99.624708
3926.000000	99.623474
3925.000000	99.619826
3924.000000	99.615005
3923.000000	99.611492
3922.000000	99.609287
3921.000000	99.606608
3920.000000	99.603671
3919.000000	99.603597
3918.000000	99.608766
3917.000000	99.617458
3916.000000	99.625110
3915.000000	99.628598
3914.000000	99.627371
3913.000000	99.623138
3912.000000	99.618775
3911.000000	99.617265
3910.000000	99.619452
3909.000000	99.623584
3908.000000	99.627052
3907.000000	99.627234
3906.000000	99.620777
3905.000000	99.604692
3904.000000	99.582105
3903.000000	99.563568
3902.000000	99.558397
3901.000000	99.566717
3900.000000	99.581373
3899.000000	99.595101
3898.000000	99.604474
3897.000000	99.608777
3896.000000	99.607939
3895.000000	99.603782
3894.000000	99.599323
3893.000000	99.596176
3892.000000	99.592728
3891.000000	99.588035
3890.000000	99.584169
3889.000000	99.585152
3888.000000	99.592660
3887.000000	99.600665
3886.000000	99.600529
3885.000000	99.593962
3884.000000	99.591195
3883.000000	99.597689
3882.000000	99.608778
3881.000000	99.615267
3880.000000	99.613830
3879.000000	99.608984
3878.000000	99.606422
3877.000000	99.608570
3876.000000	99.611975
3875.000000	99.609066
3874.000000	99.598017
3873.000000	99.587280
3872.000000	99.584575
3871.000000	99.586336
3870.000000	99.585197
3869.000000	99.584030
3868.000000	99.590780
3867.000000	99.605778
3866.000000	99.619223
3865.000000	99.621020
3864.000000	99.611923
3863.000000	99.601758
3862.000000	99.596984
3861.000000	99.597158
3860.000000	99.597702
3859.000000	99.593066
3858.000000	99.581076
3857.000000	99.566772
3856.000000	99.560238
3855.000000	99.563744
3854.000000	99.565073
3853.000000	99.568124
3852.000000	99.584640
3851.000000	99.606345
3850.000000	99.621483
3849.000000	99.627596
3848.000000	99.628692
3847.000000	99.630423
3846.000000	99.634772
3845.000000	99.639085
3844.000000	99.637381
3843.000000	99.625754
3842.000000	99.606679
3841.000000	99.587604
3840.000000	99.574843
3839.000000	99.571260
3838.000000	99.576278
3837.000000	99.585280
3836.000000	99.593377
3835.000000	99.599866
3834.000000	99.606964
3833.000000	99.615312
3832.000000	99.623147
3831.000000	99.628670
3830.000000	99.631789
3829.000000	99.633283
3828.000000	99.631611
3827.000000	99.623287
3826.000000	99.608454
3825.000000	99.594556
3824.000000	99.590814
3823.000000	99.598173
3822.000000	99.603431
3821.000000	99.596980
3820.000000	99.587653
3819.000000	99.585651
3818.000000	99.591296
3817.000000	99.595463
3816.000000	99.592319
3815.000000	99.589236
3814.000000	99.594108
3813.000000	99.603870
3812.000000	99.610921
3811.000000	99.613581
3810.000000	99.617399
3809.000000	99.626245
3808.000000	99.632723
3807.000000	99.626475
3806.000000	99.609934
3805.000000	99.596432
3804.000000	99.595651
3803.000000	99.604336
3802.000000	99.609685
3801.000000	99.609100
3800.000000	99.610631
3799.000000	99.617743
3798.000000	99.625903
3797.000000	99.628066
3796.000000	99.623318
3795.000000	99.617996
3794.000000	99.617215
3793.000000	99.619677
3792.000000	99.621709
3791.000000	99.622125
3790.000000	99.622387
3789.000000	99.623915
3788.000000	99.626630
3787.000000	99.629286
3786.000000	99.630453
3785.000000	99.630004
3784.000000	99.629785
3783.000000	99.631986
3782.000000	99.636076
3781.000000	99.637761
3780.000000	99.632563
3779.000000	99.623185
3778.000000	99.617569
3777.000000	99.619465
3776.000000	99.624910
3775.000000	99.627587
3774.000000	99.625445
3773.000000	99.621672
3772.000000	99.618579
3771.000000	99.613924
3770.000000	99.606580
3769.000000	99.601422
3768.000000	99.603974
3767.000000	99.613640
3766.000000	99.624311
3765.000000	99.630554
3764.000000	99.632464
3763.000000	99.633895
3762.000000	99.636235
3761.000000	99.637044
3760.000000	99.634364
3759.000000	99.629670
3758.000000	99.623799
3757.000000	99.615976
3756.000000	99.607929
3755.000000	99.603205
3754.000000	99.601228
3753.000000	99.595287
3752.000000	99.579267
3751.000000	99.557344
3750.000000	99.539811
3749.000000	99.528617
3748.000000	99.524588
3747.000000	99.534960
3746.000000	99.561185
3745.000000	99.588708
3744.000000	99.606625
3743.000000	99.619241
3742.000000	99.630414
3741.000000	99.637772
3740.000000	99.640320
3739.000000	99.642229
3738.000000	99.646951
3737.000000	99.649787
3736.000000	99.647429
3735.000000	99.648437
3734.000000	99.659072
3733.000000	99.670732
3732.000000	99.672686
3731.000000	99.664671
3730.000000	99.654398
3729.000000	99.648769
3728.000000	99.649043
3727.000000	99.651997
3726.000000	99.654814
3725.000000	99.656234
3724.000000	99.655185
3723.000000	99.652655
3722.000000	99.652089
3721.000000	99.656168
3720.000000	99.662716
3719.000000	99.665092
3718.000000	99.657112
3717.000000	99.639419
3716.000000	99.620834
3715.000000	99.611122
3714.000000	99.611726
3713.000000	99.614128
3712.000000	99.610007
3711.000000	99.604790
3710.000000	99.610149
3709.000000	99.627827
3708.000000	99.649729
3707.000000	99.666586
3706.000000	99.674619
3705.000000	99.676658
3704.000000	99.677757
3703.000000	99.679672
3702.000000	99.680602
3701.000000	99.679279
3700.000000	99.677384
3699.000000	99.677121
3698.000000	99.677739
3697.000000	99.676051
3696.000000	99.670689
3695.000000	99.662974
3694.000000	99.653839
3693.000000	99.644114
3692.000000	99.636094
3691.000000	99.632859
3690.000000	99.633980
3689.000000	99.635713
3688.000000	99.634794
3687.000000	99.632076
3686.000000	99.632276
3685.000000	99.637065
3684.000000	99.643838
3683.000000	99.649935
3682.000000	99.654089
3681.000000	99.652180
3680.000000	99.639431
3679.000000	99.619225
3678.000000	99.602865
3677.000000	99.595944
3676.000000	99.592437
3675.000000	99.591127
3674.000000	99.593505
3673.000000	99.599499
3672.000000	99.607826
3671.000000	99.612595
3670.000000	99.611544
3669.000000	99.613784
3668.000000	99.623879
3667.000000	99.636780
3666.000000	99.646889
3665.000000	99.652098
3664.000000	99.653301
3663.000000	99.652022
3662.000000	99.648472
3661.000000	99.642402
3660.000000	99.635991
3659.000000	99.632457
3658.000000	99.631367
3657.000000	99.626758
3656.000000	99.615282
3655.000000	99.601265
3654.000000	99.591370
3653.000000	99.590087
3652.000000	99.597149
3651.000000	99.606021
3650.000000	99.609907
3649.000000	99.611698
3648.000000	99.615563
3647.000000	99.618200
3646.000000	99.616738
3645.000000	99.613343
3644.000000	99.611272
3643.000000	99.612094
3642.000000	99.615442
3641.000000	99.619405
3640.000000	99.621027
3639.000000	99.617535
3638.000000	99.609835
3637.000000	99.603192
3636.000000	99.601813
3635.000000	99.603265
3634.000000	99.601263
3633.000000	99.594227
3632.000000	99.587382
3631.000000	99.584770
3630.000000	99.580013
3629.000000	99.569132
3628.000000	99.565235
3627.000000	99.574158
3626.000000	99.587247
3625.000000	99.596278
3624.000000	99.600247
3623.000000	99.603997
3622.000000	99.612302
3621.000000	99.623142
3620.000000	99.628116
3619.000000	99.621801
3618.000000	99.607520
3617.000000	99.591820
3616.000000	99.579276
3615.000000	99.570262
3614.000000	99.561643
3613.000000	99.551086
3612.000000	99.540357
3611.000000	99.533524
3610.000000	99.532529
3609.000000	99.536616
3608.000000	99.545043
3607.000000	99.556655
3606.000000	99.567813
3605.000000	99.574189
3604.000000	99.574621
3603.000000	99.570931
3602.000000	99.566133
3601.000000	99.562442
3600.000000	99.560926
3599.000000	99.560815
3598.000000	99.560073
3597.000000	99.557218
3596.000000	99.552689
3595.000000	99.548596
3594.000000	99.547388
3593.000000	99.549664
3592.000000	99.553557
3591.000000	99.557566
3590.000000	99.560384
3589.000000	99.558696
3588.000000	99.549878
3587.000000	99.538436
3586.000000	99.530585
3585.000000	99.526871
3584.000000	99.524852
3583.000000	99.522213
3582.000000	99.517702
3581.000000	99.511199
3580.000000	99.503812
3579.000000	99.497429
3578.000000	99.493450
3577.000000	99.492211
3576.000000	99.492766
3575.000000	99.493686
3574.000000	99.493517
3573.000000	99.491411
3572.000000	99.487584
3571.000000	99.483951
3570.000000	99.483053
3569.000000	99.484859
3568.000000	99.486507
3567.000000	99.486742
3566.000000	99.485807
3565.000000	99.481846
3564.000000	99.474442
3563.000000	99.466440
3562.000000	99.461273
3561.000000	99.460692
3560.000000	99.463993
3559.000000	99.468615
3558.000000	99.471714
3557.000000	99.471647
3556.000000	99.468424
3555.000000	99.462906
3554.000000	99.455744
3553.000000	99.447744
3552.000000	99.440657
3551.000000	99.435692
3550.000000	99.431476
3549.000000	99.424925
3548.000000	99.414383
3547.000000	99.402522
3546.000000	99.395325
3545.000000	99.396655
3544.000000	99.404461
3543.000000	99.413491
3542.000000	99.419576
3541.000000	99.421522
3540.000000	99.420584
3539.000000	99.418599
3538.000000	99.416231
3537.000000	99.412627
3536.000000	99.407336
3535.000000	99.401529
3534.000000	99.397220
3533.000000	99.395495
3532.000000	99.396071
3531.000000	99.397913
3530.000000	99.399656
3529.000000	99.399725
3528.000000	99.397130
3527.000000	99.392416
3526.000000	99.387275
3525.000000	99.383092
3524.000000	99.379893
3523.000000	99.376715
3522.000000	99.372955
3521.000000	99.369398
3520.000000	99.367791
3519.000000	99.368752
3518.000000	99.370602
3517.000000	99.370492
3516.000000	99.366955
3515.000000	99.361067
3514.000000	99.355476
3513.000000	99.352502
3512.000000	99.352942
3511.000000	99.355963
3510.000000	99.359788
3509.000000	99.362515
3508.000000	99.362762
3507.000000	99.359772
3506.000000	99.353231
3505.000000	99.343310
3504.000000	99.331847
3503.000000	99.322474
3502.000000	99.317752
3501.000000	99.316622
3500.000000	99.315898
3499.000000	99.313763
3498.000000	99.311153
3497.000000	99.310440
3496.000000	99.312627
3495.000000	99.315858
3494.000000	99.317022
3493.000000	99.314969
3492.000000	99.311588
3491.000000	99.309521
3490.000000	99.309365
3489.000000	99.309436
3488.000000	99.308006
3487.000000	99.305084
3486.000000	99.301870
3485.000000	99.299111
3484.000000	99.296511
3483.000000	99.293451
3482.000000	99.290037
3481.000000	99.287260
3480.000000	99.286060
3479.000000	99.286330
3478.000000	99.286959
3477.000000	99.286773
3476.000000	99.285297
3475.000000	99.282661
3474.000000	99.279097
3473.000000	99.274998
3472.000000	99.271218
3471.000000	99.268568
3470.000000	99.266751
3469.000000	99.264321
3468.000000	99.260037
3467.000000	99.254366
3466.000000	99.249560
3465.000000	99.248112
3464.000000	99.250939
3463.000000	99.256565
3462.000000	99.261979
3461.000000	99.264498
3460.000000	99.263148
3459.000000	99.258515
3458.000000	99.251832
3457.000000	99.244419
3456.000000	99.237837
3455.000000	99.233483
3454.000000	99.231578
3453.000000	99.230787
3452.000000	99.229427
3451.000000	99.227023
3450.000000	99.224266
3449.000000	99.221807
3448.000000	99.219869
3447.000000	99.218868
3446.000000	99.219045
3445.000000	99.219415
3444.000000	99.218174
3443.000000	99.214535
3442.000000	99.209812
3441.000000	99.206216
3440.000000	99.204753
3439.000000	99.204606
3438.000000	99.204486
3437.000000	99.203918
3436.000000	99.203172
3435.000000	99.202101
3434.000000	99.199531
3433.000000	99.194214
3432.000000	99.186650
3431.000000	99.179620
3430.000000	99.176216
3429.000000	99.177448
3428.000000	99.181962
3427.000000	99.187650
3426.000000	99.192631
3425.000000	99.194829
3424.000000	99.191923
3423.000000	99.182855
3422.000000	99.169490
3421.000000	99.156115
3420.000000	99.146556
3419.000000	99.141570
3418.000000	99.139213
3417.000000	99.137326
3416.000000	99.135145
3415.000000	99.132874
3414.000000	99.130576
3413.000000	99.128024
3412.000000	99.125234
3411.000000	99.122401
3410.000000	99.119418
3409.000000	99.116185
3408.000000	99.113441
3407.000000	99.112445
3406.000000	99.113579
3405.000000	99.115824
3404.000000	99.117913
3403.000000	99.119330
3402.000000	99.120000
3401.000000	99.119711
3400.000000	99.118359
3399.000000	99.116397
3398.000000	99.114555
3397.000000	99.113205
3396.000000	99.112127
3395.000000	99.110723
3394.000000	99.108316
3393.000000	99.104559
3392.000000	99.099811
3391.000000	99.095003
3390.000000	99.091154
3389.000000	99.089030
3388.000000	99.088793
3387.000000	99.089299
3386.000000	99.087900
3385.000000	99.081856
3384.000000	99.070659
3383.000000	99.056963
3382.000000	99.045180
3381.000000	99.039063
3380.000000	99.039788
3379.000000	99.045305
3378.000000	99.051502
3377.000000	99.054955
3376.000000	99.055033
3375.000000	99.053268
3374.000000	99.050897
3373.000000	99.047696
3372.000000	99.043091
3371.000000	99.037442
3370.000000	99.031718
3369.000000	99.026572
3368.000000	99.022396
3367.000000	99.019819
3366.000000	99.019235
3365.000000	99.019738
3364.000000	99.019262
3363.000000	99.016164
3362.000000	99.010572
3361.000000	99.004089
3360.000000	98.998316
3359.000000	98.993653
3358.000000	98.989335
3357.000000	98.984405
3356.000000	98.978580
3355.000000	98.972446
3354.000000	98.967270
3353.000000	98.964851
3352.000000	98.966929
3351.000000	98.973721
3350.000000	98.982656
3349.000000	98.989252
3348.000000	98.990111
3347.000000	98.985346
3346.000000	98.978070
3345.000000	98.971648
3344.000000	98.967458
3343.000000	98.964778
3342.000000	98.962051
3341.000000	98.958020
3340.000000	98.952329
3339.000000	98.945912
3338.000000	98.940986
3337.000000	98.939880
3336.000000	98.942861
3335.000000	98.946925
3334.000000	98.947565
3333.000000	98.942626
3332.000000	98.934469
3331.000000	98.927921
3330.000000	98.925902
3329.000000	98.927076
3328.000000	98.927660
3327.000000	98.925100
3326.000000	98.919964
3325.000000	98.914752
3324.000000	98.911392
3323.000000	98.909926
3322.000000	98.909195
3321.000000	98.908397
3320.000000	98.907779
3319.000000	98.907778
3318.000000	98.907775
3317.000000	98.906184
3316.000000	98.902208
3315.000000	98.897403
3314.000000	98.894797
3313.000000	98.895803
3312.000000	98.898105
3311.000000	98.897360
3310.000000	98.891489
3309.000000	98.882982
3308.000000	98.876397
3307.000000	98.873824
3306.000000	98.873401
3305.000000	98.871855
3304.000000	98.867469
3303.000000	98.860718
3302.000000	98.853360
3301.000000	98.847518
3300.000000	98.844775
3299.000000	98.845130
3298.000000	98.847150
3297.000000	98.849585
3296.000000	98.852356
3295.000000	98.855518
3294.000000	98.858059
3293.000000	98.858875
3292.000000	98.858465
3291.000000	98.858437
3290.000000	98.859321
3289.000000	98.859846
3288.000000	98.858691
3287.000000	98.856164
3286.000000	98.853774
3285.000000	98.852680
3284.000000	98.852762
3283.000000	98.852888
3282.000000	98.852029
3281.000000	98.850393
3280.000000	98.849262
3279.000000	98.849383
3278.000000	98.849918
3277.000000	98.849514
3276.000000	98.848093
3275.000000	98.846710
3274.000000	98.845800
3273.000000	98.844764
3272.000000	98.843444
3271.000000	98.842907
3270.000000	98.844033
3269.000000	98.845960
3268.000000	98.846613
3267.000000	98.844640
3266.000000	98.840729
3265.000000	98.837459
3264.000000	98.837755
3263.000000	98.842639
3262.000000	98.849966
3261.000000	98.855802
3260.000000	98.857679
3259.000000	98.856458
3258.000000	98.854893
3257.000000	98.854683
3256.000000	98.855309
3255.000000	98.855463
3254.000000	98.855031
3253.000000	98.855334
3252.000000	98.857734
3251.000000	98.862410
3250.000000	98.868494
3249.000000	98.874937
3248.000000	98.880770
3247.000000	98.884806
3246.000000	98.885994
3245.000000	98.884418
3244.000000	98.881315
3243.000000	98.877752
3242.000000	98.874023
3241.000000	98.870840
3240.000000	98.870207
3239.000000	98.873936
3238.000000	98.881482
3237.000000	98.890016
3236.000000	98.896632
3235.000000	98.899960
3234.000000	98.900018
3233.000000	98.897641
3232.000000	98.894295
3231.000000	98.891580
3230.000000	98.890397
3229.000000	98.890803
3228.000000	98.892513
3227.000000	98.894891
3226.000000	98.896611
3225.000000	98.896424
3224.000000	98.894801
3223.000000	98.894137
3222.000000	98.896545
3221.000000	98.901632
3220.000000	98.906515
3219.000000	98.907821
3218.000000	98.903887
3217.000000	98.895969
3216.000000	98.888198
3215.000000	98.885776
3214.000000	98.891413
3213.000000	98.902593
3212.000000	98.912729
3211.000000	98.915996
3210.000000	98.911640
3209.000000	98.903872
3208.000000	98.898048
3207.000000	98.897002
3206.000000	98.900455
3205.000000	98.906616
3204.000000	98.913380
3203.000000	98.918698
3202.000000	98.921191
3201.000000	98.921139
3200.000000	98.920460
3199.000000	98.921142
3198.000000	98.923610
3197.000000	98.926641
3196.000000	98.928564
3195.000000	98.928480
3194.000000	98.926659
3193.000000	98.924221
3192.000000	98.922438
3191.000000	98.922074
3190.000000	98.923212
3189.000000	98.925463
3188.000000	98.928105
3187.000000	98.930344
3186.000000	98.931889
3185.000000	98.933139
3184.000000	98.934261
3183.000000	98.934430
3182.000000	98.932844
3181.000000	98.930491
3180.000000	98.929878
3179.000000	98.932712
3178.000000	98.938414
3177.000000	98.945144
3176.000000	98.951406
3175.000000	98.956242
3174.000000	98.959019
3173.000000	98.959882
3172.000000	98.959750
3171.000000	98.959062
3170.000000	98.957345
3169.000000	98.954990
3168.000000	98.954504
3167.000000	98.958420
3166.000000	98.966009
3165.000000	98.973298
3164.000000	98.976728
3163.000000	98.976232
3162.000000	98.974858
3161.000000	98.975918
3160.000000	98.980383
3159.000000	98.986177
3158.000000	98.989975
3157.000000	98.990360
3156.000000	98.989269
3155.000000	98.989788
3154.000000	98.992733
3153.000000	98.996172
3152.000000	98.998197
3151.000000	98.999172
3150.000000	99.000927
3149.000000	99.004379
3148.000000	99.008183
3147.000000	99.009392
3146.000000	99.005787
3145.000000	98.998443
3144.000000	98.991983
3143.000000	98.990963
3142.000000	98.995560
3141.000000	99.001618
3140.000000	99.005371
3139.000000	99.007120
3138.000000	99.009742
3137.000000	99.014469
3136.000000	99.019271
3135.000000	99.021155
3134.000000	99.019283
3133.000000	99.015736
3132.000000	99.013770
3131.000000	99.015657
3130.000000	99.021809
3129.000000	99.031076
3128.000000	99.041239
3127.000000	99.049600
3126.000000	99.054205
3125.000000	99.055220
3124.000000	99.054855
3123.000000	99.055204
3122.000000	99.056177
3121.000000	99.055923
3120.000000	99.053154
3119.000000	99.048365
3118.000000	99.043007
3117.000000	99.038453
3116.000000	99.035898
3115.000000	99.036196
3114.000000	99.039070
3113.000000	99.042847
3112.000000	99.045602
3111.000000	99.046528
3110.000000	99.046191
3109.000000	99.045846
3108.000000	99.046663
3107.000000	99.048939
3106.000000	99.051366
3105.000000	99.051614
3104.000000	99.048473
3103.000000	99.043368
3102.000000	99.039108
3101.000000	99.037302
3100.000000	99.037427
3099.000000	99.038071
3098.000000	99.038155
3097.000000	99.037004
3096.000000	99.034401
3095.000000	99.031376
3094.000000	99.030367
3093.000000	99.033559
3092.000000	99.040620
3091.000000	99.048298
3090.000000	99.052655
3089.000000	99.051963
3088.000000	99.047699
3087.000000	99.043002
3086.000000	99.040398
3085.000000	99.040684
3084.000000	99.043205
3083.000000	99.046511
3082.000000	99.048944
3081.000000	99.049289
3080.000000	99.047287
3079.000000	99.043590
3078.000000	99.039372
3077.000000	99.035970
3076.000000	99.034437
3075.000000	99.034936
3074.000000	99.036600
3073.000000	99.038442
3072.000000	99.040467
3071.000000	99.043548
3070.000000	99.048076
3069.000000	99.052921
3068.000000	99.055789
3067.000000	99.054649
3066.000000	99.049313
3065.000000	99.042206
3064.000000	99.037280
3063.000000	99.037396
3062.000000	99.042285
3061.000000	99.049038
3060.000000	99.054382
3059.000000	99.056539
3058.000000	99.055882
3057.000000	99.054673
3056.000000	99.055705
3055.000000	99.060050
3054.000000	99.065882
3053.000000	99.070186
3052.000000	99.071583
3051.000000	99.071074
3050.000000	99.070468
3049.000000	99.070964
3048.000000	99.072953
3047.000000	99.075828
3046.000000	99.077780
3045.000000	99.076938
3044.000000	99.073351
3043.000000	99.069301
3042.000000	99.067374
3041.000000	99.068676
3040.000000	99.072881
3039.000000	99.078790
3038.000000	99.084357
3037.000000	99.087105
3036.000000	99.085534
3035.000000	99.080126
3034.000000	99.072799
3033.000000	99.065802
3032.000000	99.061125
3031.000000	99.059971
3030.000000	99.062090
3029.000000	99.066109
3028.000000	99.070820
3027.000000	99.075681
3026.000000	99.079882
3025.000000	99.081925
3024.000000	99.080987
3023.000000	99.078329
3022.000000	99.076580
3021.000000	99.077744
3020.000000	99.082155
3019.000000	99.088708
3018.000000	99.095245
3017.000000	99.098992
3016.000000	99.097836
3015.000000	99.091875
3014.000000	99.083640
3013.000000	99.076460
3012.000000	99.072231
3011.000000	99.070222
3010.000000	99.067897
3009.000000	99.063234
3008.000000	99.056561
3007.000000	99.050147
3006.000000	99.046058
3005.000000	99.044500
3004.000000	99.044029
3003.000000	99.042863
3002.000000	99.040147
3001.000000	99.036703
3000.000000	99.034680
2999.000000	99.035729
2998.000000	99.038991
2997.000000	99.041423
2996.000000	99.040597
2995.000000	99.036746
2994.000000	99.031538
2993.000000	99.025318
2992.000000	99.016504
2991.000000	99.003881
2990.000000	98.988912
2989.000000	98.975301
2988.000000	98.966187
2987.000000	98.961634
2986.000000	98.958645
2985.000000	98.953426
2984.000000	98.943673
2983.000000	98.929338
2982.000000	98.912052
2981.000000	98.894048
2980.000000	98.876905
2979.000000	98.860693
2978.000000	98.844566
2977.000000	98.828440
2976.000000	98.813378
2975.000000	98.799618
2974.000000	98.784895
2973.000000	98.766097
2972.000000	98.742553
2971.000000	98.716445
2970.000000	98.689853
2969.000000	98.662746
2968.000000	98.634515
2967.000000	98.606135
2966.000000	98.579344
2965.000000	98.554100
2964.000000	98.528128
2963.000000	98.499476
2962.000000	98.468889
2961.000000	98.439232
2960.000000	98.412752
2959.000000	98.389280
2958.000000	98.367343
2957.000000	98.346631
2956.000000	98.328804
2955.000000	98.315696
2954.000000	98.307430
2953.000000	98.302911
2952.000000	98.301450
2951.000000	98.302966
2950.000000	98.306570
2949.000000	98.309945
2948.000000	98.310342
2947.000000	98.305650
2946.000000	98.294515
2945.000000	98.276095
2944.000000	98.250251
2943.000000	98.217508
2942.000000	98.178773
2941.000000	98.135286
2940.000000	98.088595
2939.000000	98.039714
2938.000000	97.988059
2937.000000	97.931966
2936.000000	97.870373
2935.000000	97.803618
2934.000000	97.732792
2933.000000	97.659312
2932.000000	97.585143
2931.000000	97.512011
2930.000000	97.439556
2929.000000	97.365222
2928.000000	97.287143
2927.000000	97.207116
2926.000000	97.130054
2925.000000	97.060960
2924.000000	97.002595
2923.000000	96.955340
2922.000000	96.918406
2921.000000	96.891782
2920.000000	96.878617
2919.000000	96.885392
2918.000000	96.918557
2917.000000	96.980026
2916.000000	97.066048
2915.000000	97.170273
2914.000000	97.286593
2913.000000	97.408806
2912.000000	97.528886
2911.000000	97.638097
2910.000000	97.730640
2909.000000	97.806176
2908.000000	97.868831
2907.000000	97.923834
2906.000000	97.974840
2905.000000	98.022948
2904.000000	98.067311
2903.000000	98.106478
2902.000000	98.140334
2901.000000	98.170444
2900.000000	98.198900
2899.000000	98.226610
2898.000000	98.252982
2897.000000	98.277594
2896.000000	98.301293
2895.000000	98.325213
2894.000000	98.349138
2893.000000	98.371657
2892.000000	98.391927
2891.000000	98.410710
2890.000000	98.429505
2889.000000	98.448964
2888.000000	98.468185
2887.000000	98.485295
2886.000000	98.498816
2885.000000	98.508804
2884.000000	98.516666
2883.000000	98.523613
2882.000000	98.529416
2881.000000	98.532960
2880.000000	98.533736
2879.000000	98.532188
2878.000000	98.528695
2877.000000	98.522988
2876.000000	98.514790
2875.000000	98.504529
2874.000000	98.493159
2873.000000	98.481618
2872.000000	98.470812
2871.000000	98.461787
2870.000000	98.455296
2869.000000	98.450821
2868.000000	98.446134
2867.000000	98.438179
2866.000000	98.424865
2865.000000	98.406188
2864.000000	98.383220
2863.000000	98.355987
2862.000000	98.322763
2861.000000	98.281655
2860.000000	98.232037
2859.000000	98.173737
2858.000000	98.105955
2857.000000	98.028783
2856.000000	97.945896
2855.000000	97.864159
2854.000000	97.790297
2853.000000	97.728916
2852.000000	97.684651
2851.000000	97.665187
2850.000000	97.679846
2849.000000	97.733920
2848.000000	97.823678
2847.000000	97.936950
2846.000000	98.059112
2845.000000	98.179435
2844.000000	98.292419
2843.000000	98.394775
2842.000000	98.483070
2841.000000	98.555160
2840.000000	98.612963
2839.000000	98.661425
2838.000000	98.704429
2837.000000	98.742722
2836.000000	98.775714
2835.000000	98.803667
2834.000000	98.827468
2833.000000	98.847661
2832.000000	98.864879
2831.000000	98.880352
2830.000000	98.894867
2829.000000	98.907937
2828.000000	98.918940
2827.000000	98.928460
2826.000000	98.937310
2825.000000	98.944749
2824.000000	98.949288
2823.000000	98.951502
2822.000000	98.954710
2821.000000	98.962011
2820.000000	98.973182
2819.000000	98.985154
2818.000000	98.995119
2817.000000	99.002442
2816.000000	99.007750
2815.000000	99.011240
2814.000000	99.012706
2813.000000	99.012912
2812.000000	99.013865
2811.000000	99.017185
2810.000000	99.022503
2809.000000	99.027868
2808.000000	99.031573
2807.000000	99.033317
2806.000000	99.034031
2805.000000	99.035107
2804.000000	99.037527
2803.000000	99.041017
2802.000000	99.044190
2801.000000	99.046182
2800.000000	99.048002
2799.000000	99.051382
2798.000000	99.056304
2797.000000	99.060711
2796.000000	99.062975
2795.000000	99.063638
2794.000000	99.064186
2793.000000	99.065183
2792.000000	99.066504
2791.000000	99.068543
2790.000000	99.071944
2789.000000	99.076342
2788.000000	99.080533
2787.000000	99.083936
2786.000000	99.087006
2785.000000	99.089929
2784.000000	99.091735
2783.000000	99.091288
2782.000000	99.088811
2781.000000	99.086013
2780.000000	99.084777
2779.000000	99.085940
2778.000000	99.089111
2777.000000	99.093251
2776.000000	99.097286
2775.000000	99.100416
2774.000000	99.102221
2773.000000	99.102724
2772.000000	99.102421
2771.000000	99.102130
2770.000000	99.102728
2769.000000	99.104795
2768.000000	99.108193
2767.000000	99.111876
2766.000000	99.114548
2765.000000	99.115968
2764.000000	99.117444
2763.000000	99.120563
2762.000000	99.125283
2761.000000	99.129615
2760.000000	99.131447
2759.000000	99.130639
2758.000000	99.129197
2757.000000	99.129216
2756.000000	99.130596
2755.000000	99.131111
2754.000000	99.129160
2753.000000	99.126237
2752.000000	99.125791
2751.000000	99.129294
2750.000000	99.134284
2749.000000	99.136900
2748.000000	99.135688
2747.000000	99.132201
2746.000000	99.128589
2745.000000	99.125824
2744.000000	99.123975
2743.000000	99.122855
2742.000000	99.122142
2741.000000	99.121737
2740.000000	99.122146
2739.000000	99.123734
2738.000000	99.125718
2737.000000	99.127006
2736.000000	99.128101
2735.000000	99.130802
2734.000000	99.135476
2733.000000	99.139859
2732.000000	99.141571
2731.000000	99.140888
2730.000000	99.139912
2729.000000	99.139652
2728.000000	99.139274
2727.000000	99.138097
2726.000000	99.136937
2725.000000	99.137036
2724.000000	99.138622
2723.000000	99.141247
2722.000000	99.144978
2721.000000	99.150290
2720.000000	99.156699
2719.000000	99.162254
2718.000000	99.164977
2717.000000	99.164662
2716.000000	99.162766
2715.000000	99.160607
2714.000000	99.158363
2713.000000	99.156110
2712.000000	99.154943
2711.000000	99.156017
2710.000000	99.158774
2709.000000	99.161239
2708.000000	99.162395
2707.000000	99.163418
2706.000000	99.165913
2705.000000	99.169377
2704.000000	99.171245
2703.000000	99.169643
2702.000000	99.165820
2701.000000	99.163544
2700.000000	99.165760
2699.000000	99.171608
2698.000000	99.176800
2697.000000	99.177203
2696.000000	99.172263
2695.000000	99.165155
2694.000000	99.159988
2693.000000	99.159004
2692.000000	99.161717
2691.000000	99.165761
2690.000000	99.168470
2689.000000	99.168394
2688.000000	99.165955
2687.000000	99.162851
2686.000000	99.160846
2685.000000	99.160945
2684.000000	99.163134
2683.000000	99.166433
2682.000000	99.169376
2681.000000	99.170879
2680.000000	99.170688
2679.000000	99.169065
2678.000000	99.166640
2677.000000	99.164807
2676.000000	99.165299
2675.000000	99.168418
2674.000000	99.172188
2673.000000	99.174402
2672.000000	99.175318
2671.000000	99.177164
2670.000000	99.180847
2669.000000	99.184262
2668.000000	99.184378
2667.000000	99.180379
2666.000000	99.174291
2665.000000	99.168966
2664.000000	99.165723
2663.000000	99.163664
2662.000000	99.161119
2661.000000	99.157771
2660.000000	99.155073
2659.000000	99.154336
2658.000000	99.155141
2657.000000	99.156441
2656.000000	99.158550
2655.000000	99.162514
2654.000000	99.167604
2653.000000	99.171165
2652.000000	99.171561
2651.000000	99.170038
2650.000000	99.169161
2649.000000	99.170578
2648.000000	99.174890
2647.000000	99.181988
2646.000000	99.189993
2645.000000	99.194966
2644.000000	99.193858
2643.000000	99.187975
2642.000000	99.182214
2641.000000	99.180535
2640.000000	99.182939
2639.000000	99.186888
2638.000000	99.190490
2637.000000	99.193516
2636.000000	99.195957
2635.000000	99.196804
2634.000000	99.194981
2633.000000	99.191370
2632.000000	99.189196
2631.000000	99.191661
2630.000000	99.199051
2629.000000	99.208549
2628.000000	99.216986
2627.000000	99.223369
2626.000000	99.228612
2625.000000	99.233396
2624.000000	99.236893
2623.000000	99.237571
2622.000000	99.235019
2621.000000	99.230948
2620.000000	99.228289
2619.000000	99.228946
2618.000000	99.232090
2617.000000	99.234739
2616.000000	99.234341
2615.000000	99.231233
2614.000000	99.228830
2613.000000	99.230984
2612.000000	99.238133
2611.000000	99.245812
2610.000000	99.248013
2609.000000	99.242785
2608.000000	99.233986
2607.000000	99.227014
2606.000000	99.223830
2605.000000	99.223249
2604.000000	99.224703
2603.000000	99.229388
2602.000000	99.237471
2601.000000	99.246046
2600.000000	99.251058
2599.000000	99.250640
2598.000000	99.246271
2597.000000	99.241344
2596.000000	99.238968
2595.000000	99.240568
2594.000000	99.245779
2593.000000	99.253043
2592.000000	99.259813
2591.000000	99.262792
2590.000000	99.259831
2589.000000	99.252639
2588.000000	99.246374
2587.000000	99.244974
2586.000000	99.247601
2585.000000	99.250788
2584.000000	99.253063
2583.000000	99.255755
2582.000000	99.259958
2581.000000	99.264729
2580.000000	99.268005
2579.000000	99.267812
2578.000000	99.263192
2577.000000	99.255868
2576.000000	99.250586
2575.000000	99.251622
2574.000000	99.258763
2573.000000	99.268197
2572.000000	99.276696
2571.000000	99.282912
2570.000000	99.285509
2569.000000	99.283565
2568.000000	99.279663
2567.000000	99.279589
2566.000000	99.287062
2565.000000	99.299937
2564.000000	99.312161
2563.000000	99.318165
2562.000000	99.315489
2561.000000	99.306103
2560.000000	99.296429
2559.000000	99.293410
2558.000000	99.298213
2557.000000	99.304691
2556.000000	99.305701
2555.000000	99.300287
2554.000000	99.293665
2553.000000	99.291181
2552.000000	99.293571
2551.000000	99.297419
2550.000000	99.298787
2549.000000	99.296112
2548.000000	99.290116
2547.000000	99.281741
2546.000000	99.271485
2545.000000	99.261590
2544.000000	99.257182
2543.000000	99.262466
2542.000000	99.275462
2541.000000	99.288321
2540.000000	99.293472
2539.000000	99.288310
2538.000000	99.274501
2537.000000	99.255644
2536.000000	99.236701
2535.000000	99.223168
2534.000000	99.218142
2533.000000	99.220319
2532.000000	99.225631
2531.000000	99.230459
2530.000000	99.232953
2529.000000	99.232479
2528.000000	99.228960
2527.000000	99.222675
2526.000000	99.214387
2525.000000	99.205794
2524.000000	99.199295
2523.000000	99.196317
2522.000000	99.195978
2521.000000	99.196190
2520.000000	99.195568
2519.000000	99.193162
2518.000000	99.187348
2517.000000	99.177319
2516.000000	99.165821
2515.000000	99.158052
2514.000000	99.156764
2513.000000	99.159641
2512.000000	99.161959
2511.000000	99.160580
2510.000000	99.154953
2509.000000	99.146270
2508.000000	99.137260
2507.000000	99.131958
2506.000000	99.133860
2505.000000	99.143311
2504.000000	99.156690
2503.000000	99.168663
2502.000000	99.176270
2501.000000	99.181425
2500.000000	99.188653
2499.000000	99.199586
2498.000000	99.210427
2497.000000	99.215704
2496.000000	99.213771
2495.000000	99.207912
2494.000000	99.203442
2493.000000	99.204896
2492.000000	99.214237
2491.000000	99.229226
2490.000000	99.244255
2489.000000	99.255165
2488.000000	99.262849
2487.000000	99.270049
2486.000000	99.275691
2485.000000	99.275582
2484.000000	99.268964
2483.000000	99.261359
2482.000000	99.259954
2481.000000	99.268172
2480.000000	99.284690
2479.000000	99.305057
2478.000000	99.323258
2477.000000	99.334303
2476.000000	99.337340
2475.000000	99.335466
2474.000000	99.331910
2473.000000	99.327698
2472.000000	99.323343
2471.000000	99.320367
2470.000000	99.319591
2469.000000	99.319313
2468.000000	99.317284
2467.000000	99.314439
2466.000000	99.315241
2465.000000	99.323340
2464.000000	99.336754
2463.000000	99.348287
2462.000000	99.351951
2461.000000	99.348765
2460.000000	99.344615
2459.000000	99.342326
2458.000000	99.338671
2457.000000	99.330671
2456.000000	99.321915
2455.000000	99.319276
2454.000000	99.324493
2453.000000	99.332158
2452.000000	99.335609
2451.000000	99.332533
2450.000000	99.325836
2449.000000	99.321621
2448.000000	99.325326
2447.000000	99.336456
2446.000000	99.347322
2445.000000	99.349965
2444.000000	99.344348
2443.000000	99.337355
2442.000000	99.334520
2441.000000	99.336033
2440.000000	99.340013
2439.000000	99.345171
2438.000000	99.349547
2437.000000	99.350808
2436.000000	99.349708
2435.000000	99.350526
2434.000000	99.356353
2433.000000	99.365751
2432.000000	99.374732
2431.000000	99.380127
2430.000000	99.380682
2429.000000	99.377360
2428.000000	99.373305
2427.000000	99.371184
2426.000000	99.370202
2425.000000	99.368047
2424.000000	99.365731
2423.000000	99.367143
2422.000000	99.372874
2421.000000	99.377930
2420.000000	99.377353
2419.000000	99.371530
2418.000000	99.364057
2417.000000	99.356727
2416.000000	99.349310
2415.000000	99.343031
2414.000000	99.341412
2413.000000	99.346937
2412.000000	99.357582
2411.000000	99.367192
2410.000000	99.369949
2409.000000	99.365297
2408.000000	99.358368
2407.000000	99.354843
2406.000000	99.355755
2405.000000	99.357905
2404.000000	99.358245
2403.000000	99.356698
2402.000000	99.355623
2401.000000	99.357822
2400.000000	99.364092
2399.000000	99.371416
2398.000000	99.375104
2397.000000	99.374346
2396.000000	99.373838
2395.000000	99.377691
2394.000000	99.383421
2393.000000	99.385147
2392.000000	99.381475
2391.000000	99.377269
2390.000000	99.377966
2389.000000	99.384824
2388.000000	99.395397
2387.000000	99.404967
2386.000000	99.409070
2385.000000	99.407260
2384.000000	99.404714
2383.000000	99.407865
2382.000000	99.417133
2381.000000	99.427500
2380.000000	99.434328
2379.000000	99.435829
2378.000000	99.431484
2377.000000	99.422133
2376.000000	99.412311
2375.000000	99.408093
2374.000000	99.412355
2373.000000	99.423503
2372.000000	99.438037
2371.000000	99.450815
2370.000000	99.456550
2369.000000	99.455787
2368.000000	99.453744
2367.000000	99.451950
2366.000000	99.445946
2365.000000	99.434893
2364.000000	99.426023
2363.000000	99.422432
2362.000000	99.417980
2361.000000	99.411794
2360.000000	99.414409
2359.000000	99.433524
2358.000000	99.459961
2357.000000	99.476390
2356.000000	99.471639
2355.000000	99.448181
2354.000000	99.426121
2353.000000	99.423766
2352.000000	99.436834
2351.000000	99.446429
2350.000000	99.441409
2349.000000	99.424672
2348.000000	99.407835
2347.000000	99.405710
2346.000000	99.419551
2345.000000	99.428058
2344.000000	99.413342
2343.000000	99.385105
2342.000000	99.365251
2341.000000	99.362171
2340.000000	99.367831
2339.000000	99.372207
2338.000000	99.375587
2337.000000	99.382439
2336.000000	99.391806
2335.000000	99.400419
2334.000000	99.411594
2333.000000	99.429134
2332.000000	99.445823
2331.000000	99.450410
2330.000000	99.440415
2329.000000	99.421720
2328.000000	99.397070
2327.000000	99.367508
2326.000000	99.339292
2325.000000	99.321666
2324.000000	99.319618
2323.000000	99.328952
2322.000000	99.338735
2321.000000	99.336886
2320.000000	99.319333
2319.000000	99.293571
2318.000000	99.271530
2317.000000	99.260687
2316.000000	99.262726
2315.000000	99.277952
2314.000000	99.303637
2313.000000	99.330798
2312.000000	99.347723
2311.000000	99.350590
2310.000000	99.346538
2309.000000	99.345551
2308.000000	99.352062
2307.000000	99.363766
2306.000000	99.375525
2305.000000	99.383115
2304.000000	99.386319
2303.000000	99.387902
2302.000000	99.389708
2301.000000	99.390598
2300.000000	99.389720
2299.000000	99.388674
2298.000000	99.387737
2297.000000	99.384015
2296.000000	99.375149
2295.000000	99.363967
2294.000000	99.355094
2293.000000	99.349407
2292.000000	99.344907
2291.000000	99.341762
2290.000000	99.342144
2289.000000	99.345172
2288.000000	99.346249
2287.000000	99.342061
2286.000000	99.334175
2285.000000	99.327090
2284.000000	99.325081
2283.000000	99.329727
2282.000000	99.339240
2281.000000	99.350318
2280.000000	99.361887
2279.000000	99.374687
2278.000000	99.385990
2277.000000	99.388694
2276.000000	99.379147
2275.000000	99.364258
2274.000000	99.357154
2273.000000	99.366045
2272.000000	99.387984
2271.000000	99.411542
2270.000000	99.424280
2269.000000	99.421148
2268.000000	99.408860
2267.000000	99.399939
2266.000000	99.400097
2265.000000	99.404060
2264.000000	99.405385
2263.000000	99.405677
2262.000000	99.410168
2261.000000	99.418153
2260.000000	99.423203
2259.000000	99.421134
2258.000000	99.413982
2257.000000	99.407093
2256.000000	99.405020
2255.000000	99.408187
2254.000000	99.411745
2253.000000	99.410426
2252.000000	99.406000
2251.000000	99.406022
2250.000000	99.413397
2249.000000	99.421995
2248.000000	99.425774
2247.000000	99.427183
2246.000000	99.432011
2245.000000	99.440041
2244.000000	99.445309
2243.000000	99.443105
2242.000000	99.433230
2241.000000	99.419069
2240.000000	99.405841
2239.000000	99.396220
2238.000000	99.385917
2237.000000	99.368254
2236.000000	99.345254
2235.000000	99.328697
2234.000000	99.327243
2233.000000	99.337867
2232.000000	99.352499
2231.000000	99.366765
2230.000000	99.378650
2229.000000	99.385403
2228.000000	99.386911
2227.000000	99.386767
2226.000000	99.386568
2225.000000	99.385379
2224.000000	99.386946
2223.000000	99.397929
2222.000000	99.414619
2221.000000	99.421404
2220.000000	99.409593
2219.000000	99.389087
2218.000000	99.374658
2217.000000	99.370870
2216.000000	99.378267
2215.000000	99.402941
2214.000000	99.446415
2213.000000	99.492551
2212.000000	99.518364
2211.000000	99.516265
2210.000000	99.496240
2209.000000	99.470452
2208.000000	99.445338
2207.000000	99.424212
2206.000000	99.407647
2205.000000	99.392975
2204.000000	99.380415
2203.000000	99.376508
2202.000000	99.385592
2201.000000	99.402690
2200.000000	99.420941
2199.000000	99.438927
2198.000000	99.453057
2197.000000	99.452034
2196.000000	99.431838
2195.000000	99.409717
2194.000000	99.408933
2193.000000	99.430923
2192.000000	99.452829
2191.000000	99.451621
2190.000000	99.421341
2189.000000	99.371575
2188.000000	99.322016
2187.000000	99.296139
2186.000000	99.306729
2185.000000	99.343245
2184.000000	99.380651
2183.000000	99.403594
2182.000000	99.416152
2181.000000	99.429583
2180.000000	99.449927
2179.000000	99.476722
2178.000000	99.504083
2177.000000	99.520925
2176.000000	99.518520
2175.000000	99.501284
2174.000000	99.485454
2173.000000	99.484925
2172.000000	99.499303
2171.000000	99.514372
2170.000000	99.512935
2169.000000	99.489095
2168.000000	99.454756
2167.000000	99.428278
2166.000000	99.416362
2165.000000	99.412233
2164.000000	99.411106
2163.000000	99.418231
2162.000000	99.438461
2161.000000	99.468610
2160.000000	99.505968
2159.000000	99.553624
2158.000000	99.608067
2157.000000	99.653957
2156.000000	99.680025
2155.000000	99.685963
2154.000000	99.671250
2153.000000	99.635008
2152.000000	99.589794
2151.000000	99.559689
2150.000000	99.557498
2149.000000	99.571884
2148.000000	99.582198
2147.000000	99.579570
2146.000000	99.570408
2145.000000	99.567082
2144.000000	99.578318
2143.000000	99.600908
2142.000000	99.618457
2141.000000	99.616377
2140.000000	99.600468
2139.000000	99.591164
2138.000000	99.597287
2137.000000	99.606528
2136.000000	99.605304
2135.000000	99.596881
2134.000000	99.592187
2133.000000	99.592419
2132.000000	99.590017
2131.000000	99.580589
2130.000000	99.566166
2129.000000	99.550125
2128.000000	99.534380
2127.000000	99.519655
2126.000000	99.506091
2125.000000	99.495523
2124.000000	99.493179
2123.000000	99.502618
2122.000000	99.517669
2121.000000	99.524175
2120.000000	99.512936
2119.000000	99.487930
2118.000000	99.460736
2117.000000	99.441583
2116.000000	99.436390
2115.000000	99.446009
2114.000000	99.464395
2113.000000	99.481203
2112.000000	99.489926
2111.000000	99.491151
2110.000000	99.486818
2109.000000	99.476677
2108.000000	99.462744
2107.000000	99.451683
2106.000000	99.449004
2105.000000	99.454701
2104.000000	99.466646
2103.000000	99.483304
2102.000000	99.500373
2101.000000	99.509912
2100.000000	99.507349
2099.000000	99.496537
2098.000000	99.486074
2097.000000	99.484029
2096.000000	99.495295
2095.000000	99.516823
2094.000000	99.534140
2093.000000	99.531185
2092.000000	99.508343
2091.000000	99.484538
2090.000000	99.477881
2089.000000	99.488202
2088.000000	99.500142
2087.000000	99.498869
2086.000000	99.480116
2085.000000	99.451009
2084.000000	99.425344
2083.000000	99.413925
2082.000000	99.416804
2081.000000	99.427080
2080.000000	99.440528
2079.000000	99.455399
2078.000000	99.464671
2077.000000	99.459797
2076.000000	99.444771
2075.000000	99.435199
2074.000000	99.438389
2073.000000	99.444586
2072.000000	99.443690
2071.000000	99.439941
2070.000000	99.442583
2069.000000	99.451413
2068.000000	99.460294
2067.000000	99.466977
2066.000000	99.470348
2065.000000	99.465605
2064.000000	99.452773
2063.000000	99.444121
2062.000000	99.452763
2061.000000	99.476315
2060.000000	99.497243
2059.000000	99.497394
2058.000000	99.470431
2057.000000	99.427637
2056.000000	99.395692
2055.000000	99.397942
2054.000000	99.428763
2053.000000	99.453648
2052.000000	99.443882
2051.000000	99.406013
2050.000000	99.372797
2049.000000	99.372141
2048.000000	99.407488
2047.000000	99.461871
2046.000000	99.512969
2045.000000	99.544691
2044.000000	99.553273
2043.000000	99.544631
2042.000000	99.525166
2041.000000	99.500946
2040.000000	99.483810
2039.000000	99.483738
2038.000000	99.492381
2037.000000	99.488486
2036.000000	99.467054
2035.000000	99.450510
2034.000000	99.461338
2033.000000	99.495690
2032.000000	99.532047
2031.000000	99.553807
2030.000000	99.555430
2029.000000	99.542011
2028.000000	99.532172
2027.000000	99.545150
2026.000000	99.577045
2025.000000	99.603915
2024.000000	99.613283
2023.000000	99.615380
2022.000000	99.618428
2021.000000	99.614816
2020.000000	99.600754
2019.000000	99.588955
2018.000000	99.591338
2017.000000	99.604656
2016.000000	99.620674
2015.000000	99.634416
2014.000000	99.635465
2013.000000	99.612280
2012.000000	99.575466
2011.000000	99.555393
2010.000000	99.565629
2009.000000	99.586977
2008.000000	99.597793
2007.000000	99.601729
2006.000000	99.610760
2005.000000	99.620781
2004.000000	99.622543
2003.000000	99.619858
2002.000000	99.621633
2001.000000	99.626535
2000.000000	99.626443
1999.000000	99.616716
1998.000000	99.597054
1997.000000	99.573228
1996.000000	99.560311
1995.000000	99.569431
1994.000000	99.587955
1993.000000	99.588560
1992.000000	99.566626
1991.000000	99.549354
1990.000000	99.554671
1989.000000	99.566153
1988.000000	99.561390
1987.000000	99.541310
1986.000000	99.518211
1985.000000	99.494793
1984.000000	99.471569
1983.000000	99.457975
1982.000000	99.458034
1981.000000	99.458245
1980.000000	99.449644
1979.000000	99.450955
1978.000000	99.486510
1977.000000	99.546330
1976.000000	99.593567
1975.000000	99.609005
1974.000000	99.602998
1973.000000	99.592690
1972.000000	99.590310
1971.000000	99.604474
1970.000000	99.634734
1969.000000	99.667241
1968.000000	99.685804
1967.000000	99.686551
1966.000000	99.678344
1965.000000	99.674527
1964.000000	99.685400
1963.000000	99.706996
1962.000000	99.714834
1961.000000	99.684672
1960.000000	99.624900
1959.000000	99.570457
1958.000000	99.541316
1957.000000	99.527020
1956.000000	99.514672
1955.000000	99.511269
1954.000000	99.528801
1953.000000	99.562334
1952.000000	99.593774
1951.000000	99.609315
1950.000000	99.606645
1949.000000	99.593081
1948.000000	99.583353
1947.000000	99.590550
1946.000000	99.612703
1945.000000	99.634698
1944.000000	99.645437
1943.000000	99.644846
1942.000000	99.633087
1941.000000	99.607199
1940.000000	99.575009
1939.000000	99.557334
1938.000000	99.567445
1937.000000	99.595335
1936.000000	99.618287
1935.000000	99.623812
1934.000000	99.616142
1933.000000	99.606421
1932.000000	99.602250
1931.000000	99.603323
1930.000000	99.604162
1929.000000	99.600962
1928.000000	99.598216
1927.000000	99.603782
1926.000000	99.617790
1925.000000	99.631560
1924.000000	99.636726
1923.000000	99.632979
1922.000000	99.624877
1921.000000	99.615590
1920.000000	99.607186
1919.000000	99.600126
1918.000000	99.590594
1917.000000	99.575155
1916.000000	99.557569
1915.000000	99.546113
1914.000000	99.544152
1913.000000	99.548011
1912.000000	99.553161
1911.000000	99.558008
1910.000000	99.562261
1909.000000	99.566774
1908.000000	99.575741
1907.000000	99.590320
1906.000000	99.601640
1905.000000	99.598938
1904.000000	99.584533
1903.000000	99.573101
1902.000000	99.572594
1901.000000	99.575620
1900.000000	99.574782
1899.000000	99.573957
1898.000000	99.577691
1897.000000	99.580336
1896.000000	99.574237
1895.000000	99.564237
1894.000000	99.563083
1893.000000	99.574077
1892.000000	99.588335
1891.000000	99.595562
1890.000000	99.591766
1889.000000	99.582047
1888.000000	99.575543
1887.000000	99.576262
1886.000000	99.580844
1885.000000	99.584154
1884.000000	99.586466
1883.000000	99.592682
1882.000000	99.603699
1881.000000	99.613867
1880.000000	99.619412
1879.000000	99.622214
1878.000000	99.623456
1877.000000	99.621790
1876.000000	99.618601
1875.000000	99.617314
1874.000000	99.616519
1873.000000	99.611654
1872.000000	99.605609
1871.000000	99.608755
1870.000000	99.623448
1869.000000	99.636298
1868.000000	99.636905
1867.000000	99.634078
1866.000000	99.640094
1865.000000	99.653297
1864.000000	99.663935
1863.000000	99.666518
1862.000000	99.661703
1861.000000	99.651688
1860.000000	99.639916
1859.000000	99.632126
1858.000000	99.632296
1857.000000	99.638867
1856.000000	99.648456
1855.000000	99.659720
1854.000000	99.670355
1853.000000	99.674444
1852.000000	99.670291
1851.000000	99.665073
1850.000000	99.664636
1849.000000	99.665666
1848.000000	99.661608
1847.000000	99.652818
1846.000000	99.645277
1845.000000	99.643924
1844.000000	99.652212
1843.000000	99.669475
1842.000000	99.686394
1841.000000	99.693603
1840.000000	99.690741
1839.000000	99.682882
1838.000000	99.674548
1837.000000	99.667362
1836.000000	99.662262
1835.000000	99.660914
1834.000000	99.662901
1833.000000	99.666519
1832.000000	99.673566
1831.000000	99.684076
1830.000000	99.688729
1829.000000	99.680218
1828.000000	99.664992
1827.000000	99.655475
1826.000000	99.655956
1825.000000	99.660858
1824.000000	99.665583
1823.000000	99.670369
1822.000000	99.674416
1821.000000	99.674198
1820.000000	99.669480
1819.000000	99.665234
1818.000000	99.665798
1817.000000	99.670705
1816.000000	99.676883
1815.000000	99.682949
1814.000000	99.687525
1813.000000	99.688137
1812.000000	99.684152
1811.000000	99.676925
1810.000000	99.667604
1809.000000	99.655514
1808.000000	99.640701
1807.000000	99.626092
1806.000000	99.613274
1805.000000	99.599086
1804.000000	99.578742
1803.000000	99.550683
1802.000000	99.515071
1801.000000	99.474016
1800.000000	99.434145
1799.000000	99.402354
1798.000000	99.380671
1797.000000	99.365540
1796.000000	99.352569
1795.000000	99.341588
1794.000000	99.334755
1793.000000	99.334425
1792.000000	99.346391
1791.000000	99.374808
1790.000000	99.412465
1789.000000	99.447314
1788.000000	99.474078
1787.000000	99.495344
1786.000000	99.516916
1785.000000	99.540879
1784.000000	99.563636
1783.000000	99.582279
1782.000000	99.595363
1781.000000	99.601195
1780.000000	99.602713
1779.000000	99.606559
1778.000000	99.615639
1777.000000	99.625732
1776.000000	99.633002
1775.000000	99.639740
1774.000000	99.647941
1773.000000	99.651895
1772.000000	99.650286
1771.000000	99.652234
1770.000000	99.660614
1769.000000	99.670549
1768.000000	99.677178
1767.000000	99.678504
1766.000000	99.675490
1765.000000	99.670424
1764.000000	99.666323
1763.000000	99.663473
1762.000000	99.658040
1761.000000	99.649126
1760.000000	99.640822
1759.000000	99.636301
1758.000000	99.633312
1757.000000	99.623446
1756.000000	99.606080
1755.000000	99.589295
1754.000000	99.576621
1753.000000	99.564117
1752.000000	99.546903
1751.000000	99.525386
1750.000000	99.501949
1749.000000	99.475405
1748.000000	99.449522
1747.000000	99.434481
1746.000000	99.429581
1745.000000	99.422948
1744.000000	99.406501
1743.000000	99.382305
1742.000000	99.356211
1741.000000	99.330949
1740.000000	99.307301
1739.000000	99.287753
1738.000000	99.271260
1737.000000	99.255975
1736.000000	99.247669
1735.000000	99.255236
1734.000000	99.282404
1733.000000	99.317517
1732.000000	99.342289
1731.000000	99.358908
1730.000000	99.376083
1729.000000	99.389613
1728.000000	99.398117
1727.000000	99.407327
1726.000000	99.420563
1725.000000	99.433893
1724.000000	99.444462
1723.000000	99.452949
1722.000000	99.460002
1721.000000	99.465768
1720.000000	99.476187
1719.000000	99.494582
1718.000000	99.509799
1717.000000	99.513311
1716.000000	99.508780
1715.000000	99.504273
1714.000000	99.505927
1713.000000	99.509403
1712.000000	99.508896
1711.000000	99.507140
1710.000000	99.507792
1709.000000	99.507088
1708.000000	99.501403
1707.000000	99.493457
1706.000000	99.485368
1705.000000	99.475411
1704.000000	99.460525
1703.000000	99.442150
1702.000000	99.425499
1701.000000	99.406855
1700.000000	99.382496
1699.000000	99.365200
1698.000000	99.358376
1697.000000	99.349297
1696.000000	99.329964
1695.000000	99.307787
1694.000000	99.289783
1693.000000	99.272138
1692.000000	99.253818
1691.000000	99.231612
1690.000000	99.200995
1689.000000	99.161558
1688.000000	99.122735
1687.000000	99.093643
1686.000000	99.073871
1685.000000	99.043052
1684.000000	98.995380
1683.000000	98.967667
1682.000000	98.959984
1681.000000	98.946115
1680.000000	98.921786
1679.000000	98.890816
1678.000000	98.860987
1677.000000	98.830571
1676.000000	98.796454
1675.000000	98.764562
1674.000000	98.742739
1673.000000	98.723595
1672.000000	98.699439
1671.000000	98.671114
1670.000000	98.642911
1669.000000	98.621194
1668.000000	98.608846
1667.000000	98.601785
1666.000000	98.593080
1665.000000	98.577711
1664.000000	98.552354
1663.000000	98.519158
1662.000000	98.488642
1661.000000	98.465306
1660.000000	98.446391
1659.000000	98.429290
1658.000000	98.410516
1657.000000	98.386842
1656.000000	98.364641
1655.000000	98.356702
1654.000000	98.351396
1653.000000	98.335985
1652.000000	98.330815
1651.000000	98.326522
1650.000000	98.314233
1649.000000	98.307097
1648.000000	98.296265
1647.000000	98.286259
1646.000000	98.295184
1645.000000	98.318505
1644.000000	98.333556
1643.000000	98.341088
1642.000000	98.346581
1641.000000	98.349504
1640.000000	98.348737
1639.000000	98.348275
1638.000000	98.354098
1637.000000	98.363919
1636.000000	98.373876
1635.000000	98.393630
1634.000000	98.419966
1633.000000	98.439011
1632.000000	98.451263
1631.000000	98.462036
1630.000000	98.473476
1629.000000	98.482731
1628.000000	98.488659
1627.000000	98.495903
1626.000000	98.506383
1625.000000	98.517419
1624.000000	98.528382
1623.000000	98.542731
1622.000000	98.559614
1621.000000	98.570503
1620.000000	98.576128
1619.000000	98.586134
1618.000000	98.601568
1617.000000	98.612722
1616.000000	98.620107
1615.000000	98.632702
1614.000000	98.647188
1613.000000	98.656781
1612.000000	98.661040
1611.000000	98.666533
1610.000000	98.676900
1609.000000	98.685183
1608.000000	98.685570
1607.000000	98.683425
1606.000000	98.684217
1605.000000	98.683974
1604.000000	98.679419
1603.000000	98.673493
1602.000000	98.667499
1601.000000	98.656932
1600.000000	98.640361
1599.000000	98.623864
1598.000000	98.611742
1597.000000	98.601778
1596.000000	98.591525
1595.000000	98.582082
1594.000000	98.572493
1593.000000	98.557955
1592.000000	98.538265
1591.000000	98.519482
1590.000000	98.503549
1589.000000	98.484681
1588.000000	98.459867
1587.000000	98.433070
1586.000000	98.406048
1585.000000	98.373482
1584.000000	98.334124
1583.000000	98.296128
1582.000000	98.263659
1581.000000	98.231713
1580.000000	98.199780
1579.000000	98.178242
1578.000000	98.174339
1577.000000	98.181199
1576.000000	98.194570
1575.000000	98.221037
1574.000000	98.251852
1573.000000	98.274819
1572.000000	98.293851
1571.000000	98.316721
1570.000000	98.346135
1569.000000	98.376217
1568.000000	98.403395
1567.000000	98.428741
1566.000000	98.450728
1565.000000	98.462282
1564.000000	98.459939
1563.000000	98.455238
1562.000000	98.452396
1561.000000	98.451929
1560.000000	98.427079
1559.000000	98.348616
1558.000000	98.302151
1557.000000	98.304008
1556.000000	98.296880
1555.000000	98.287936
1554.000000	98.271051
1553.000000	98.245568
1552.000000	98.205362
1551.000000	98.148197
1550.000000	98.070140
1549.000000	97.981026
1548.000000	97.895530
1547.000000	97.813222
1546.000000	97.716934
1545.000000	97.590464
1544.000000	97.447533
1543.000000	97.318613
1542.000000	97.209439
1541.000000	97.094406
1540.000000	96.986721
1539.000000	96.943826
1538.000000	96.943686
1537.000000	96.935483
1536.000000	96.917898
1535.000000	96.895408
1534.000000	96.860978
1533.000000	96.812436
1532.000000	96.768764
1531.000000	96.734101
1530.000000	96.696301
1529.000000	96.644260
1528.000000	96.572998
1527.000000	96.484312
1526.000000	96.384229
1525.000000	96.285765
1524.000000	96.201874
1523.000000	96.127380
1522.000000	96.031743
1521.000000	95.911314
1520.000000	95.807714
1519.000000	95.732626
1518.000000	95.654347
1517.000000	95.547141
1516.000000	95.430463
1515.000000	95.338041
1514.000000	95.262269
1513.000000	95.181995
1512.000000	95.095460
1511.000000	95.017428
1510.000000	94.951115
1509.000000	94.878032
1508.000000	94.755233
1507.000000	94.563233
1506.000000	94.392276
1505.000000	94.298176
1504.000000	94.238848
1503.000000	94.188083
1502.000000	94.128442
1501.000000	94.049952
1500.000000	93.956744
1499.000000	93.860185
1498.000000	93.752056
1497.000000	93.619394
1496.000000	93.486343
1495.000000	93.386809
1494.000000	93.315697
1493.000000	93.249483
1492.000000	93.175080
1491.000000	93.083964
1490.000000	92.968948
1489.000000	92.843536
1488.000000	92.733453
1487.000000	92.644805
1486.000000	92.567606
1485.000000	92.490956
1484.000000	92.412210
1483.000000	92.329705
1482.000000	92.234396
1481.000000	92.126683
1480.000000	92.024694
1479.000000	91.939545
1478.000000	91.856180
1477.000000	91.754014
1476.000000	91.636014
1475.000000	91.519329
1474.000000	91.393769
1473.000000	91.232443
1472.000000	91.064700
1471.000000	90.944690
1470.000000	90.865050
1469.000000	90.792330
1468.000000	90.714325
1467.000000	90.630790
1466.000000	90.535803
1465.000000	90.423917
1464.000000	90.319523
1463.000000	90.249339
1462.000000	90.203155
1461.000000	90.158029
1460.000000	90.100409
1459.000000	90.019934
1458.000000	89.884531
1457.000000	89.699043
1456.000000	89.556897
1455.000000	89.492038
1454.000000	89.449444
1453.000000	89.393544
1452.000000	89.322396
1451.000000	89.250334
1450.000000	89.178627
1449.000000	89.094825
1448.000000	88.997756
1447.000000	88.906463
1446.000000	88.831059
1445.000000	88.761383
1444.000000	88.691071
1443.000000	88.622736
1442.000000	88.556714
1441.000000	88.490539
1440.000000	88.427157
1439.000000	88.366916
1438.000000	88.291855
1437.000000	88.179960
1436.000000	88.058206
1435.000000	87.975346
1434.000000	87.922752
1433.000000	87.864314
1432.000000	87.784323
1431.000000	87.686264
1430.000000	87.576056
1429.000000	87.459770
1428.000000	87.353815
1427.000000	87.269095
1426.000000	87.189296
1425.000000	87.083542
1424.000000	86.951816
1423.000000	86.832628
1422.000000	86.742514
1421.000000	86.650595
1420.000000	86.513944
1419.000000	86.328437
1418.000000	86.144816
1417.000000	85.998555
1416.000000	85.880013
1415.000000	85.772357
1414.000000	85.658976
1413.000000	85.527170
1412.000000	85.381007
1411.000000	85.237102
1410.000000	85.102936
1409.000000	84.976330
1408.000000	84.862618
1407.000000	84.769380
1406.000000	84.686941
1405.000000	84.600124
1404.000000	84.523573
1403.000000	84.482775
1402.000000	84.467860
1401.000000	84.444257
1400.000000	84.392863
1399.000000	84.327576
1398.000000	84.269269
1397.000000	84.216207
1396.000000	84.159960
1395.000000	84.107533
1394.000000	84.071676
1393.000000	84.059035
1392.000000	84.075205
1391.000000	84.120726
1390.000000	84.181884
1389.000000	84.242882
1388.000000	84.308302
1387.000000	84.398233
1386.000000	84.516651
1385.000000	84.652304
1384.000000	84.807082
1383.000000	84.988155
1382.000000	85.187110
1381.000000	85.391841
1380.000000	85.606250
1379.000000	85.837772
1378.000000	86.076542
1377.000000	86.310846
1376.000000	86.550286
1375.000000	86.810829
1374.000000	87.084231
1373.000000	87.348306
1372.000000	87.599603
1371.000000	87.848816
1370.000000	88.098779
1369.000000	88.345955
1368.000000	88.591290
1367.000000	88.833769
1366.000000	89.066733
1365.000000	89.292258
1364.000000	89.524593
1363.000000	89.769415
1362.000000	90.011481
1361.000000	90.236864
1360.000000	90.450667
1359.000000	90.659402
1358.000000	90.858791
1357.000000	91.046826
1356.000000	91.230207
1355.000000	91.410273
1354.000000	91.578192
1353.000000	91.732360
1352.000000	91.883174
1351.000000	92.035063
1350.000000	92.179992
1349.000000	92.312754
1348.000000	92.439791
1347.000000	92.565369
1346.000000	92.684561
1345.000000	92.795797
1344.000000	92.906062
1343.000000	93.017598
1342.000000	93.123280
1341.000000	93.219786
1340.000000	93.314577
1339.000000	93.412792
1338.000000	93.507733
1337.000000	93.595284
1336.000000	93.681992
1335.000000	93.771321
1334.000000	93.857984
1333.000000	93.939332
1332.000000	94.020229
1331.000000	94.103021
1330.000000	94.183106
1329.000000	94.258297
1328.000000	94.332384
1327.000000	94.406268
1326.000000	94.475047
1325.000000	94.536751
1324.000000	94.595920
1323.000000	94.654587
1322.000000	94.709371
1321.000000	94.760025
1320.000000	94.812088
1319.000000	94.868107
1318.000000	94.924258
1317.000000	94.978236
1316.000000	95.031615
1315.000000	95.083366
1314.000000	95.130917
1313.000000	95.178817
1312.000000	95.235815
1311.000000	95.301506
1310.000000	95.365467
1309.000000	95.420962
1308.000000	95.470156
1307.000000	95.516120
1306.000000	95.559027
1305.000000	95.600946
1304.000000	95.646147
1303.000000	95.693732
1302.000000	95.738072
1301.000000	95.777961
1300.000000	95.818259
1299.000000	95.861459
1298.000000	95.904855
1297.000000	95.946387
1296.000000	95.986336
1295.000000	96.023469
1294.000000	96.056484
1293.000000	96.088422
1292.000000	96.122150
1291.000000	96.152760
1290.000000	96.172829
1289.000000	96.184828
1288.000000	96.199496
1287.000000	96.221716
1286.000000	96.246156
1285.000000	96.267456
1284.000000	96.286419
1283.000000	96.304980
1282.000000	96.322854
1281.000000	96.340318
1280.000000	96.358404
1279.000000	96.376133
1278.000000	96.392780
1277.000000	96.411911
1276.000000	96.436901
1275.000000	96.463697
1274.000000	96.484510
1273.000000	96.497831
1272.000000	96.508563
1271.000000	96.519415
1270.000000	96.528823
1269.000000	96.536519
1268.000000	96.544173
1267.000000	96.551119
1266.000000	96.556294
1265.000000	96.563864
1264.000000	96.579724
1263.000000	96.602275
1262.000000	96.623195
1261.000000	96.637484
1260.000000	96.646845
1259.000000	96.654026
1258.000000	96.660099
1257.000000	96.666705
1256.000000	96.674487
1255.000000	96.679922
1254.000000	96.679512
1253.000000	96.676308
1252.000000	96.676650
1251.000000	96.681728
1250.000000	96.687638
1249.000000	96.692090
1248.000000	96.695346
1247.000000	96.696033
1246.000000	96.692464
1245.000000	96.687764
1244.000000	96.687805
1243.000000	96.694350
1242.000000	96.705105
1241.000000	96.718882
1240.000000	96.734893
1239.000000	96.748867
1238.000000	96.756754
1237.000000	96.761621
1236.000000	96.770346
1235.000000	96.784285
1234.000000	96.799450
1233.000000	96.814934
1232.000000	96.834198
1231.000000	96.857843
1230.000000	96.882029
1229.000000	96.905092
1228.000000	96.929565
1227.000000	96.956671
1226.000000	96.984294
1225.000000	97.011437
1224.000000	97.039917
1223.000000	97.070428
1222.000000	97.100990
1221.000000	97.129841
1220.000000	97.156724
1219.000000	97.181808
1218.000000	97.206300
1217.000000	97.232523
1216.000000	97.259866
1215.000000	97.282882
1214.000000	97.297591
1213.000000	97.307610
1212.000000	97.319314
1211.000000	97.333071
1210.000000	97.344261
1209.000000	97.350598
1208.000000	97.353274
1207.000000	97.352950
1206.000000	97.350319
1205.000000	97.349037
1204.000000	97.352493
1203.000000	97.358953
1202.000000	97.364761
1201.000000	97.370721
1200.000000	97.380072
1199.000000	97.391671
1198.000000	97.400743
1197.000000	97.405749
1196.000000	97.409519
1195.000000	97.414264
1194.000000	97.420168
1193.000000	97.427918
1192.000000	97.438054
1191.000000	97.448489
1190.000000	97.456793
1189.000000	97.463901
1188.000000	97.471786
1187.000000	97.478925
1186.000000	97.481915
1185.000000	97.479991
1184.000000	97.473984
1183.000000	97.463446
1182.000000	97.449605
1181.000000	97.438742
1180.000000	97.436907
1179.000000	97.442225
1178.000000	97.447412
1177.000000	97.448573
1176.000000	97.446629
1175.000000	97.442115
1174.000000	97.434196
1173.000000	97.424120
1172.000000	97.415116
1171.000000	97.408949
1170.000000	97.405594
1169.000000	97.404975
1168.000000	97.405804
1167.000000	97.404519
1166.000000	97.399162
1165.000000	97.392836
1164.000000	97.390143
1163.000000	97.392081
1162.000000	97.397243
1161.000000	97.405145
1160.000000	97.414674
1159.000000	97.422385
1158.000000	97.426739
1157.000000	97.431288
1156.000000	97.439705
1155.000000	97.450678
1154.000000	97.461861
1153.000000	97.475253
1152.000000	97.493496
1151.000000	97.514286
1150.000000	97.534034
1149.000000	97.553933
1148.000000	97.576395
1147.000000	97.598459
1146.000000	97.615304
1145.000000	97.628060
1144.000000	97.641782
1143.000000	97.657540
1142.000000	97.672384
1141.000000	97.685351
1140.000000	97.697708
1139.000000	97.708925
1138.000000	97.717959
1137.000000	97.727107
1136.000000	97.739384
1135.000000	97.753586
1134.000000	97.766577
1133.000000	97.778055
1132.000000	97.788131
1131.000000	97.792915
1130.000000	97.788527
1129.000000	97.777757
1128.000000	97.767299
1127.000000	97.760291
1126.000000	97.756371
1125.000000	97.756272
1124.000000	97.760579
1123.000000	97.766058
1122.000000	97.769048
1121.000000	97.770796
1120.000000	97.773993
1119.000000	97.776256
1118.000000	97.772837
1117.000000	97.763943
1116.000000	97.753715
1115.000000	97.743976
1114.000000	97.734585
1113.000000	97.727670
1112.000000	97.725428
1111.000000	97.725506
1110.000000	97.724239
1109.000000	97.722545
1108.000000	97.722959
1107.000000	97.723024
1106.000000	97.718604
1105.000000	97.711810
1104.000000	97.708486
1103.000000	97.709004
1102.000000	97.708022
1101.000000	97.702973
1100.000000	97.696125
1099.000000	97.688642
1098.000000	97.680191
1097.000000	97.672918
1096.000000	97.670136
1095.000000	97.670655
1094.000000	97.670091
1093.000000	97.667396
1092.000000	97.664530
1091.000000	97.660376
1090.000000	97.650845
1089.000000	97.634959
1088.000000	97.615405
1087.000000	97.593501
1086.000000	97.569349
1085.000000	97.546809
1084.000000	97.532363
1083.000000	97.527435
1082.000000	97.525909
1081.000000	97.520501
1080.000000	97.509250
1079.000000	97.496321
1078.000000	97.489395
1077.000000	97.494909
1076.000000	97.511763
1075.000000	97.530922
1074.000000	97.544847
1073.000000	97.555347
1072.000000	97.568155
1071.000000	97.582769
1070.000000	97.593621
1069.000000	97.599447
1068.000000	97.604823
1067.000000	97.612873
1066.000000	97.622139
1065.000000	97.630909
1064.000000	97.639768
1063.000000	97.649368
1062.000000	97.659308
1061.000000	97.669107
1060.000000	97.677594
1059.000000	97.682916
1058.000000	97.686106
1057.000000	97.691981
1056.000000	97.702562
1055.000000	97.712515
1054.000000	97.716070
1053.000000	97.715830
1052.000000	97.719328
1051.000000	97.728727
1050.000000	97.739803
1049.000000	97.749486
1048.000000	97.758154
1047.000000	97.765761
1046.000000	97.771704
1045.000000	97.777457
1044.000000	97.784185
1043.000000	97.789240
1042.000000	97.789750
1041.000000	97.788310
1040.000000	97.790451
1039.000000	97.797929
1038.000000	97.808593
1037.000000	97.820373
1036.000000	97.830498
1035.000000	97.833771
1034.000000	97.828029
1033.000000	97.819539
1032.000000	97.816761
1031.000000	97.820130
1030.000000	97.824101
1029.000000	97.827468
1028.000000	97.834592
1027.000000	97.846576
1026.000000	97.858443
1025.000000	97.866347
1024.000000	97.872201
1023.000000	97.880001
1022.000000	97.891890
1021.000000	97.908361
1020.000000	97.928013
1019.000000	97.946597
1018.000000	97.960029
1017.000000	97.968639
1016.000000	97.975855
1015.000000	97.984377
1014.000000	97.997285
1013.000000	98.020008
1012.000000	98.055070
1011.000000	98.095687
1010.000000	98.130210
1009.000000	98.153399
1008.000000	98.169267
1007.000000	98.183533
1006.000000	98.198457
1005.000000	98.214811
1004.000000	98.233564
1003.000000	98.254169
1002.000000	98.274570
1001.000000	98.293825
1000.000000	98.312495
999.000000	98.331026
998.000000	98.350329
997.000000	98.372727
996.000000	98.398954
995.000000	98.425139
994.000000	98.446429
993.000000	98.463315
992.000000	98.481089
991.000000	98.503336
990.000000	98.528422
989.000000	98.551934
988.000000	98.570781
987.000000	98.585949
986.000000	98.602767
985.000000	98.626341
984.000000	98.654863
983.000000	98.680159
982.000000	98.696925
981.000000	98.708324
980.000000	98.720094
979.000000	98.732738
978.000000	98.742684
977.000000	98.747422
976.000000	98.746100
975.000000	98.739329
974.000000	98.732392
973.000000	98.734018
972.000000	98.746697
971.000000	98.761394
970.000000	98.767465
969.000000	98.765084
968.000000	98.762869
967.000000	98.766723
966.000000	98.776794
965.000000	98.792506
964.000000	98.813473
963.000000	98.836356
962.000000	98.856800
961.000000	98.874622
960.000000	98.892805
959.000000	98.912509
958.000000	98.933233
957.000000	98.955639
956.000000	98.979448
955.000000	99.000723
954.000000	99.016408
953.000000	99.029447
952.000000	99.044334
951.000000	99.059690
950.000000	99.071144
949.000000	99.079463
948.000000	99.089519
947.000000	99.102209
946.000000	99.113304
945.000000	99.120002
944.000000	99.123522
943.000000	99.126215
942.000000	99.130956
941.000000	99.141856
940.000000	99.159846
939.000000	99.178361
938.000000	99.188979
937.000000	99.191542
936.000000	99.193914
935.000000	99.202346
934.000000	99.216538
933.000000	99.232918
932.000000	99.247846
931.000000	99.258234
930.000000	99.264068
929.000000	99.270132
928.000000	99.281135
927.000000	99.295875
926.000000	99.310106
925.000000	99.323102
924.000000	99.336800
923.000000	99.350259
922.000000	99.360385
921.000000	99.367110
920.000000	99.373091
919.000000	99.379775
918.000000	99.388162
917.000000	99.400909
916.000000	99.418103
915.000000	99.433484
914.000000	99.441318
913.000000	99.444991
912.000000	99.451500
911.000000	99.459625
910.000000	99.461816
909.000000	99.457438
908.000000	99.455656
907.000000	99.463669
906.000000	99.479374
905.000000	99.496804
904.000000	99.512367
903.000000	99.524403
902.000000	99.533098
901.000000	99.542489
900.000000	99.557225
899.000000	99.576505
898.000000	99.596491
897.000000	99.617445
896.000000	99.641632
895.000000	99.664940
894.000000	99.679720
893.000000	99.687311
892.000000	99.698426
891.000000	99.718554
890.000000	99.740025
889.000000	99.750267
888.000000	99.739117
887.000000	99.692544
886.000000	99.588162
885.000000	99.400080
884.000000	99.101733
883.000000	98.664289
882.000000	98.057590
881.000000	97.261233
880.000000	96.269085
879.000000	95.086673
878.000000	93.736929
877.000000	92.261883
876.000000	90.704749
875.000000	89.095125
874.000000	87.512887
873.000000	86.207951
872.000000	85.620705
871.000000	86.145492
870.000000	87.781935
869.000000	90.052497
868.000000	92.301241
867.000000	94.088462
866.000000	95.335694
865.000000	96.180804
864.000000	96.775758
863.000000	97.211503
862.000000	97.541030
861.000000	97.800584
860.000000	98.007693
859.000000	98.167162
858.000000	98.290120
857.000000	98.393739
856.000000	98.487450
855.000000	98.572787
854.000000	98.652148
853.000000	98.723495
852.000000	98.765799
851.000000	98.749348
850.000000	98.672646
849.000000	98.582075
848.000000	98.544087
847.000000	98.593652
846.000000	98.709611
845.000000	98.838059
844.000000	98.936366
843.000000	98.997452
842.000000	99.039275
841.000000	99.078418
840.000000	99.116887
839.000000	99.149027
838.000000	99.172636
837.000000	99.190696
836.000000	99.207626
835.000000	99.227940
834.000000	99.254335
833.000000	99.283320
832.000000	99.306773
831.000000	99.322219
830.000000	99.337681
829.000000	99.360891
828.000000	99.387325
827.000000	99.406355
826.000000	99.416524
825.000000	99.425977
824.000000	99.438492
823.000000	99.448132
822.000000	99.449202
821.000000	99.443831
820.000000	99.437953
819.000000	99.435752
818.000000	99.439098
817.000000	99.447117
816.000000	99.455570
815.000000	99.461538
814.000000	99.469015
813.000000	99.484361
812.000000	99.505405
811.000000	99.520764
810.000000	99.522267
809.000000	99.514275
808.000000	99.509017
807.000000	99.515922
806.000000	99.535844
805.000000	99.560900
804.000000	99.578420
803.000000	99.578985
802.000000	99.563136
801.000000	99.539747
800.000000	99.518781
799.000000	99.507047
798.000000	99.507332
797.000000	99.516504
796.000000	99.526045
795.000000	99.529666
794.000000	99.529482
793.000000	99.530601
792.000000	99.532593
791.000000	99.532533
790.000000	99.534015
789.000000	99.544451
788.000000	99.562509
787.000000	99.575759
786.000000	99.573550
785.000000	99.557574
784.000000	99.538050
783.000000	99.523946
782.000000	99.518354
781.000000	99.519129
780.000000	99.521837
779.000000	99.523891
778.000000	99.525843
777.000000	99.527448
776.000000	99.525947
775.000000	99.522106
774.000000	99.523553
773.000000	99.535195
772.000000	99.548896
771.000000	99.550674
770.000000	99.537252
769.000000	99.517813
768.000000	99.500654
767.000000	99.487582
766.000000	99.481885
765.000000	99.491116
764.000000	99.517179
763.000000	99.550340
762.000000	99.577624
761.000000	99.592960
760.000000	99.597514
759.000000	99.596104
758.000000	99.596238
757.000000	99.604932
756.000000	99.622667
755.000000	99.643560
754.000000	99.662398
753.000000	99.677471
752.000000	99.686951
751.000000	99.688575
750.000000	99.683870
749.000000	99.677361
748.000000	99.670635
747.000000	99.662321
746.000000	99.654420
745.000000	99.652601
744.000000	99.659110
743.000000	99.670916
742.000000	99.684480
741.000000	99.696106
740.000000	99.699071
739.000000	99.689046
738.000000	99.672074
737.000000	99.658232
736.000000	99.647515
735.000000	99.631719
734.000000	99.610865
733.000000	99.595450
732.000000	99.589189
731.000000	99.581074
730.000000	99.560286
729.000000	99.529036
728.000000	99.498349
727.000000	99.477420
726.000000	99.466584
725.000000	99.456948
724.000000	99.435359
723.000000	99.393742
722.000000	99.333134
721.000000	99.254341
720.000000	99.145906
719.000000	98.985693
718.000000	98.749995
717.000000	98.415410
716.000000	97.968296
715.000000	97.442782
714.000000	96.953705
713.000000	96.658830
712.000000	96.656997
711.000000	96.917258
710.000000	97.312327
709.000000	97.711439
708.000000	98.041197
707.000000	98.286152
706.000000	98.458067
705.000000	98.575082
704.000000	98.656590
703.000000	98.719256
702.000000	98.775525
701.000000	98.833391
700.000000	98.891661
699.000000	98.942072
698.000000	98.976374
697.000000	98.993879
696.000000	99.003964
695.000000	99.018382
694.000000	99.046830
693.000000	99.091404
692.000000	99.140313
691.000000	99.179141
690.000000	99.204786
689.000000	99.225239
688.000000	99.245768
687.000000	99.261061
686.000000	99.268933
685.000000	99.275009
684.000000	99.277622
683.000000	99.267002
682.000000	99.243251
681.000000	99.220521
680.000000	99.207339
679.000000	99.200807
678.000000	99.202292
677.000000	99.213798
676.000000	99.229509
675.000000	99.239631
674.000000	99.248333
673.000000	99.271116
672.000000	99.313359
671.000000	99.370632
670.000000	99.444926
669.000000	99.528780
668.000000	99.530338
667.000000	99.416437
666.000000	99.316105
665.000000	99.242606
664.000000	99.179750
663.000000	99.146674
662.000000	99.148235
661.000000	99.164869
660.000000	99.174879
659.000000	99.179547
658.000000	99.188218
657.000000	99.193033
656.000000	99.187269
655.000000	99.182803
654.000000	99.191695
653.000000	99.208481
652.000000	99.225256
651.000000	99.242644
650.000000	99.259001
649.000000	99.263681
648.000000	99.254044
647.000000	99.242308
646.000000	99.235472
645.000000	99.229570
644.000000	99.223345
643.000000	99.219957
642.000000	99.217370
641.000000	99.207518
640.000000	99.189805
639.000000	99.174197
638.000000	99.164159
637.000000	99.152329
636.000000	99.139227
635.000000	99.135949
634.000000	99.144484
633.000000	99.151901
632.000000	99.148611
631.000000	99.140332
630.000000	99.136256
629.000000	99.136191
628.000000	99.138256
627.000000	99.147020
626.000000	99.161553
625.000000	99.169601
624.000000	99.159456
623.000000	99.132341
622.000000	99.101398
621.000000	99.082096
620.000000	99.083108
619.000000	99.099456
618.000000	99.113439
617.000000	99.109480
616.000000	99.089274
615.000000	99.066352
614.000000	99.048675
613.000000	99.035352
612.000000	99.027209
611.000000	99.027977
610.000000	99.034845
609.000000	99.039186
608.000000	99.040259
607.000000	99.047936
606.000000	99.064646
605.000000	99.080046
604.000000	99.085263
603.000000	99.082983
602.000000	99.082281
601.000000	99.089266
600.000000	99.104235
599.000000	99.121068
598.000000	99.126539
597.000000	99.110021
596.000000	99.078194
595.000000	99.052598
594.000000	99.047297
593.000000	99.054206
592.000000	99.057494
591.000000	99.055191
590.000000	99.057430
589.000000	99.068906
588.000000	99.084116
587.000000	99.095368
586.000000	99.095220
585.000000	99.076466
584.000000	99.040914
583.000000	99.007796
582.000000	99.001552
581.000000	99.027321
580.000000	99.064380
579.000000	99.087866
578.000000	99.091304
577.000000	99.086356
576.000000	99.087945
575.000000	99.101690
574.000000	99.121027
573.000000	99.134750
572.000000	99.137317
571.000000	99.130786
570.000000	99.118978
569.000000	99.101411
568.000000	99.076997
567.000000	99.050747
566.000000	99.029679
565.000000	99.012882
564.000000	98.992254
563.000000	98.965135
562.000000	98.940592
561.000000	98.931083
560.000000	98.939956
559.000000	98.958012
558.000000	98.971129
557.000000	98.972829
556.000000	98.970647
555.000000	98.979229
554.000000	99.004837
553.000000	99.037968
552.000000	99.062818
551.000000	99.070537
550.000000	99.064360
549.000000	99.055642
548.000000	99.055968
547.000000	99.069147
546.000000	99.085559
545.000000	99.087799
544.000000	99.068465
543.000000	99.040635
542.000000	99.027854
541.000000	99.043179
540.000000	99.078151
539.000000	99.109233
538.000000	99.112010
537.000000	99.076261
536.000000	99.015771
535.000000	98.964112
534.000000	98.951535
533.000000	98.979949
532.000000	99.020822
531.000000	99.039926
530.000000	99.025469
529.000000	98.994306
528.000000	98.974041
527.000000	98.983888
526.000000	99.024393
525.000000	99.076859
524.000000	99.117165
523.000000	99.130829
522.000000	99.119763
521.000000	99.102182
520.000000	99.101204
519.000000	99.125449
518.000000	99.160954
517.000000	99.189679
516.000000	99.210872
515.000000	99.230341
514.000000	99.239957
513.000000	99.225953
512.000000	99.195121
511.000000	99.177582
510.000000	99.196010
509.000000	99.241845
508.000000	99.286228
507.000000	99.307464
506.000000	99.299875
505.000000	99.264588
504.000000	99.207374
503.000000	99.148509
502.000000	99.121026
501.000000	99.140856
500.000000	99.186977
499.000000	99.227033
498.000000	99.247553
497.000000	99.255497
496.000000	99.262095
495.000000	99.269818
494.000000	99.274980
493.000000	99.273978
492.000000	99.261850
491.000000	99.233520
490.000000	99.195385
489.000000	99.175647
488.000000	99.206543
487.000000	99.287229
486.000000	99.371239
485.000000	99.407903
484.000000	99.400498
483.000000	99.399360
482.000000	99.430236
481.000000	99.458847
480.000000	99.436761
479.000000	99.359880
478.000000	99.272234
477.000000	99.226727
476.000000	99.249303
475.000000	99.328858
474.000000	99.419964
473.000000	99.461155
472.000000	99.426963
471.000000	99.366885
470.000000	99.349740
469.000000	99.390867
468.000000	99.454375
467.000000	99.493235
466.000000	99.486455
465.000000	99.451898
464.000000	99.424110
463.000000	99.419847
462.000000	99.421383
461.000000	99.401853
460.000000	99.370875
459.000000	99.371106
458.000000	99.417983
457.000000	99.464069
456.000000	99.470073
455.000000	99.464741
454.000000	99.490042
453.000000	99.547093
452.000000	99.609982
451.000000	99.667879
450.000000	99.723465
