PE IR       SUBTECH     SPECTRUM    ASCII       PEDS        4.00        
   -1
AD10-C012_1.ASC
23/09/08
11:08:26.00
23/09/08
11:14:38.00
uco
Sample 012 By uco Date Friday, September 08 2023
450.000000
#HDR
-1
-1
#GR
cm-1
%T
1.0
0.0
4000.000000
-1.000000
3551
8
100.427669
95.456719
#DATA
4000.000000	100.128177
3999.000000	100.128894
3998.000000	100.129232
3997.000000	100.128835
3996.000000	100.128530
3995.000000	100.129062
3994.000000	100.130321
3993.000000	100.131149
3992.000000	100.130302
3991.000000	100.127552
3990.000000	100.124012
3989.000000	100.121246
3988.000000	100.120096
3987.000000	100.120258
3986.000000	100.120800
3985.000000	100.120965
3984.000000	100.120472
3983.000000	100.119306
3982.000000	100.117627
3981.000000	100.115986
3980.000000	100.115291
3979.000000	100.116238
3978.000000	100.118817
3977.000000	100.122393
3976.000000	100.126118
3975.000000	100.129198
3974.000000	100.130853
3973.000000	100.130502
3972.000000	100.128113
3971.000000	100.124316
3970.000000	100.119952
3969.000000	100.115525
3968.000000	100.111364
3967.000000	100.108068
3966.000000	100.106588
3965.000000	100.107567
3964.000000	100.110495
3963.000000	100.113636
3962.000000	100.115121
3961.000000	100.114436
3960.000000	100.112582
3959.000000	100.110990
3958.000000	100.110286
3957.000000	100.109830
3956.000000	100.108556
3955.000000	100.105814
3954.000000	100.101847
3953.000000	100.097554
3952.000000	100.093735
3951.000000	100.090660
3950.000000	100.087807
3949.000000	100.084502
3948.000000	100.081073
3947.000000	100.079362
3946.000000	100.082016
3945.000000	100.089948
3944.000000	100.100054
3943.000000	100.106490
3942.000000	100.105193
3941.000000	100.097824
3940.000000	100.090120
3939.000000	100.086888
3938.000000	100.089027
3937.000000	100.094006
3936.000000	100.098837
3935.000000	100.101825
3934.000000	100.102650
3933.000000	100.102146
3932.000000	100.101357
3931.000000	100.100714
3930.000000	100.099246
3929.000000	100.095900
3928.000000	100.091529
3927.000000	100.087694
3926.000000	100.084879
3925.000000	100.082295
3924.000000	100.079279
3923.000000	100.075611
3922.000000	100.070700
3921.000000	100.063896
3920.000000	100.056803
3919.000000	100.053918
3918.000000	100.059462
3917.000000	100.072369
3916.000000	100.085887
3915.000000	100.093576
3914.000000	100.093538
3913.000000	100.088026
3912.000000	100.080994
3911.000000	100.076498
3910.000000	100.077240
3909.000000	100.082876
3908.000000	100.090633
3907.000000	100.096278
3906.000000	100.095167
3905.000000	100.083874
3904.000000	100.063970
3903.000000	100.044030
3902.000000	100.034293
3901.000000	100.038435
3900.000000	100.051452
3899.000000	100.063852
3898.000000	100.069228
3897.000000	100.067941
3896.000000	100.063506
3895.000000	100.059185
3894.000000	100.057021
3893.000000	100.057047
3892.000000	100.056749
3891.000000	100.052818
3890.000000	100.045193
3889.000000	100.038360
3888.000000	100.037522
3887.000000	100.043368
3886.000000	100.051663
3885.000000	100.058052
3884.000000	100.062741
3883.000000	100.068566
3882.000000	100.075966
3881.000000	100.081080
3880.000000	100.079890
3879.000000	100.073059
3878.000000	100.065548
3877.000000	100.061871
3876.000000	100.062721
3875.000000	100.064381
3874.000000	100.062937
3873.000000	100.059841
3872.000000	100.059600
3871.000000	100.062309
3870.000000	100.062375
3869.000000	100.057106
3868.000000	100.052038
3867.000000	100.053553
3866.000000	100.060479
3865.000000	100.065538
3864.000000	100.064021
3863.000000	100.058807
3862.000000	100.055295
3861.000000	100.055087
3860.000000	100.056719
3859.000000	100.057219
3858.000000	100.055028
3857.000000	100.050743
3856.000000	100.046482
3855.000000	100.043448
3854.000000	100.037993
3853.000000	100.033173
3852.000000	100.036198
3851.000000	100.043846
3850.000000	100.050097
3849.000000	100.053513
3848.000000	100.055025
3847.000000	100.056740
3846.000000	100.059646
3845.000000	100.062495
3844.000000	100.062098
3843.000000	100.056091
3842.000000	100.046295
3841.000000	100.038331
3840.000000	100.036558
3839.000000	100.039882
3838.000000	100.044375
3837.000000	100.047214
3836.000000	100.048764
3835.000000	100.051386
3834.000000	100.056806
3833.000000	100.064290
3832.000000	100.070788
3831.000000	100.072823
3830.000000	100.070287
3829.000000	100.067098
3828.000000	100.067456
3827.000000	100.070926
3826.000000	100.072484
3825.000000	100.069091
3824.000000	100.063731
3823.000000	100.062091
3822.000000	100.064151
3821.000000	100.063654
3820.000000	100.057882
3819.000000	100.050651
3818.000000	100.046692
3817.000000	100.045107
3816.000000	100.042519
3815.000000	100.039146
3814.000000	100.038481
3813.000000	100.041616
3812.000000	100.045405
3811.000000	100.047311
3810.000000	100.048610
3809.000000	100.051949
3808.000000	100.055026
3807.000000	100.051659
3806.000000	100.041205
3805.000000	100.032343
3804.000000	100.034224
3803.000000	100.047696
3802.000000	100.063095
3801.000000	100.069836
3800.000000	100.067614
3799.000000	100.064529
3798.000000	100.064755
3797.000000	100.065199
3796.000000	100.061697
3795.000000	100.056049
3794.000000	100.053964
3793.000000	100.058368
3792.000000	100.067342
3791.000000	100.076986
3790.000000	100.083660
3789.000000	100.084832
3788.000000	100.079909
3787.000000	100.070767
3786.000000	100.061246
3785.000000	100.055372
3784.000000	100.055133
3783.000000	100.059727
3782.000000	100.066430
3781.000000	100.070779
3780.000000	100.068036
3779.000000	100.058116
3778.000000	100.047585
3777.000000	100.043809
3776.000000	100.048149
3775.000000	100.055535
3774.000000	100.059509
3773.000000	100.057503
3772.000000	100.051220
3771.000000	100.043306
3770.000000	100.035829
3769.000000	100.030531
3768.000000	100.029461
3767.000000	100.033425
3766.000000	100.040505
3765.000000	100.046626
3764.000000	100.048841
3763.000000	100.047722
3762.000000	100.045168
3761.000000	100.041257
3760.000000	100.035362
3759.000000	100.028911
3758.000000	100.024324
3757.000000	100.022371
3756.000000	100.023216
3755.000000	100.027003
3754.000000	100.030728
3753.000000	100.027565
3752.000000	100.013678
3751.000000	99.996422
3750.000000	99.987092
3749.000000	99.984774
3748.000000	99.983712
3747.000000	99.985368
3746.000000	99.994056
3745.000000	100.008856
3744.000000	100.023696
3743.000000	100.034458
3742.000000	100.041269
3741.000000	100.044259
3740.000000	100.043895
3739.000000	100.041838
3738.000000	100.040128
3737.000000	100.037250
3736.000000	100.032244
3735.000000	100.030678
3734.000000	100.036273
3733.000000	100.044514
3732.000000	100.048817
3731.000000	100.046828
3730.000000	100.040516
3729.000000	100.032718
3728.000000	100.024847
3727.000000	100.016843
3726.000000	100.009206
3725.000000	100.004083
3724.000000	100.003448
3723.000000	100.008112
3722.000000	100.017416
3721.000000	100.030076
3720.000000	100.043574
3719.000000	100.052957
3718.000000	100.053121
3717.000000	100.043457
3716.000000	100.030578
3715.000000	100.023269
3714.000000	100.023481
3713.000000	100.023981
3712.000000	100.016655
3711.000000	100.005073
3710.000000	100.001180
3709.000000	100.009962
3708.000000	100.026768
3707.000000	100.043463
3706.000000	100.054662
3705.000000	100.061392
3704.000000	100.068706
3703.000000	100.079422
3702.000000	100.090326
3701.000000	100.095207
3700.000000	100.092503
3699.000000	100.086385
3698.000000	100.080542
3697.000000	100.074025
3696.000000	100.063385
3695.000000	100.047283
3694.000000	100.028225
3693.000000	100.012533
3692.000000	100.008489
3691.000000	100.022076
3690.000000	100.049321
3689.000000	100.074590
3688.000000	100.083334
3687.000000	100.076362
3686.000000	100.065772
3685.000000	100.059684
3684.000000	100.057516
3683.000000	100.055734
3682.000000	100.053746
3681.000000	100.051969
3680.000000	100.048445
3679.000000	100.041814
3678.000000	100.035056
3677.000000	100.033745
3676.000000	100.038541
3675.000000	100.043655
3674.000000	100.042647
3673.000000	100.038630
3672.000000	100.037378
3671.000000	100.039691
3670.000000	100.042675
3669.000000	100.044708
3668.000000	100.046515
3667.000000	100.049802
3666.000000	100.054307
3665.000000	100.057987
3664.000000	100.059105
3663.000000	100.057904
3662.000000	100.055921
3661.000000	100.054524
3660.000000	100.055090
3659.000000	100.059199
3658.000000	100.066839
3657.000000	100.074297
3656.000000	100.076006
3655.000000	100.070597
3654.000000	100.061952
3653.000000	100.054906
3652.000000	100.050426
3651.000000	100.044921
3650.000000	100.036525
3649.000000	100.032143
3648.000000	100.035918
3647.000000	100.039990
3646.000000	100.038466
3645.000000	100.033898
3644.000000	100.030716
3643.000000	100.030836
3642.000000	100.034139
3641.000000	100.039504
3640.000000	100.045647
3639.000000	100.050956
3638.000000	100.053887
3637.000000	100.054474
3636.000000	100.053832
3635.000000	100.052200
3634.000000	100.048953
3633.000000	100.045540
3632.000000	100.045857
3631.000000	100.052093
3630.000000	100.059054
3629.000000	100.058254
3628.000000	100.051580
3627.000000	100.048185
3626.000000	100.052847
3625.000000	100.062691
3624.000000	100.072539
3623.000000	100.079847
3622.000000	100.085769
3621.000000	100.091890
3620.000000	100.096790
3619.000000	100.096738
3618.000000	100.090381
3617.000000	100.080662
3616.000000	100.072260
3615.000000	100.067436
3614.000000	100.064074
3613.000000	100.058076
3612.000000	100.048112
3611.000000	100.037953
3610.000000	100.033084
3609.000000	100.037241
3608.000000	100.049930
3607.000000	100.065669
3606.000000	100.078475
3605.000000	100.085964
3604.000000	100.089364
3603.000000	100.090318
3602.000000	100.089657
3601.000000	100.088247
3600.000000	100.087189
3599.000000	100.086558
3598.000000	100.084533
3597.000000	100.079232
3596.000000	100.071003
3595.000000	100.063855
3594.000000	100.062276
3593.000000	100.067318
3592.000000	100.075042
3591.000000	100.080912
3590.000000	100.083102
3589.000000	100.083085
3588.000000	100.083829
3587.000000	100.087304
3586.000000	100.090930
3585.000000	100.091766
3584.000000	100.090854
3583.000000	100.090057
3582.000000	100.089339
3581.000000	100.088125
3580.000000	100.086854
3579.000000	100.086842
3578.000000	100.087654
3577.000000	100.086836
3576.000000	100.082237
3575.000000	100.074971
3574.000000	100.068708
3573.000000	100.066053
3572.000000	100.066786
3571.000000	100.069584
3570.000000	100.074318
3569.000000	100.080956
3568.000000	100.088178
3567.000000	100.094227
3566.000000	100.097612
3565.000000	100.097411
3564.000000	100.096259
3563.000000	100.098377
3562.000000	100.105284
3561.000000	100.114771
3560.000000	100.123006
3559.000000	100.127055
3558.000000	100.126361
3557.000000	100.122048
3556.000000	100.115846
3555.000000	100.109484
3554.000000	100.104543
3553.000000	100.101791
3552.000000	100.100646
3551.000000	100.099379
3550.000000	100.096507
3549.000000	100.091934
3548.000000	100.086990
3547.000000	100.084244
3546.000000	100.086282
3545.000000	100.092984
3544.000000	100.100725
3543.000000	100.105679
3542.000000	100.106589
3541.000000	100.104782
3540.000000	100.102956
3539.000000	100.103598
3538.000000	100.107531
3537.000000	100.112857
3536.000000	100.115947
3535.000000	100.114397
3534.000000	100.109225
3533.000000	100.104275
3532.000000	100.103121
3531.000000	100.106701
3530.000000	100.112705
3529.000000	100.117059
3528.000000	100.116665
3527.000000	100.111743
3526.000000	100.105634
3525.000000	100.102203
3524.000000	100.102853
3523.000000	100.105699
3522.000000	100.107889
3521.000000	100.108605
3520.000000	100.109246
3519.000000	100.110685
3518.000000	100.111689
3517.000000	100.110556
3516.000000	100.107234
3515.000000	100.103335
3514.000000	100.100237
3513.000000	100.098392
3512.000000	100.098096
3511.000000	100.100021
3510.000000	100.104321
3509.000000	100.109622
3508.000000	100.113578
3507.000000	100.114583
3506.000000	100.112819
3505.000000	100.109781
3504.000000	100.107782
3503.000000	100.108918
3502.000000	100.112906
3501.000000	100.116495
3500.000000	100.116172
3499.000000	100.111677
3498.000000	100.106774
3497.000000	100.106741
3496.000000	100.113480
3495.000000	100.122887
3494.000000	100.127923
3493.000000	100.125090
3492.000000	100.117436
3491.000000	100.111201
3490.000000	100.110208
3489.000000	100.113581
3488.000000	100.117926
3487.000000	100.120621
3486.000000	100.121204
3485.000000	100.120662
3484.000000	100.120119
3483.000000	100.120107
3482.000000	100.120604
3481.000000	100.121563
3480.000000	100.123209
3479.000000	100.125620
3478.000000	100.128271
3477.000000	100.130198
3476.000000	100.130589
3475.000000	100.129065
3474.000000	100.125814
3473.000000	100.121895
3472.000000	100.119089
3471.000000	100.118676
3470.000000	100.120165
3469.000000	100.121694
3468.000000	100.121707
3467.000000	100.119973
3466.000000	100.117429
3465.000000	100.115595
3464.000000	100.115885
3463.000000	100.118539
3462.000000	100.121945
3461.000000	100.123879
3460.000000	100.123759
3459.000000	100.123201
3458.000000	100.124043
3457.000000	100.126264
3456.000000	100.128346
3455.000000	100.129297
3454.000000	100.129538
3453.000000	100.130007
3452.000000	100.130764
3451.000000	100.130996
3450.000000	100.129993
3449.000000	100.128143
3448.000000	100.127094
3447.000000	100.128509
3446.000000	100.131786
3445.000000	100.133746
3444.000000	100.131371
3443.000000	100.124600
3442.000000	100.116394
3441.000000	100.110331
3440.000000	100.108500
3439.000000	100.110971
3438.000000	100.116006
3437.000000	100.120652
3436.000000	100.122603
3435.000000	100.122260
3434.000000	100.122011
3433.000000	100.123135
3432.000000	100.124125
3431.000000	100.123138
3430.000000	100.120927
3429.000000	100.120258
3428.000000	100.122748
3427.000000	100.127266
3426.000000	100.131362
3425.000000	100.133276
3424.000000	100.132597
3423.000000	100.129747
3422.000000	100.125349
3421.000000	100.120002
3420.000000	100.114394
3419.000000	100.109599
3418.000000	100.107036
3417.000000	100.107836
3416.000000	100.111766
3415.000000	100.116663
3414.000000	100.119232
3413.000000	100.117230
3412.000000	100.111538
3411.000000	100.105840
3410.000000	100.103762
3409.000000	100.106168
3408.000000	100.111309
3407.000000	100.116979
3406.000000	100.121925
3405.000000	100.125554
3404.000000	100.127441
3403.000000	100.127561
3402.000000	100.126311
3401.000000	100.123971
3400.000000	100.120249
3399.000000	100.114802
3398.000000	100.108185
3397.000000	100.102176
3396.000000	100.098951
3395.000000	100.099740
3394.000000	100.103984
3393.000000	100.109672
3392.000000	100.114631
3391.000000	100.117684
3390.000000	100.118815
3389.000000	100.118483
3388.000000	100.116923
3387.000000	100.113953
3386.000000	100.109291
3385.000000	100.103124
3384.000000	100.096381
3383.000000	100.090433
3382.000000	100.086485
3381.000000	100.085270
3380.000000	100.086695
3379.000000	100.089286
3378.000000	100.090230
3377.000000	100.087088
3376.000000	100.080082
3375.000000	100.072399
3374.000000	100.067758
3373.000000	100.067511
3372.000000	100.069947
3371.000000	100.072004
3370.000000	100.071523
3369.000000	100.068299
3368.000000	100.063735
3367.000000	100.059729
3366.000000	100.057691
3365.000000	100.058055
3364.000000	100.060227
3363.000000	100.062838
3362.000000	100.064442
3361.000000	100.064482
3360.000000	100.063481
3359.000000	100.061922
3358.000000	100.059174
3357.000000	100.054191
3356.000000	100.047315
3355.000000	100.040716
3354.000000	100.036750
3353.000000	100.036315
3352.000000	100.038811
3351.000000	100.042660
3350.000000	100.045454
3349.000000	100.044734
3348.000000	100.039957
3347.000000	100.033456
3346.000000	100.028558
3345.000000	100.026770
3344.000000	100.027197
3343.000000	100.028231
3342.000000	100.028567
3341.000000	100.026779
3340.000000	100.021739
3339.000000	100.014483
3338.000000	100.008601
3337.000000	100.007249
3336.000000	100.009612
3335.000000	100.011311
3334.000000	100.008827
3333.000000	100.003132
3332.000000	99.998628
3331.000000	99.998896
3330.000000	100.003619
3329.000000	100.009097
3328.000000	100.011252
3327.000000	100.008226
3326.000000	100.000961
3325.000000	99.992183
3324.000000	99.984981
3323.000000	99.981722
3322.000000	99.983340
3321.000000	99.989253
3320.000000	99.997770
3319.000000	100.006482
3318.000000	100.012511
3317.000000	100.013318
3316.000000	100.008287
3315.000000	99.999757
3314.000000	99.991787
3313.000000	99.987237
3312.000000	99.986060
3311.000000	99.986540
3310.000000	99.987756
3309.000000	99.990203
3308.000000	99.993936
3307.000000	99.996937
3306.000000	99.996132
3305.000000	99.990002
3304.000000	99.979940
3303.000000	99.969058
3302.000000	99.959902
3301.000000	99.953303
3300.000000	99.948993
3299.000000	99.946814
3298.000000	99.947168
3297.000000	99.950479
3296.000000	99.956111
3295.000000	99.961897
3294.000000	99.965141
3293.000000	99.964682
3292.000000	99.961930
3291.000000	99.959527
3290.000000	99.958847
3289.000000	99.959012
3288.000000	99.958144
3287.000000	99.955117
3286.000000	99.950234
3285.000000	99.944977
3284.000000	99.941288
3283.000000	99.940252
3282.000000	99.940946
3281.000000	99.940990
3280.000000	99.938892
3279.000000	99.935496
3278.000000	99.932803
3277.000000	99.931719
3276.000000	99.931459
3275.000000	99.931055
3274.000000	99.930624
3273.000000	99.930985
3272.000000	99.932491
3271.000000	99.934537
3270.000000	99.936019
3269.000000	99.936074
3268.000000	99.934493
3267.000000	99.931730
3266.000000	99.928783
3265.000000	99.927113
3264.000000	99.928144
3263.000000	99.932104
3262.000000	99.937322
3261.000000	99.941246
3260.000000	99.942539
3259.000000	99.941786
3258.000000	99.940173
3257.000000	99.938185
3256.000000	99.935930
3255.000000	99.933954
3254.000000	99.932803
3253.000000	99.932096
3252.000000	99.930956
3251.000000	99.929434
3250.000000	99.928631
3249.000000	99.929197
3248.000000	99.930327
3247.000000	99.930622
3246.000000	99.929536
3245.000000	99.927632
3244.000000	99.925610
3243.000000	99.923699
3242.000000	99.922072
3241.000000	99.921508
3240.000000	99.923283
3239.000000	99.928106
3238.000000	99.935122
3237.000000	99.941961
3236.000000	99.946043
3235.000000	99.946073
3234.000000	99.942481
3233.000000	99.936836
3232.000000	99.931135
3231.000000	99.927444
3230.000000	99.927198
3229.000000	99.930108
3228.000000	99.933899
3227.000000	99.935827
3226.000000	99.934905
3225.000000	99.932484
3224.000000	99.930618
3223.000000	99.930038
3222.000000	99.929888
3221.000000	99.929186
3220.000000	99.928039
3219.000000	99.927170
3218.000000	99.926631
3217.000000	99.925625
3216.000000	99.923822
3215.000000	99.922400
3214.000000	99.922950
3213.000000	99.925060
3212.000000	99.925687
3211.000000	99.921767
3210.000000	99.913565
3209.000000	99.904742
3208.000000	99.899202
3207.000000	99.898136
3206.000000	99.900121
3205.000000	99.903028
3204.000000	99.905347
3203.000000	99.906529
3202.000000	99.907074
3201.000000	99.908140
3200.000000	99.910443
3199.000000	99.913368
3198.000000	99.915491
3197.000000	99.915745
3196.000000	99.913871
3195.000000	99.910250
3194.000000	99.906039
3193.000000	99.903141
3192.000000	99.903020
3191.000000	99.905297
3190.000000	99.908126
3189.000000	99.910086
3188.000000	99.911179
3187.000000	99.911877
3186.000000	99.912031
3185.000000	99.910975
3184.000000	99.908329
3183.000000	99.904459
3182.000000	99.900629
3181.000000	99.898575
3180.000000	99.899107
3179.000000	99.900912
3178.000000	99.901499
3177.000000	99.899822
3176.000000	99.897257
3175.000000	99.895519
3174.000000	99.894518
3173.000000	99.893110
3172.000000	99.891304
3171.000000	99.890559
3170.000000	99.891874
3169.000000	99.894735
3168.000000	99.898243
3167.000000	99.902419
3166.000000	99.907606
3165.000000	99.912772
3164.000000	99.915355
3163.000000	99.913395
3162.000000	99.907856
3161.000000	99.902192
3160.000000	99.899246
3159.000000	99.898586
3158.000000	99.897280
3157.000000	99.893308
3156.000000	99.887829
3155.000000	99.884014
3154.000000	99.884067
3153.000000	99.887718
3152.000000	99.893234
3151.000000	99.899219
3150.000000	99.904906
3149.000000	99.908962
3148.000000	99.908852
3147.000000	99.902515
3146.000000	99.891229
3145.000000	99.880176
3144.000000	99.875219
3143.000000	99.878374
3142.000000	99.886620
3141.000000	99.894935
3140.000000	99.900199
3139.000000	99.902411
3138.000000	99.903429
3137.000000	99.905170
3136.000000	99.908345
3135.000000	99.911875
3134.000000	99.913686
3133.000000	99.912653
3132.000000	99.909828
3131.000000	99.907598
3130.000000	99.907856
3129.000000	99.910924
3128.000000	99.915432
3127.000000	99.918868
3126.000000	99.919040
3125.000000	99.915934
3124.000000	99.912125
3123.000000	99.910644
3122.000000	99.912307
3121.000000	99.915127
3120.000000	99.916086
3119.000000	99.913144
3118.000000	99.906370
3117.000000	99.898304
3116.000000	99.893092
3115.000000	99.893621
3114.000000	99.898771
3113.000000	99.903970
3112.000000	99.905124
3111.000000	99.901943
3110.000000	99.897512
3109.000000	99.895110
3108.000000	99.895708
3107.000000	99.897847
3106.000000	99.898917
3105.000000	99.896724
3104.000000	99.890889
3103.000000	99.883263
3102.000000	99.876674
3101.000000	99.872961
3100.000000	99.872198
3099.000000	99.873370
3098.000000	99.875096
3097.000000	99.875992
3096.000000	99.875451
3095.000000	99.874656
3094.000000	99.876031
3093.000000	99.880942
3092.000000	99.887871
3091.000000	99.893134
3090.000000	99.893420
3089.000000	99.887946
3088.000000	99.878857
3087.000000	99.869778
3086.000000	99.863475
3085.000000	99.860269
3084.000000	99.858848
3083.000000	99.858492
3082.000000	99.859976
3081.000000	99.863855
3080.000000	99.868855
3079.000000	99.872976
3078.000000	99.875931
3077.000000	99.879045
3076.000000	99.882453
3075.000000	99.883624
3074.000000	99.879699
3073.000000	99.870978
3072.000000	99.861383
3071.000000	99.855497
3070.000000	99.855198
3069.000000	99.858598
3068.000000	99.861696
3067.000000	99.861345
3066.000000	99.857521
3065.000000	99.853075
3064.000000	99.851022
3063.000000	99.852090
3062.000000	99.854809
3061.000000	99.857323
3060.000000	99.858509
3059.000000	99.857818
3058.000000	99.855381
3057.000000	99.852663
3056.000000	99.851940
3055.000000	99.854421
3054.000000	99.859057
3053.000000	99.863623
3052.000000	99.866287
3051.000000	99.865947
3050.000000	99.862181
3049.000000	99.856163
3048.000000	99.851130
3047.000000	99.850297
3046.000000	99.853809
3045.000000	99.858411
3044.000000	99.860571
3043.000000	99.859566
3042.000000	99.857516
3041.000000	99.856871
3040.000000	99.858269
3039.000000	99.860446
3038.000000	99.861809
3037.000000	99.861883
3036.000000	99.861259
3035.000000	99.860432
3034.000000	99.859192
3033.000000	99.857268
3032.000000	99.854958
3031.000000	99.852634
3030.000000	99.850260
3029.000000	99.848158
3028.000000	99.847694
3027.000000	99.850186
3026.000000	99.854976
3025.000000	99.859396
3024.000000	99.861043
3023.000000	99.859882
3022.000000	99.858050
3021.000000	99.857923
3020.000000	99.860318
3019.000000	99.863917
3018.000000	99.866201
3017.000000	99.865208
3016.000000	99.860734
3015.000000	99.854049
3014.000000	99.847141
3013.000000	99.842444
3012.000000	99.842184
3011.000000	99.846249
3010.000000	99.850936
3009.000000	99.851550
3008.000000	99.846994
3007.000000	99.840996
3006.000000	99.838192
3005.000000	99.839669
3004.000000	99.842663
3003.000000	99.843791
3002.000000	99.841820
3001.000000	99.837989
3000.000000	99.834749
2999.000000	99.834212
2998.000000	99.836993
2997.000000	99.842278
2996.000000	99.848890
2995.000000	99.855795
2994.000000	99.861388
2993.000000	99.863124
2992.000000	99.858994
2991.000000	99.849584
2990.000000	99.838370
2989.000000	99.829768
2988.000000	99.826646
2987.000000	99.828821
2986.000000	99.833202
2985.000000	99.835612
2984.000000	99.833148
2983.000000	99.825729
2982.000000	99.815852
2981.000000	99.807235
2980.000000	99.802808
2979.000000	99.802869
2978.000000	99.804519
2977.000000	99.803651
2976.000000	99.798091
2975.000000	99.788784
2974.000000	99.777953
2973.000000	99.766910
2972.000000	99.756081
2971.000000	99.746075
2970.000000	99.737483
2969.000000	99.729809
2968.000000	99.721900
2967.000000	99.713659
2966.000000	99.706418
2965.000000	99.701007
2964.000000	99.696007
2963.000000	99.688694
2962.000000	99.677705
2961.000000	99.664423
2960.000000	99.651643
2959.000000	99.641176
2958.000000	99.632852
2957.000000	99.625474
2956.000000	99.618322
2955.000000	99.611793
2954.000000	99.607140
2953.000000	99.605834
2952.000000	99.608538
2951.000000	99.613942
2950.000000	99.618658
2949.000000	99.619087
2948.000000	99.613942
2947.000000	99.604960
2946.000000	99.595139
2945.000000	99.586359
2944.000000	99.578354
2943.000000	99.569192
2942.000000	99.556638
2941.000000	99.539763
2940.000000	99.519810
2939.000000	99.499240
2938.000000	99.479502
2937.000000	99.459870
2936.000000	99.438550
2935.000000	99.414677
2934.000000	99.388877
2933.000000	99.362118
2932.000000	99.334415
2931.000000	99.304846
2930.000000	99.272693
2929.000000	99.238357
2928.000000	99.203006
2927.000000	99.167649
2926.000000	99.133209
2925.000000	99.101653
2924.000000	99.075851
2923.000000	99.057193
2922.000000	99.043804
2921.000000	99.032655
2920.000000	99.023844
2919.000000	99.021589
2918.000000	99.030466
2917.000000	99.051453
2916.000000	99.082019
2915.000000	99.119175
2914.000000	99.161280
2913.000000	99.207332
2912.000000	99.255184
2911.000000	99.300898
2910.000000	99.339886
2909.000000	99.369801
2908.000000	99.392746
2907.000000	99.413854
2906.000000	99.436650
2905.000000	99.460073
2904.000000	99.480484
2903.000000	99.495918
2902.000000	99.507238
2901.000000	99.516485
2900.000000	99.524741
2899.000000	99.533277
2898.000000	99.543950
2897.000000	99.557756
2896.000000	99.573391
2895.000000	99.587942
2894.000000	99.599044
2893.000000	99.606256
2892.000000	99.610988
2891.000000	99.615628
2890.000000	99.622257
2889.000000	99.631344
2888.000000	99.641200
2887.000000	99.648962
2886.000000	99.652785
2885.000000	99.653553
2884.000000	99.654430
2883.000000	99.658055
2882.000000	99.663927
2881.000000	99.668947
2880.000000	99.670904
2879.000000	99.670811
2878.000000	99.671220
2877.000000	99.672824
2876.000000	99.673687
2875.000000	99.671630
2874.000000	99.666207
2873.000000	99.658240
2872.000000	99.648748
2871.000000	99.639066
2870.000000	99.631125
2869.000000	99.626272
2868.000000	99.623761
2867.000000	99.621006
2866.000000	99.615551
2865.000000	99.606774
2864.000000	99.595898
2863.000000	99.584700
2862.000000	99.573878
2861.000000	99.561981
2860.000000	99.545830
2859.000000	99.522376
2858.000000	99.490789
2857.000000	99.453302
2856.000000	99.414318
2855.000000	99.378446
2854.000000	99.348648
2853.000000	99.325557
2852.000000	99.308634
2851.000000	99.298476
2850.000000	99.297952
2849.000000	99.310784
2848.000000	99.338503
2847.000000	99.378816
2846.000000	99.426786
2845.000000	99.477404
2844.000000	99.526829
2843.000000	99.572073
2842.000000	99.610681
2841.000000	99.641431
2840.000000	99.665144
2839.000000	99.683976
2838.000000	99.699798
2837.000000	99.713434
2836.000000	99.725203
2835.000000	99.735518
2834.000000	99.744756
2833.000000	99.753081
2832.000000	99.760803
2831.000000	99.768432
2830.000000	99.775886
2829.000000	99.781900
2828.000000	99.784771
2827.000000	99.783766
2826.000000	99.779803
2825.000000	99.775019
2824.000000	99.771982
2823.000000	99.772819
2822.000000	99.778221
2821.000000	99.786941
2820.000000	99.796482
2819.000000	99.804653
2818.000000	99.810755
2817.000000	99.815591
2816.000000	99.820268
2815.000000	99.824586
2814.000000	99.826550
2813.000000	99.824097
2812.000000	99.817668
2811.000000	99.810471
2810.000000	99.805670
2809.000000	99.803713
2808.000000	99.803123
2807.000000	99.803270
2806.000000	99.805164
2805.000000	99.809487
2804.000000	99.814961
2803.000000	99.819375
2802.000000	99.821811
2801.000000	99.823361
2800.000000	99.825729
2799.000000	99.829177
2798.000000	99.831818
2797.000000	99.831282
2796.000000	99.827400
2795.000000	99.822866
2794.000000	99.820668
2793.000000	99.821314
2792.000000	99.823260
2791.000000	99.825391
2790.000000	99.827715
2789.000000	99.829809
2788.000000	99.830537
2787.000000	99.829955
2786.000000	99.829830
2785.000000	99.830989
2784.000000	99.831309
2783.000000	99.828063
2782.000000	99.821799
2781.000000	99.816371
2780.000000	99.814971
2779.000000	99.817372
2778.000000	99.821152
2777.000000	99.824373
2776.000000	99.826514
2775.000000	99.827823
2774.000000	99.828696
2773.000000	99.829499
2772.000000	99.830380
2771.000000	99.831273
2770.000000	99.832323
2769.000000	99.834045
2768.000000	99.836690
2767.000000	99.839537
2766.000000	99.841236
2765.000000	99.841058
2764.000000	99.839737
2763.000000	99.838947
2762.000000	99.839806
2761.000000	99.841772
2760.000000	99.843094
2759.000000	99.842513
2758.000000	99.840544
2757.000000	99.838906
2756.000000	99.838744
2755.000000	99.839640
2754.000000	99.840422
2753.000000	99.840654
2752.000000	99.841065
2751.000000	99.842586
2750.000000	99.845148
2749.000000	99.847510
2748.000000	99.848187
2747.000000	99.846550
2746.000000	99.843035
2745.000000	99.838509
2744.000000	99.833682
2743.000000	99.829312
2742.000000	99.826564
2741.000000	99.826545
2740.000000	99.829224
2739.000000	99.833185
2738.000000	99.836863
2737.000000	99.839954
2736.000000	99.843228
2735.000000	99.846953
2734.000000	99.850055
2733.000000	99.851286
2732.000000	99.850961
2731.000000	99.850811
2730.000000	99.851844
2729.000000	99.852864
2728.000000	99.851726
2727.000000	99.847936
2726.000000	99.843365
2725.000000	99.840330
2724.000000	99.839522
2723.000000	99.840161
2722.000000	99.841607
2721.000000	99.843976
2720.000000	99.847180
2719.000000	99.850126
2718.000000	99.851458
2717.000000	99.851008
2716.000000	99.850122
2715.000000	99.850350
2714.000000	99.851919
2713.000000	99.853656
2712.000000	99.854282
2711.000000	99.853431
2710.000000	99.851402
2709.000000	99.848535
2708.000000	99.845536
2707.000000	99.844169
2706.000000	99.846415
2705.000000	99.852173
2704.000000	99.858322
2703.000000	99.861060
2702.000000	99.859480
2701.000000	99.856458
2700.000000	99.855800
2699.000000	99.858592
2698.000000	99.862286
2697.000000	99.863082
2696.000000	99.859377
2695.000000	99.853321
2694.000000	99.849129
2693.000000	99.849608
2692.000000	99.854037
2691.000000	99.859224
2690.000000	99.862307
2689.000000	99.862436
2688.000000	99.860444
2687.000000	99.857946
2686.000000	99.856797
2685.000000	99.858307
2684.000000	99.862011
2683.000000	99.865416
2682.000000	99.865713
2681.000000	99.862072
2680.000000	99.856261
2679.000000	99.851086
2678.000000	99.848357
2677.000000	99.848105
2676.000000	99.849185
2675.000000	99.850300
2674.000000	99.850663
2673.000000	99.850261
2672.000000	99.849897
2671.000000	99.850781
2670.000000	99.853381
2669.000000	99.856413
2668.000000	99.857527
2667.000000	99.855518
2666.000000	99.851412
2665.000000	99.846822
2664.000000	99.841801
2663.000000	99.835523
2662.000000	99.828905
2661.000000	99.824837
2660.000000	99.825052
2659.000000	99.827977
2658.000000	99.830957
2657.000000	99.833748
2656.000000	99.838301
2655.000000	99.845315
2654.000000	99.852713
2653.000000	99.858026
2652.000000	99.860861
2651.000000	99.862207
2650.000000	99.862393
2649.000000	99.861123
2648.000000	99.859120
2647.000000	99.858194
2646.000000	99.859002
2645.000000	99.859624
2644.000000	99.857529
2643.000000	99.852939
2642.000000	99.849258
2641.000000	99.849570
2640.000000	99.853259
2639.000000	99.856994
2638.000000	99.858800
2637.000000	99.859870
2636.000000	99.862010
2635.000000	99.864717
2634.000000	99.866017
2633.000000	99.865470
2632.000000	99.864932
2631.000000	99.866441
2630.000000	99.870401
2629.000000	99.875766
2628.000000	99.880853
2627.000000	99.883889
2626.000000	99.883842
2625.000000	99.881196
2624.000000	99.877483
2623.000000	99.874175
2622.000000	99.872684
2621.000000	99.874699
2620.000000	99.880759
2619.000000	99.888392
2618.000000	99.893420
2617.000000	99.893904
2616.000000	99.891624
2615.000000	99.889291
2614.000000	99.887998
2613.000000	99.887941
2612.000000	99.889458
2611.000000	99.891492
2610.000000	99.890714
2609.000000	99.884765
2608.000000	99.875904
2607.000000	99.869398
2606.000000	99.868229
2605.000000	99.871084
2604.000000	99.875224
2603.000000	99.879375
2602.000000	99.883479
2601.000000	99.887622
2600.000000	99.892491
2599.000000	99.899519
2598.000000	99.909072
2597.000000	99.918771
2596.000000	99.924845
2595.000000	99.925622
2594.000000	99.923315
2593.000000	99.921876
2592.000000	99.922794
2591.000000	99.923488
2590.000000	99.920464
2589.000000	99.913901
2588.000000	99.907954
2587.000000	99.906083
2586.000000	99.907663
2585.000000	99.910204
2584.000000	99.913365
2583.000000	99.918726
2582.000000	99.926189
2581.000000	99.932964
2580.000000	99.936347
2579.000000	99.935862
2578.000000	99.932251
2577.000000	99.926228
2576.000000	99.919214
2575.000000	99.914099
2574.000000	99.913888
2573.000000	99.919537
2572.000000	99.929139
2571.000000	99.938780
2570.000000	99.944494
2569.000000	99.944672
2568.000000	99.941233
2567.000000	99.937962
2566.000000	99.937471
2565.000000	99.939901
2564.000000	99.943563
2563.000000	99.945547
2562.000000	99.942506
2561.000000	99.933543
2560.000000	99.922919
2559.000000	99.917461
2558.000000	99.919692
2557.000000	99.924915
2556.000000	99.926447
2555.000000	99.922535
2554.000000	99.916806
2553.000000	99.913278
2552.000000	99.913199
2551.000000	99.915945
2550.000000	99.920384
2549.000000	99.924499
2548.000000	99.925343
2547.000000	99.920742
2546.000000	99.911210
2545.000000	99.900197
2544.000000	99.892709
2543.000000	99.892805
2542.000000	99.901086
2541.000000	99.914103
2540.000000	99.926697
2539.000000	99.935090
2538.000000	99.937771
2537.000000	99.934781
2536.000000	99.927773
2535.000000	99.920306
2534.000000	99.915818
2533.000000	99.914577
2532.000000	99.913912
2531.000000	99.912131
2530.000000	99.910670
2529.000000	99.911384
2528.000000	99.913293
2527.000000	99.913825
2526.000000	99.912411
2525.000000	99.910814
2524.000000	99.910147
2523.000000	99.909661
2522.000000	99.908807
2521.000000	99.908445
2520.000000	99.908780
2519.000000	99.907456
2518.000000	99.901475
2517.000000	99.891043
2516.000000	99.880629
2515.000000	99.875870
2514.000000	99.879095
2513.000000	99.887210
2512.000000	99.893946
2511.000000	99.895208
2510.000000	99.892226
2509.000000	99.888608
2508.000000	99.884912
2507.000000	99.878822
2506.000000	99.871381
2505.000000	99.869284
2504.000000	99.877801
2503.000000	99.893082
2502.000000	99.905434
2501.000000	99.910063
2500.000000	99.910912
2499.000000	99.913673
2498.000000	99.918272
2497.000000	99.920154
2496.000000	99.916230
2495.000000	99.907665
2494.000000	99.898588
2493.000000	99.893655
2492.000000	99.895270
2491.000000	99.901356
2490.000000	99.906961
2489.000000	99.909563
2488.000000	99.911469
2487.000000	99.915541
2486.000000	99.920368
2485.000000	99.921951
2484.000000	99.919235
2483.000000	99.915539
2482.000000	99.914962
2481.000000	99.919667
2480.000000	99.929949
2479.000000	99.944124
2478.000000	99.957575
2477.000000	99.964478
2476.000000	99.962309
2475.000000	99.954214
2474.000000	99.946168
2473.000000	99.942145
2472.000000	99.942115
2471.000000	99.943524
2470.000000	99.944040
2469.000000	99.943316
2468.000000	99.942682
2467.000000	99.943328
2466.000000	99.944993
2465.000000	99.946526
2464.000000	99.947287
2463.000000	99.947680
2462.000000	99.948787
2461.000000	99.951840
2460.000000	99.957078
2459.000000	99.962332
2458.000000	99.963602
2457.000000	99.958458
2456.000000	99.948825
2455.000000	99.939540
2454.000000	99.934140
2453.000000	99.932458
2452.000000	99.931590
2451.000000	99.928337
2450.000000	99.921743
2449.000000	99.914557
2448.000000	99.911737
2447.000000	99.916003
2446.000000	99.924961
2445.000000	99.933855
2444.000000	99.940773
2443.000000	99.947751
2442.000000	99.956886
2441.000000	99.967173
2440.000000	99.975475
2439.000000	99.979072
2438.000000	99.976567
2437.000000	99.968163
2436.000000	99.956618
2435.000000	99.947231
2434.000000	99.944997
2433.000000	99.950684
2432.000000	99.959900
2431.000000	99.966832
2430.000000	99.969369
2429.000000	99.970357
2428.000000	99.973593
2427.000000	99.978896
2426.000000	99.982258
2425.000000	99.980848
2424.000000	99.976493
2423.000000	99.973358
2422.000000	99.972971
2421.000000	99.972815
2420.000000	99.969553
2419.000000	99.962749
2418.000000	99.955170
2417.000000	99.949841
2416.000000	99.947279
2415.000000	99.946223
2414.000000	99.946723
2413.000000	99.950651
2412.000000	99.957599
2411.000000	99.962197
2410.000000	99.959026
2409.000000	99.950286
2408.000000	99.945181
2407.000000	99.950066
2406.000000	99.961678
2405.000000	99.971389
2404.000000	99.973589
2403.000000	99.968493
2402.000000	99.959875
2401.000000	99.952939
2400.000000	99.952219
2399.000000	99.957963
2398.000000	99.965328
2397.000000	99.969310
2396.000000	99.969508
2395.000000	99.968216
2394.000000	99.965862
2393.000000	99.961544
2392.000000	99.956859
2391.000000	99.955683
2390.000000	99.959881
2389.000000	99.967575
2388.000000	99.976087
2387.000000	99.983430
2386.000000	99.988035
2385.000000	99.988903
2384.000000	99.986602
2383.000000	99.983335
2382.000000	99.980404
2381.000000	99.978813
2380.000000	99.979983
2379.000000	99.983746
2378.000000	99.986756
2377.000000	99.985267
2376.000000	99.980007
2375.000000	99.975453
2374.000000	99.975932
2373.000000	99.983149
2372.000000	99.996041
2371.000000	100.009518
2370.000000	100.016708
2369.000000	100.016235
2368.000000	100.011208
2367.000000	100.002647
2366.000000	99.989255
2365.000000	99.975416
2364.000000	99.970739
2363.000000	99.975724
2362.000000	99.980055
2361.000000	99.979307
2360.000000	99.980954
2359.000000	99.992392
2358.000000	100.010550
2357.000000	100.024510
2356.000000	100.022207
2355.000000	99.996755
2354.000000	99.965153
2353.000000	99.952864
2352.000000	99.963346
2351.000000	99.975458
2350.000000	99.973729
2349.000000	99.960835
2348.000000	99.949531
2347.000000	99.952029
2346.000000	99.965733
2345.000000	99.969289
2344.000000	99.950313
2343.000000	99.924809
2342.000000	99.918737
2341.000000	99.937790
2340.000000	99.961315
2339.000000	99.965657
2338.000000	99.948574
2337.000000	99.927376
2336.000000	99.916772
2335.000000	99.922089
2334.000000	99.942976
2333.000000	99.975115
2332.000000	100.001042
2331.000000	100.005832
2330.000000	99.988637
2329.000000	99.963956
2328.000000	99.939543
2327.000000	99.918166
2326.000000	99.902945
2325.000000	99.900117
2324.000000	99.909736
2323.000000	99.924997
2322.000000	99.935462
2321.000000	99.933677
2320.000000	99.916374
2319.000000	99.889235
2318.000000	99.861470
2317.000000	99.843268
2316.000000	99.837694
2315.000000	99.845161
2314.000000	99.860834
2313.000000	99.879009
2312.000000	99.892258
2311.000000	99.899705
2310.000000	99.904858
2309.000000	99.912699
2308.000000	99.922795
2307.000000	99.931907
2306.000000	99.935430
2305.000000	99.931421
2304.000000	99.921458
2303.000000	99.912063
2302.000000	99.909340
2301.000000	99.915375
2300.000000	99.926306
2299.000000	99.937517
2298.000000	99.943681
2297.000000	99.941076
2296.000000	99.927708
2295.000000	99.908316
2294.000000	99.892156
2293.000000	99.887745
2292.000000	99.895846
2291.000000	99.909979
2290.000000	99.921450
2289.000000	99.925253
2288.000000	99.922225
2287.000000	99.916232
2286.000000	99.909964
2285.000000	99.903452
2284.000000	99.897652
2283.000000	99.895556
2282.000000	99.899294
2281.000000	99.906902
2280.000000	99.915272
2279.000000	99.923802
2278.000000	99.932707
2277.000000	99.939127
2276.000000	99.938415
2275.000000	99.930326
2274.000000	99.921056
2273.000000	99.918644
2272.000000	99.926435
2271.000000	99.941145
2270.000000	99.955645
2269.000000	99.964591
2268.000000	99.968347
2267.000000	99.970846
2266.000000	99.972216
2265.000000	99.966344
2264.000000	99.949270
2263.000000	99.928654
2262.000000	99.919803
2261.000000	99.930544
2260.000000	99.952896
2259.000000	99.971291
2258.000000	99.977170
2257.000000	99.972992
2256.000000	99.964154
2255.000000	99.951176
2254.000000	99.932314
2253.000000	99.911870
2252.000000	99.900374
2251.000000	99.904585
2250.000000	99.920391
2249.000000	99.939026
2248.000000	99.956855
2247.000000	99.975387
2246.000000	99.992864
2245.000000	100.004038
2244.000000	100.008814
2243.000000	100.013951
2242.000000	100.022585
2241.000000	100.028065
2240.000000	100.022027
2239.000000	100.004346
2238.000000	99.981522
2237.000000	99.960147
2236.000000	99.945438
2235.000000	99.941368
2234.000000	99.947574
2233.000000	99.959047
2232.000000	99.971699
2231.000000	99.984191
2230.000000	99.992624
2229.000000	99.991040
2228.000000	99.982270
2227.000000	99.980436
2226.000000	99.995093
2225.000000	100.018009
2224.000000	100.033168
2223.000000	100.034997
2222.000000	100.028890
2221.000000	100.018904
2220.000000	100.004042
2219.000000	99.983846
2218.000000	99.959679
2217.000000	99.934024
2216.000000	99.915377
2215.000000	99.918235
2214.000000	99.947460
2213.000000	99.985834
2212.000000	100.007982
2211.000000	100.005758
2210.000000	99.989461
2209.000000	99.967462
2208.000000	99.938787
2207.000000	99.906026
2206.000000	99.881490
2205.000000	99.874401
2204.000000	99.880895
2203.000000	99.891419
2202.000000	99.901455
2201.000000	99.911519
2200.000000	99.923553
2199.000000	99.940261
2198.000000	99.961628
2197.000000	99.979987
2196.000000	99.985676
2195.000000	99.980241
2194.000000	99.977265
2193.000000	99.987368
2192.000000	100.006786
2191.000000	100.021977
2190.000000	100.019958
2189.000000	99.995745
2188.000000	99.959025
2187.000000	99.933407
2186.000000	99.937847
2185.000000	99.964128
2184.000000	99.980239
2183.000000	99.962825
2182.000000	99.921606
2181.000000	99.888869
2180.000000	99.890852
2179.000000	99.930746
2178.000000	99.990565
2177.000000	100.041819
2176.000000	100.061599
2175.000000	100.047110
2174.000000	100.013721
2173.000000	99.979183
2172.000000	99.955031
2171.000000	99.949187
2170.000000	99.964170
2169.000000	99.987434
2168.000000	99.992903
2167.000000	99.961210
2166.000000	99.896594
2165.000000	99.822309
2164.000000	99.764199
2163.000000	99.739877
2162.000000	99.757268
2161.000000	99.813786
2160.000000	99.894960
2159.000000	99.977281
2158.000000	100.035839
2157.000000	100.058782
2156.000000	100.061531
2155.000000	100.076347
2154.000000	100.117935
2153.000000	100.163033
2152.000000	100.174146
2151.000000	100.141870
2150.000000	100.093119
2149.000000	100.059312
2148.000000	100.049406
2147.000000	100.055982
2146.000000	100.071593
2145.000000	100.089407
2144.000000	100.099171
2143.000000	100.096010
2142.000000	100.088674
2141.000000	100.090151
2140.000000	100.102051
2139.000000	100.114244
2138.000000	100.117007
2137.000000	100.107729
2136.000000	100.089328
2135.000000	100.068241
2134.000000	100.052288
2133.000000	100.044590
2132.000000	100.039968
2131.000000	100.031728
2130.000000	100.021043
2129.000000	100.015542
2128.000000	100.019412
2127.000000	100.028998
2126.000000	100.038147
2125.000000	100.043612
2124.000000	100.043814
2123.000000	100.036578
2122.000000	100.021625
2121.000000	100.003999
2120.000000	99.991612
2119.000000	99.988803
2118.000000	99.993817
2117.000000	100.002248
2116.000000	100.010924
2115.000000	100.017812
2114.000000	100.020390
2113.000000	100.016982
2112.000000	100.009849
2111.000000	100.004616
2110.000000	100.005060
2109.000000	100.009520
2108.000000	100.013250
2107.000000	100.013477
2106.000000	100.011020
2105.000000	100.008376
2104.000000	100.008148
2103.000000	100.012738
2102.000000	100.023184
2101.000000	100.037327
2100.000000	100.050166
2099.000000	100.056816
2098.000000	100.055495
2097.000000	100.049096
2096.000000	100.044411
2095.000000	100.047186
2094.000000	100.055469
2093.000000	100.059543
2092.000000	100.052180
2091.000000	100.038249
2090.000000	100.030081
2089.000000	100.032281
2088.000000	100.034648
2087.000000	100.023860
2086.000000	99.999727
2085.000000	99.976037
2084.000000	99.966155
2083.000000	99.971405
2082.000000	99.984286
2081.000000	99.998021
2080.000000	100.009185
2079.000000	100.014043
2078.000000	100.008225
2077.000000	99.992017
2076.000000	99.972793
2075.000000	99.959520
2074.000000	99.955973
2073.000000	99.960278
2072.000000	99.968754
2071.000000	99.977963
2070.000000	99.984620
2069.000000	99.986649
2068.000000	99.984506
2067.000000	99.979830
2066.000000	99.973610
2065.000000	99.967570
2064.000000	99.965655
2063.000000	99.970866
2062.000000	99.981162
2061.000000	99.990450
2060.000000	99.992337
2059.000000	99.981269
2058.000000	99.953834
2057.000000	99.915807
2056.000000	99.886216
2055.000000	99.884391
2054.000000	99.908619
2053.000000	99.934520
2052.000000	99.940727
2051.000000	99.930922
2050.000000	99.925325
2049.000000	99.934871
2048.000000	99.950682
2047.000000	99.959851
2046.000000	99.962830
2045.000000	99.968474
2044.000000	99.978213
2043.000000	99.982998
2042.000000	99.974819
2041.000000	99.956966
2040.000000	99.941017
2039.000000	99.934497
2038.000000	99.935099
2037.000000	99.937726
2036.000000	99.943831
2035.000000	99.959704
2034.000000	99.986208
2033.000000	100.015911
2032.000000	100.041890
2031.000000	100.064085
2030.000000	100.084897
2029.000000	100.105150
2028.000000	100.126503
2027.000000	100.149018
2026.000000	100.161937
2025.000000	100.147700
2024.000000	100.105373
2023.000000	100.062020
2022.000000	100.048630
2021.000000	100.065827
2020.000000	100.081048
2019.000000	100.063825
2018.000000	100.020103
2017.000000	99.989110
2016.000000	100.002544
2015.000000	100.050317
2014.000000	100.093308
2013.000000	100.102466
2012.000000	100.082336
2011.000000	100.058835
2010.000000	100.049986
2009.000000	100.054484
2008.000000	100.062699
2007.000000	100.068572
2006.000000	100.068975
2005.000000	100.060346
2004.000000	100.041906
2003.000000	100.018415
2002.000000	99.998148
2001.000000	99.990003
2000.000000	100.000091
1999.000000	100.027488
1998.000000	100.063959
1997.000000	100.099723
1996.000000	100.127568
1995.000000	100.138660
1994.000000	100.121175
1993.000000	100.076152
1992.000000	100.032160
1991.000000	100.022284
1990.000000	100.045276
1989.000000	100.068960
1988.000000	100.069394
1987.000000	100.049322
1986.000000	100.017798
1985.000000	99.973192
1984.000000	99.917527
1983.000000	99.870791
1982.000000	99.853936
1981.000000	99.865310
1980.000000	99.888330
1979.000000	99.917647
1978.000000	99.961148
1977.000000	100.016719
1976.000000	100.065165
1975.000000	100.089635
1974.000000	100.087332
1973.000000	100.064654
1972.000000	100.034842
1971.000000	100.016681
1970.000000	100.023939
1969.000000	100.055019
1968.000000	100.095822
1967.000000	100.131342
1966.000000	100.153969
1965.000000	100.164795
1964.000000	100.169189
1963.000000	100.167238
1962.000000	100.148390
1961.000000	100.104188
1960.000000	100.047759
1959.000000	100.007407
1958.000000	99.996774
1957.000000	100.002814
1956.000000	100.006770
1955.000000	100.006022
1954.000000	100.009072
1953.000000	100.018723
1952.000000	100.029052
1951.000000	100.033973
1950.000000	100.031812
1949.000000	100.024873
1948.000000	100.020019
1947.000000	100.025925
1946.000000	100.044362
1945.000000	100.067602
1944.000000	100.087759
1943.000000	100.102942
1942.000000	100.109985
1941.000000	100.100331
1940.000000	100.072957
1939.000000	100.042989
1938.000000	100.029740
1937.000000	100.039674
1936.000000	100.063197
1935.000000	100.085945
1934.000000	100.098478
1933.000000	100.098645
1932.000000	100.091578
1931.000000	100.086083
1930.000000	100.086653
1929.000000	100.089389
1928.000000	100.089585
1927.000000	100.090642
1926.000000	100.099290
1925.000000	100.114306
1924.000000	100.126801
1923.000000	100.131332
1922.000000	100.129319
1921.000000	100.119952
1920.000000	100.098054
1919.000000	100.064943
1918.000000	100.035031
1917.000000	100.022389
1916.000000	100.022702
1915.000000	100.023075
1914.000000	100.019818
1913.000000	100.016910
1912.000000	100.015048
1911.000000	100.010268
1910.000000	100.003126
1909.000000	100.001055
1908.000000	100.007892
1907.000000	100.018101
1906.000000	100.024493
1905.000000	100.026047
1904.000000	100.026792
1903.000000	100.030194
1902.000000	100.035708
1901.000000	100.039403
1900.000000	100.038741
1899.000000	100.036341
1898.000000	100.037372
1897.000000	100.043566
1896.000000	100.050697
1895.000000	100.053578
1894.000000	100.052442
1893.000000	100.051344
1892.000000	100.051964
1891.000000	100.052203
1890.000000	100.049676
1889.000000	100.045003
1888.000000	100.039940
1887.000000	100.035516
1886.000000	100.032911
1885.000000	100.033613
1884.000000	100.038089
1883.000000	100.044847
1882.000000	100.051607
1881.000000	100.056674
1880.000000	100.059926
1879.000000	100.062899
1878.000000	100.067900
1877.000000	100.077161
1876.000000	100.090698
1875.000000	100.103782
1874.000000	100.108298
1873.000000	100.100114
1872.000000	100.085344
1871.000000	100.076995
1870.000000	100.083998
1869.000000	100.102759
1868.000000	100.119796
1867.000000	100.125988
1866.000000	100.123719
1865.000000	100.117668
1864.000000	100.109977
1863.000000	100.102903
1862.000000	100.098717
1861.000000	100.096728
1860.000000	100.093852
1859.000000	100.089329
1858.000000	100.086671
1857.000000	100.089328
1856.000000	100.096902
1855.000000	100.107007
1854.000000	100.116119
1853.000000	100.118596
1852.000000	100.110584
1851.000000	100.095681
1850.000000	100.083090
1849.000000	100.079283
1848.000000	100.082348
1847.000000	100.085244
1846.000000	100.083377
1845.000000	100.077271
1844.000000	100.071800
1843.000000	100.073682
1842.000000	100.085450
1841.000000	100.101557
1840.000000	100.113387
1839.000000	100.115141
1838.000000	100.107083
1837.000000	100.096261
1836.000000	100.091394
1835.000000	100.095622
1834.000000	100.104873
1833.000000	100.113473
1832.000000	100.120472
1831.000000	100.126603
1830.000000	100.128879
1829.000000	100.124964
1828.000000	100.118235
1827.000000	100.113191
1826.000000	100.109671
1825.000000	100.104566
1824.000000	100.097162
1823.000000	100.090738
1822.000000	100.089155
1821.000000	100.094020
1820.000000	100.103873
1819.000000	100.114026
1818.000000	100.120133
1817.000000	100.122339
1816.000000	100.123738
1815.000000	100.125812
1814.000000	100.127545
1813.000000	100.128033
1812.000000	100.127833
1811.000000	100.126022
1810.000000	100.120367
1809.000000	100.111523
1808.000000	100.102073
1807.000000	100.093963
1806.000000	100.088044
1805.000000	100.083441
1804.000000	100.077817
1803.000000	100.069506
1802.000000	100.058876
1801.000000	100.048334
1800.000000	100.038940
1799.000000	100.029228
1798.000000	100.020534
1797.000000	100.015423
1796.000000	100.011560
1795.000000	100.003689
1794.000000	99.990937
1793.000000	99.981212
1792.000000	99.985767
1791.000000	100.004045
1790.000000	100.024885
1789.000000	100.040608
1788.000000	100.048942
1787.000000	100.050958
1786.000000	100.050308
1785.000000	100.051644
1784.000000	100.057289
1783.000000	100.065621
1782.000000	100.071891
1781.000000	100.072386
1780.000000	100.069060
1779.000000	100.068257
1778.000000	100.074442
1777.000000	100.085711
1776.000000	100.096355
1775.000000	100.102345
1774.000000	100.103392
1773.000000	100.101297
1772.000000	100.101275
1771.000000	100.106259
1770.000000	100.111049
1769.000000	100.110219
1768.000000	100.104609
1767.000000	100.099664
1766.000000	100.099302
1765.000000	100.102899
1764.000000	100.107891
1763.000000	100.112316
1762.000000	100.113403
1761.000000	100.110564
1760.000000	100.107703
1759.000000	100.105976
1758.000000	100.101090
1757.000000	100.088784
1756.000000	100.073207
1755.000000	100.062551
1754.000000	100.056298
1753.000000	100.047817
1752.000000	100.035401
1751.000000	100.025633
1750.000000	100.022758
1749.000000	100.020120
1748.000000	100.013829
1747.000000	100.009787
1746.000000	100.011681
1745.000000	100.015669
1744.000000	100.017087
1743.000000	100.014162
1742.000000	100.005513
1741.000000	99.991099
1740.000000	99.977435
1739.000000	99.973605
1738.000000	99.976838
1737.000000	99.975296
1736.000000	99.964790
1735.000000	99.956070
1734.000000	99.966955
1733.000000	99.995496
1732.000000	100.024062
1731.000000	100.047071
1730.000000	100.066741
1729.000000	100.080310
1728.000000	100.085280
1727.000000	100.086940
1726.000000	100.091652
1725.000000	100.099640
1724.000000	100.107132
1723.000000	100.113841
1722.000000	100.122641
1721.000000	100.134100
1720.000000	100.145764
1719.000000	100.151179
1718.000000	100.139764
1717.000000	100.121333
1716.000000	100.113442
1715.000000	100.112083
1714.000000	100.111002
1713.000000	100.108067
1712.000000	100.102314
1711.000000	100.096913
1710.000000	100.096518
1709.000000	100.101548
1708.000000	100.107209
1707.000000	100.108086
1706.000000	100.104610
1705.000000	100.103008
1704.000000	100.102310
1703.000000	100.092892
1702.000000	100.071352
1701.000000	100.046188
1700.000000	100.027059
1699.000000	100.016278
1698.000000	100.012934
1697.000000	100.010922
1696.000000	100.008422
1695.000000	100.001366
1694.000000	99.992912
1693.000000	99.988660
1692.000000	99.986143
1691.000000	99.982352
1690.000000	99.975080
1689.000000	99.963705
1688.000000	99.950757
1687.000000	99.937899
1686.000000	99.927761
1685.000000	99.922336
1684.000000	99.919993
1683.000000	99.915927
1682.000000	99.911776
1681.000000	99.909475
1680.000000	99.907624
1679.000000	99.902874
1678.000000	99.891804
1677.000000	99.872616
1676.000000	99.848628
1675.000000	99.829322
1674.000000	99.821229
1673.000000	99.819345
1672.000000	99.814415
1671.000000	99.804718
1670.000000	99.796571
1669.000000	99.793677
1668.000000	99.790781
1667.000000	99.784410
1666.000000	99.773235
1665.000000	99.758033
1664.000000	99.742523
1663.000000	99.730122
1662.000000	99.720264
1661.000000	99.709812
1660.000000	99.698668
1659.000000	99.690888
1658.000000	99.688152
1657.000000	99.687640
1656.000000	99.684841
1655.000000	99.686235
1654.000000	99.702364
1653.000000	99.724253
1652.000000	99.719307
1651.000000	99.708141
1650.000000	99.697303
1649.000000	99.683034
1648.000000	99.665407
1647.000000	99.656519
1646.000000	99.664819
1645.000000	99.675300
1644.000000	99.677801
1643.000000	99.673203
1642.000000	99.667227
1641.000000	99.666326
1640.000000	99.671643
1639.000000	99.678990
1638.000000	99.686435
1637.000000	99.697849
1636.000000	99.715060
1635.000000	99.728039
1634.000000	99.727327
1633.000000	99.721392
1632.000000	99.714835
1631.000000	99.709722
1630.000000	99.709487
1629.000000	99.715345
1628.000000	99.723425
1627.000000	99.729552
1626.000000	99.732483
1625.000000	99.734661
1624.000000	99.741178
1623.000000	99.754955
1622.000000	99.770307
1621.000000	99.777985
1620.000000	99.777827
1619.000000	99.777290
1618.000000	99.785141
1617.000000	99.803828
1616.000000	99.824725
1615.000000	99.839793
1614.000000	99.849869
1613.000000	99.856159
1612.000000	99.861121
1611.000000	99.868703
1610.000000	99.879752
1609.000000	99.889065
1608.000000	99.892704
1607.000000	99.893816
1606.000000	99.896225
1605.000000	99.899243
1604.000000	99.902449
1603.000000	99.908071
1602.000000	99.915333
1601.000000	99.917996
1600.000000	99.912877
1599.000000	99.905437
1598.000000	99.902059
1597.000000	99.902483
1596.000000	99.902422
1595.000000	99.899825
1594.000000	99.895339
1593.000000	99.888337
1592.000000	99.878395
1591.000000	99.868369
1590.000000	99.860711
1589.000000	99.852523
1588.000000	99.839738
1587.000000	99.823156
1586.000000	99.804928
1585.000000	99.782616
1584.000000	99.753762
1583.000000	99.722418
1582.000000	99.696091
1581.000000	99.677389
1580.000000	99.663783
1579.000000	99.654171
1578.000000	99.651133
1577.000000	99.656400
1576.000000	99.667633
1575.000000	99.679970
1574.000000	99.688772
1573.000000	99.691164
1572.000000	99.690978
1571.000000	99.697644
1570.000000	99.716263
1569.000000	99.735604
1568.000000	99.744221
1567.000000	99.747457
1566.000000	99.751309
1565.000000	99.753878
1564.000000	99.751309
1563.000000	99.744462
1562.000000	99.737548
1561.000000	99.737028
1560.000000	99.745879
1559.000000	99.738879
1558.000000	99.718469
1557.000000	99.687059
1556.000000	99.658440
1555.000000	99.639858
1554.000000	99.631515
1553.000000	99.626836
1552.000000	99.616953
1551.000000	99.596381
1550.000000	99.565582
1549.000000	99.527468
1548.000000	99.485384
1547.000000	99.440869
1546.000000	99.393796
1545.000000	99.343693
1544.000000	99.292719
1543.000000	99.244153
1542.000000	99.201079
1541.000000	99.175030
1540.000000	99.185437
1539.000000	99.214720
1538.000000	99.226709
1537.000000	99.223765
1536.000000	99.216123
1535.000000	99.215076
1534.000000	99.228631
1533.000000	99.248257
1532.000000	99.253917
1531.000000	99.241865
1530.000000	99.223545
1529.000000	99.207695
1528.000000	99.194383
1527.000000	99.178468
1526.000000	99.156332
1525.000000	99.131032
1524.000000	99.106301
1523.000000	99.082445
1522.000000	99.060525
1521.000000	99.045589
1520.000000	99.032983
1519.000000	99.016343
1518.000000	98.994808
1517.000000	98.969866
1516.000000	98.941398
1515.000000	98.905248
1514.000000	98.860997
1513.000000	98.816495
1512.000000	98.782498
1511.000000	98.761198
1510.000000	98.743293
1509.000000	98.720456
1508.000000	98.698763
1507.000000	98.694674
1506.000000	98.688215
1505.000000	98.647249
1504.000000	98.600004
1503.000000	98.556007
1502.000000	98.512723
1501.000000	98.471515
1500.000000	98.437096
1499.000000	98.408482
1498.000000	98.375902
1497.000000	98.336547
1496.000000	98.301360
1495.000000	98.273647
1494.000000	98.244182
1493.000000	98.207694
1492.000000	98.170081
1491.000000	98.142443
1490.000000	98.127540
1489.000000	98.117359
1488.000000	98.099376
1487.000000	98.068050
1486.000000	98.029082
1485.000000	97.987810
1484.000000	97.946902
1483.000000	97.909215
1482.000000	97.875003
1481.000000	97.841514
1480.000000	97.805949
1479.000000	97.768525
1478.000000	97.731363
1477.000000	97.694023
1476.000000	97.652037
1475.000000	97.601669
1474.000000	97.549777
1473.000000	97.514909
1472.000000	97.504673
1471.000000	97.493801
1470.000000	97.465059
1469.000000	97.424695
1468.000000	97.384314
1467.000000	97.351343
1466.000000	97.327989
1465.000000	97.312153
1464.000000	97.297254
1463.000000	97.275515
1462.000000	97.245109
1461.000000	97.208941
1460.000000	97.169868
1459.000000	97.130311
1458.000000	97.096975
1457.000000	97.087191
1456.000000	97.095033
1455.000000	97.090572
1454.000000	97.064109
1453.000000	97.024997
1452.000000	96.987587
1451.000000	96.958242
1450.000000	96.933439
1449.000000	96.912239
1448.000000	96.899437
1447.000000	96.892102
1446.000000	96.877572
1445.000000	96.852156
1444.000000	96.823201
1443.000000	96.797535
1442.000000	96.774933
1441.000000	96.749607
1440.000000	96.716649
1439.000000	96.677529
1438.000000	96.644223
1437.000000	96.635304
1436.000000	96.650089
1435.000000	96.657266
1434.000000	96.636431
1433.000000	96.596908
1432.000000	96.559333
1431.000000	96.536051
1430.000000	96.520471
1429.000000	96.499305
1428.000000	96.470250
1427.000000	96.438714
1426.000000	96.409108
1425.000000	96.385142
1424.000000	96.368317
1423.000000	96.348851
1422.000000	96.312072
1421.000000	96.261750
1420.000000	96.224653
1419.000000	96.222709
1418.000000	96.232950
1417.000000	96.220850
1416.000000	96.187076
1415.000000	96.145382
1414.000000	96.102080
1413.000000	96.060043
1412.000000	96.025322
1411.000000	96.000424
1410.000000	95.975804
1409.000000	95.941850
1408.000000	95.902996
1407.000000	95.869986
1406.000000	95.846041
1405.000000	95.827050
1404.000000	95.809151
1403.000000	95.786947
1402.000000	95.754395
1401.000000	95.715333
1400.000000	95.684834
1399.000000	95.671372
1398.000000	95.659313
1397.000000	95.632010
1396.000000	95.599015
1395.000000	95.580503
1394.000000	95.572571
1393.000000	95.554744
1392.000000	95.525231
1391.000000	95.494973
1390.000000	95.470539
1389.000000	95.456719
1388.000000	95.463945
1387.000000	95.496835
1386.000000	95.538080
1385.000000	95.569290
1384.000000	95.595642
1383.000000	95.630578
1382.000000	95.674470
1381.000000	95.718946
1380.000000	95.764154
1379.000000	95.817281
1378.000000	95.877567
1377.000000	95.938612
1376.000000	96.004431
1375.000000	96.086698
1374.000000	96.181074
1373.000000	96.263720
1372.000000	96.323612
1371.000000	96.375218
1370.000000	96.437120
1369.000000	96.514163
1368.000000	96.597902
1367.000000	96.675889
1366.000000	96.742590
1365.000000	96.804645
1364.000000	96.875382
1363.000000	96.961673
1362.000000	97.054193
1361.000000	97.136227
1360.000000	97.203004
1359.000000	97.260601
1358.000000	97.314939
1357.000000	97.369719
1356.000000	97.427588
1355.000000	97.486990
1354.000000	97.542028
1353.000000	97.590071
1352.000000	97.634952
1351.000000	97.680231
1350.000000	97.724873
1349.000000	97.765394
1348.000000	97.801058
1347.000000	97.833347
1346.000000	97.863108
1345.000000	97.890704
1344.000000	97.917200
1343.000000	97.943158
1342.000000	97.969152
1341.000000	97.998028
1340.000000	98.033315
1339.000000	98.072421
1338.000000	98.105291
1337.000000	98.127063
1336.000000	98.144309
1335.000000	98.164578
1334.000000	98.188587
1333.000000	98.213983
1332.000000	98.240646
1331.000000	98.269052
1330.000000	98.297109
1329.000000	98.321809
1328.000000	98.342595
1327.000000	98.361067
1326.000000	98.379069
1325.000000	98.397856
1324.000000	98.418770
1323.000000	98.441311
1322.000000	98.462368
1321.000000	98.479607
1320.000000	98.494140
1319.000000	98.508202
1318.000000	98.522003
1317.000000	98.535450
1316.000000	98.550330
1315.000000	98.568079
1314.000000	98.587591
1313.000000	98.607743
1312.000000	98.629500
1311.000000	98.653247
1310.000000	98.676438
1309.000000	98.696290
1308.000000	98.712900
1307.000000	98.728082
1306.000000	98.743127
1305.000000	98.758149
1304.000000	98.773229
1303.000000	98.787716
1302.000000	98.800311
1301.000000	98.811201
1300.000000	98.822749
1299.000000	98.836828
1298.000000	98.853003
1297.000000	98.869928
1296.000000	98.886293
1295.000000	98.900108
1294.000000	98.909504
1293.000000	98.915245
1292.000000	98.919935
1291.000000	98.924022
1290.000000	98.925395
1289.000000	98.924198
1288.000000	98.924681
1287.000000	98.930233
1286.000000	98.938996
1285.000000	98.946885
1284.000000	98.952641
1283.000000	98.957226
1282.000000	98.960450
1281.000000	98.960891
1280.000000	98.958710
1279.000000	98.957057
1278.000000	98.960140
1277.000000	98.970112
1276.000000	98.984847
1275.000000	98.998915
1274.000000	99.007907
1273.000000	99.012127
1272.000000	99.015126
1271.000000	99.018993
1270.000000	99.022842
1269.000000	99.025525
1268.000000	99.027096
1267.000000	99.027201
1266.000000	99.024742
1265.000000	99.020534
1264.000000	99.017846
1263.000000	99.018787
1262.000000	99.022000
1261.000000	99.025060
1260.000000	99.027337
1259.000000	99.029908
1258.000000	99.034079
1257.000000	99.040838
1256.000000	99.049410
1255.000000	99.055906
1254.000000	99.056040
1253.000000	99.050256
1252.000000	99.043633
1251.000000	99.039962
1250.000000	99.038093
1249.000000	99.034911
1248.000000	99.029532
1247.000000	99.023159
1246.000000	99.016940
1245.000000	99.011826
1244.000000	99.008701
1243.000000	99.007160
1242.000000	99.005930
1241.000000	99.005240
1240.000000	99.006327
1239.000000	99.007845
1238.000000	99.005925
1237.000000	98.999423
1236.000000	98.991990
1235.000000	98.987340
1234.000000	98.985760
1233.000000	98.987162
1232.000000	98.993818
1231.000000	99.006489
1230.000000	99.020934
1229.000000	99.032572
1228.000000	99.042324
1227.000000	99.053942
1226.000000	99.067591
1225.000000	99.080408
1224.000000	99.092305
1223.000000	99.106502
1222.000000	99.124127
1221.000000	99.142003
1220.000000	99.156581
1219.000000	99.167594
1218.000000	99.177182
1217.000000	99.187314
1216.000000	99.198426
1215.000000	99.209200
1214.000000	99.217759
1213.000000	99.224403
1212.000000	99.232243
1211.000000	99.243056
1210.000000	99.253292
1209.000000	99.256545
1208.000000	99.250232
1207.000000	99.238205
1206.000000	99.227219
1205.000000	99.222176
1204.000000	99.224182
1203.000000	99.230902
1202.000000	99.238091
1201.000000	99.242425
1200.000000	99.243726
1199.000000	99.244051
1198.000000	99.244864
1197.000000	99.246286
1196.000000	99.248649
1195.000000	99.253006
1194.000000	99.259878
1193.000000	99.268624
1192.000000	99.278292
1191.000000	99.288004
1190.000000	99.296427
1189.000000	99.302249
1188.000000	99.305589
1187.000000	99.307871
1186.000000	99.309681
1185.000000	99.309734
1184.000000	99.306607
1183.000000	99.301075
1182.000000	99.296174
1181.000000	99.294889
1180.000000	99.297860
1179.000000	99.303088
1178.000000	99.307639
1177.000000	99.309833
1176.000000	99.310025
1175.000000	99.309337
1174.000000	99.307785
1173.000000	99.304086
1172.000000	99.297896
1171.000000	99.291559
1170.000000	99.288265
1169.000000	99.288202
1168.000000	99.288009
1167.000000	99.285015
1166.000000	99.280944
1165.000000	99.279844
1164.000000	99.283005
1163.000000	99.287831
1162.000000	99.291706
1161.000000	99.294858
1160.000000	99.298640
1159.000000	99.303051
1158.000000	99.307314
1157.000000	99.311354
1156.000000	99.315218
1155.000000	99.318195
1154.000000	99.320182
1153.000000	99.323106
1152.000000	99.329309
1151.000000	99.339043
1150.000000	99.350878
1149.000000	99.363862
1148.000000	99.377493
1147.000000	99.390123
1146.000000	99.399804
1145.000000	99.407081
1144.000000	99.414972
1143.000000	99.425152
1142.000000	99.435241
1141.000000	99.440926
1140.000000	99.440809
1139.000000	99.438608
1138.000000	99.440073
1137.000000	99.447477
1136.000000	99.457678
1135.000000	99.466283
1134.000000	99.472799
1133.000000	99.479667
1132.000000	99.486763
1131.000000	99.490082
1130.000000	99.487299
1129.000000	99.481931
1128.000000	99.479835
1127.000000	99.483343
1126.000000	99.490628
1125.000000	99.498737
1124.000000	99.504778
1123.000000	99.505970
1122.000000	99.501914
1121.000000	99.496138
1120.000000	99.492578
1119.000000	99.491038
1118.000000	99.488296
1117.000000	99.483052
1116.000000	99.477149
1115.000000	99.472470
1114.000000	99.469273
1113.000000	99.467158
1112.000000	99.464897
1111.000000	99.459646
1110.000000	99.449705
1109.000000	99.438404
1108.000000	99.432487
1107.000000	99.434823
1106.000000	99.441185
1105.000000	99.445268
1104.000000	99.444629
1103.000000	99.440540
1102.000000	99.434612
1101.000000	99.427592
1100.000000	99.421465
1099.000000	99.418111
1098.000000	99.418356
1097.000000	99.420626
1096.000000	99.421632
1095.000000	99.418660
1094.000000	99.412122
1093.000000	99.405319
1092.000000	99.400351
1091.000000	99.395005
1090.000000	99.385322
1089.000000	99.370995
1088.000000	99.356047
1087.000000	99.344157
1086.000000	99.335557
1085.000000	99.329140
1084.000000	99.325228
1083.000000	99.324350
1082.000000	99.324473
1081.000000	99.321489
1080.000000	99.313028
1079.000000	99.301651
1078.000000	99.294012
1077.000000	99.295871
1076.000000	99.306666
1075.000000	99.319278
1074.000000	99.326644
1073.000000	99.328463
1072.000000	99.329898
1071.000000	99.334238
1070.000000	99.339176
1069.000000	99.340568
1068.000000	99.337304
1067.000000	99.331526
1066.000000	99.326457
1065.000000	99.325607
1064.000000	99.331914
1063.000000	99.344753
1062.000000	99.358148
1061.000000	99.364633
1060.000000	99.362003
1059.000000	99.355292
1058.000000	99.351430
1057.000000	99.352658
1056.000000	99.355771
1055.000000	99.357114
1054.000000	99.356822
1053.000000	99.357821
1052.000000	99.362146
1051.000000	99.369408
1050.000000	99.377934
1049.000000	99.385346
1048.000000	99.388652
1047.000000	99.386320
1046.000000	99.380738
1045.000000	99.376178
1044.000000	99.373747
1043.000000	99.370701
1042.000000	99.365382
1041.000000	99.360479
1040.000000	99.359870
1039.000000	99.364576
1038.000000	99.373162
1037.000000	99.383752
1036.000000	99.393416
1035.000000	99.397980
1034.000000	99.395704
1033.000000	99.389765
1032.000000	99.384481
1031.000000	99.380531
1030.000000	99.376553
1029.000000	99.373401
1028.000000	99.373133
1027.000000	99.374612
1026.000000	99.374321
1025.000000	99.371658
1024.000000	99.370361
1023.000000	99.374230
1022.000000	99.383941
1021.000000	99.397967
1020.000000	99.413628
1019.000000	99.426870
1018.000000	99.434007
1017.000000	99.434825
1016.000000	99.432330
1015.000000	99.429672
1014.000000	99.429505
1013.000000	99.435501
1012.000000	99.450784
1011.000000	99.473754
1010.000000	99.498114
1009.000000	99.518344
1008.000000	99.533381
1007.000000	99.544269
1006.000000	99.550965
1005.000000	99.553074
1004.000000	99.552189
1003.000000	99.551819
1002.000000	99.555116
1001.000000	99.562793
1000.000000	99.572878
999.000000	99.582958
998.000000	99.593521
997.000000	99.607910
996.000000	99.627308
995.000000	99.646777
994.000000	99.658979
993.000000	99.662224
992.000000	99.662583
991.000000	99.667949
990.000000	99.681483
989.000000	99.700576
988.000000	99.719838
987.000000	99.734646
986.000000	99.743902
985.000000	99.750415
984.000000	99.757480
983.000000	99.765116
982.000000	99.770963
981.000000	99.774232
980.000000	99.776830
979.000000	99.780242
978.000000	99.783223
977.000000	99.783256
976.000000	99.779086
975.000000	99.771833
974.000000	99.764439
973.000000	99.759755
972.000000	99.758190
971.000000	99.757843
970.000000	99.758098
969.000000	99.761825
968.000000	99.772045
967.000000	99.787244
966.000000	99.802336
965.000000	99.813826
964.000000	99.821472
963.000000	99.825625
962.000000	99.826443
961.000000	99.826458
960.000000	99.830648
959.000000	99.842020
958.000000	99.858405
957.000000	99.874397
956.000000	99.885581
955.000000	99.891031
954.000000	99.893492
953.000000	99.897554
952.000000	99.905937
951.000000	99.917151
950.000000	99.927806
949.000000	99.936541
948.000000	99.943867
947.000000	99.949070
946.000000	99.950134
945.000000	99.947065
944.000000	99.942839
943.000000	99.940440
942.000000	99.940537
941.000000	99.941989
940.000000	99.942962
939.000000	99.942083
938.000000	99.941026
937.000000	99.945370
936.000000	99.959361
935.000000	99.979258
934.000000	99.994981
933.000000	99.999691
932.000000	99.995692
931.000000	99.990173
930.000000	99.988374
929.000000	99.991676
928.000000	99.998776
927.000000	100.006397
926.000000	100.011201
925.000000	100.013336
924.000000	100.016734
923.000000	100.024327
922.000000	100.034275
921.000000	100.042236
920.000000	100.045648
919.000000	100.044978
918.000000	100.042907
917.000000	100.043532
916.000000	100.049924
915.000000	100.060388
914.000000	100.068849
913.000000	100.071176
912.000000	100.069518
911.000000	100.068505
910.000000	100.069119
909.000000	100.068842
908.000000	100.066695
907.000000	100.064857
906.000000	100.065559
905.000000	100.068807
904.000000	100.073413
903.000000	100.078262
902.000000	100.082254
901.000000	100.084825
900.000000	100.087322
899.000000	100.092629
898.000000	100.102975
897.000000	100.117535
896.000000	100.131986
895.000000	100.140380
894.000000	100.139392
893.000000	100.132211
892.000000	100.127344
891.000000	100.131642
890.000000	100.143810
889.000000	100.155246
888.000000	100.156755
887.000000	100.142251
886.000000	100.106556
885.000000	100.041436
884.000000	99.935924
883.000000	99.781733
882.000000	99.575038
881.000000	99.312799
880.000000	98.989034
879.000000	98.600582
878.000000	98.158714
877.000000	97.687809
876.000000	97.209393
875.000000	96.732986
874.000000	96.282564
873.000000	95.936828
872.000000	95.828352
871.000000	96.062674
870.000000	96.617243
869.000000	97.332637
868.000000	98.012524
867.000000	98.537233
866.000000	98.895223
865.000000	99.133441
864.000000	99.298629
863.000000	99.418501
862.000000	99.509106
861.000000	99.580630
860.000000	99.638142
859.000000	99.684780
858.000000	99.725877
857.000000	99.765158
856.000000	99.800079
855.000000	99.826563
854.000000	99.846774
853.000000	99.866196
852.000000	99.882031
851.000000	99.881614
850.000000	99.857433
849.000000	99.820903
848.000000	99.796796
847.000000	99.803187
846.000000	99.838115
845.000000	99.884874
844.000000	99.926681
843.000000	99.955695
842.000000	99.972069
841.000000	99.979549
840.000000	99.983004
839.000000	99.986756
838.000000	99.992181
837.000000	99.997662
836.000000	100.003022
835.000000	100.012492
834.000000	100.029888
833.000000	100.051205
832.000000	100.066445
831.000000	100.070597
830.000000	100.069030
829.000000	100.069470
828.000000	100.072319
827.000000	100.073377
826.000000	100.072830
825.000000	100.074914
824.000000	100.078971
823.000000	100.077480
822.000000	100.065335
821.000000	100.047068
820.000000	100.033136
819.000000	100.031650
818.000000	100.043525
817.000000	100.062329
816.000000	100.078356
815.000000	100.086177
814.000000	100.089224
813.000000	100.094142
812.000000	100.100721
811.000000	100.101415
810.000000	100.091972
809.000000	100.078661
808.000000	100.072619
807.000000	100.079879
806.000000	100.098480
805.000000	100.121653
804.000000	100.140977
803.000000	100.149181
802.000000	100.143778
801.000000	100.128156
800.000000	100.108042
799.000000	100.088155
798.000000	100.072597
797.000000	100.065090
796.000000	100.065917
795.000000	100.070612
794.000000	100.074540
793.000000	100.077953
792.000000	100.084497
791.000000	100.095741
790.000000	100.109386
789.000000	100.122593
788.000000	100.134372
787.000000	100.143602
786.000000	100.146729
785.000000	100.140128
784.000000	100.125574
783.000000	100.111536
782.000000	100.106152
781.000000	100.108474
780.000000	100.109476
779.000000	100.103121
778.000000	100.093400
777.000000	100.088014
776.000000	100.088623
775.000000	100.091836
774.000000	100.097298
773.000000	100.108301
772.000000	100.124076
771.000000	100.137286
770.000000	100.141083
769.000000	100.134799
768.000000	100.121518
767.000000	100.104816
766.000000	100.090019
765.000000	100.083727
764.000000	100.088230
763.000000	100.098836
762.000000	100.109318
761.000000	100.117692
760.000000	100.124925
759.000000	100.130947
758.000000	100.134683
757.000000	100.135760
756.000000	100.133936
755.000000	100.129127
754.000000	100.123628
753.000000	100.121700
752.000000	100.125205
751.000000	100.131605
750.000000	100.136896
749.000000	100.138033
748.000000	100.132167
747.000000	100.118176
746.000000	100.101349
745.000000	100.091901
744.000000	100.094684
743.000000	100.103543
742.000000	100.109172
741.000000	100.109032
740.000000	100.106557
739.000000	100.104756
738.000000	100.104778
737.000000	100.106843
736.000000	100.107435
735.000000	100.098735
734.000000	100.077595
733.000000	100.053110
732.000000	100.038507
731.000000	100.035356
730.000000	100.031735
729.000000	100.017041
728.000000	99.996899
727.000000	99.988365
726.000000	99.997406
725.000000	100.009553
724.000000	100.007038
723.000000	99.988999
722.000000	99.967852
721.000000	99.948961
720.000000	99.922460
719.000000	99.875553
718.000000	99.803717
717.000000	99.704871
716.000000	99.572635
715.000000	99.410079
714.000000	99.249731
713.000000	99.144749
712.000000	99.131409
711.000000	99.201465
710.000000	99.313916
709.000000	99.427971
708.000000	99.523026
707.000000	99.596944
706.000000	99.650864
705.000000	99.684112
704.000000	99.702286
703.000000	99.717759
702.000000	99.739797
701.000000	99.766998
700.000000	99.789918
699.000000	99.804257
698.000000	99.812753
697.000000	99.817355
696.000000	99.819990
695.000000	99.826809
694.000000	99.848191
693.000000	99.885547
692.000000	99.921787
691.000000	99.941104
690.000000	99.946219
689.000000	99.949987
688.000000	99.956288
687.000000	99.958050
686.000000	99.956305
685.000000	99.959294
684.000000	99.962080
683.000000	99.951480
682.000000	99.930415
681.000000	99.916555
680.000000	99.914346
679.000000	99.911542
678.000000	99.905226
677.000000	99.899455
676.000000	99.893412
675.000000	99.885910
674.000000	99.889251
673.000000	99.918778
672.000000	99.975411
671.000000	100.057615
670.000000	100.179522
669.000000	100.340645
668.000000	100.427669
667.000000	100.319693
666.000000	100.141746
665.000000	99.979693
664.000000	99.859768
663.000000	99.801362
662.000000	99.798879
661.000000	99.823551
660.000000	99.850038
659.000000	99.872020
658.000000	99.889858
657.000000	99.893283
656.000000	99.881014
655.000000	99.869034
654.000000	99.864599
653.000000	99.855261
652.000000	99.838212
651.000000	99.830461
650.000000	99.842124
649.000000	99.858821
648.000000	99.866759
647.000000	99.871179
646.000000	99.876400
645.000000	99.875639
644.000000	99.865708
643.000000	99.852515
642.000000	99.840996
641.000000	99.829076
640.000000	99.818508
639.000000	99.818682
638.000000	99.829585
637.000000	99.837845
636.000000	99.838502
635.000000	99.840448
634.000000	99.846804
633.000000	99.847716
632.000000	99.838017
631.000000	99.828441
630.000000	99.830403
629.000000	99.839666
628.000000	99.845553
627.000000	99.846643
626.000000	99.846797
625.000000	99.849273
624.000000	99.855351
623.000000	99.862331
622.000000	99.862570
621.000000	99.850888
620.000000	99.832597
619.000000	99.816373
618.000000	99.802428
617.000000	99.786914
616.000000	99.774462
615.000000	99.772996
614.000000	99.777918
613.000000	99.776111
612.000000	99.766939
611.000000	99.764807
610.000000	99.777784
609.000000	99.796688
608.000000	99.810543
607.000000	99.821462
606.000000	99.834142
605.000000	99.847104
604.000000	99.857776
603.000000	99.867370
602.000000	99.877452
601.000000	99.886932
600.000000	99.894477
599.000000	99.899269
598.000000	99.896040
597.000000	99.877489
596.000000	99.845746
595.000000	99.814346
594.000000	99.794371
593.000000	99.783985
592.000000	99.777772
591.000000	99.779183
590.000000	99.795349
589.000000	99.823642
588.000000	99.851052
587.000000	99.863412
586.000000	99.852441
585.000000	99.820916
584.000000	99.783918
583.000000	99.761233
582.000000	99.762769
581.000000	99.782284
580.000000	99.805366
579.000000	99.821327
578.000000	99.825362
577.000000	99.817338
576.000000	99.803465
575.000000	99.793061
574.000000	99.788545
573.000000	99.783363
572.000000	99.773940
571.000000	99.765477
570.000000	99.764496
569.000000	99.770187
568.000000	99.777499
567.000000	99.782228
566.000000	99.779106
565.000000	99.761808
564.000000	99.728895
563.000000	99.687999
562.000000	99.651206
561.000000	99.629790
560.000000	99.632440
559.000000	99.660360
558.000000	99.700831
557.000000	99.734183
556.000000	99.749165
555.000000	99.747037
554.000000	99.734522
553.000000	99.719829
552.000000	99.713067
551.000000	99.720704
550.000000	99.738125
549.000000	99.754425
548.000000	99.765355
547.000000	99.773892
546.000000	99.780349
545.000000	99.781918
544.000000	99.780959
543.000000	99.782088
542.000000	99.782583
541.000000	99.775772
540.000000	99.762381
539.000000	99.746918
538.000000	99.724344
537.000000	99.687240
536.000000	99.648333
535.000000	99.638746
534.000000	99.672562
533.000000	99.726929
532.000000	99.762991
531.000000	99.759534
530.000000	99.725059
529.000000	99.685094
528.000000	99.660272
527.000000	99.653792
526.000000	99.652225
525.000000	99.642568
524.000000	99.630396
523.000000	99.627019
522.000000	99.626561
521.000000	99.613642
520.000000	99.592198
519.000000	99.592077
518.000000	99.635894
517.000000	99.707340
516.000000	99.767864
515.000000	99.793180
514.000000	99.784508
513.000000	99.758926
512.000000	99.737655
511.000000	99.734503
510.000000	99.745847
509.000000	99.758513
508.000000	99.767259
507.000000	99.779258
506.000000	99.796416
505.000000	99.804562
504.000000	99.789918
503.000000	99.755481
502.000000	99.719444
501.000000	99.699153
500.000000	99.698713
499.000000	99.716697
498.000000	99.752767
497.000000	99.802395
496.000000	99.849918
495.000000	99.872885
494.000000	99.860447
493.000000	99.826471
492.000000	99.798268
491.000000	99.791414
490.000000	99.801201
489.000000	99.824816
488.000000	99.868597
487.000000	99.919538
486.000000	99.930902
485.000000	99.868696
484.000000	99.770091
483.000000	99.715382
482.000000	99.731465
481.000000	99.765144
480.000000	99.764309
479.000000	99.742538
478.000000	99.744953
477.000000	99.782580
476.000000	99.827104
475.000000	99.855661
474.000000	99.868761
473.000000	99.874274
472.000000	99.875454
471.000000	99.874383
470.000000	99.867497
469.000000	99.846206
468.000000	99.808424
467.000000	99.766702
466.000000	99.736306
465.000000	99.722511
464.000000	99.726157
463.000000	99.741118
462.000000	99.741361
461.000000	99.696952
460.000000	99.618381
459.000000	99.564942
458.000000	99.597527
457.000000	99.710059
456.000000	99.835322
455.000000	99.930834
454.000000	100.000536
453.000000	100.062226
452.000000	100.122089
451.000000	100.163493
450.000000	100.157283
