PE IR       SUBTECH     SPECTRUM    ASCII       PEDS        4.00        
   -1
AD10-F006_1.ASC
23/09/08
10:51:34.00
23/09/08
11:14:38.00
uco
Sample 006 By uco Date Friday, September 08 2023
450.000000
#HDR
-1
-1
#GR
cm-1
%T
1.0
0.0
4000.000000
-1.000000
3551
8
100.306448
93.690425
#DATA
4000.000000	100.086806
3999.000000	100.088618
3998.000000	100.088895
3997.000000	100.087469
3996.000000	100.095684
3995.000000	100.094909
3994.000000	100.093279
3993.000000	100.090366
3992.000000	100.086165
3991.000000	100.081464
3990.000000	100.077731
3989.000000	100.076123
3988.000000	100.076539
3987.000000	100.077568
3986.000000	100.077480
3985.000000	100.075555
3984.000000	100.072602
3983.000000	100.070238
3982.000000	100.069712
3981.000000	100.071297
3980.000000	100.074520
3979.000000	100.078631
3978.000000	100.082775
3977.000000	100.085965
3976.000000	100.087243
3975.000000	100.086073
3974.000000	100.082635
3973.000000	100.077896
3972.000000	100.073177
3971.000000	100.069436
3970.000000	100.066643
3969.000000	100.064061
3968.000000	100.061410
3967.000000	100.059558
3966.000000	100.059904
3965.000000	100.062886
3964.000000	100.067213
3963.000000	100.070770
3962.000000	100.072268
3961.000000	100.071919
3960.000000	100.070485
3959.000000	100.068296
3958.000000	100.065203
3957.000000	100.061218
3956.000000	100.056892
3955.000000	100.053047
3954.000000	100.050700
3953.000000	100.050708
3952.000000	100.053018
3951.000000	100.056148
3950.000000	100.057681
3949.000000	100.056218
3948.000000	100.053013
3947.000000	100.051470
3946.000000	100.054630
3945.000000	100.061962
3944.000000	100.068442
3943.000000	100.068174
3942.000000	100.059725
3941.000000	100.047507
3940.000000	100.037541
3939.000000	100.033151
3938.000000	100.034256
3937.000000	100.039278
3936.000000	100.046579
3935.000000	100.053738
3934.000000	100.057478
3933.000000	100.055839
3932.000000	100.050556
3931.000000	100.046110
3930.000000	100.045522
3929.000000	100.048665
3928.000000	100.053696
3927.000000	100.057869
3926.000000	100.058177
3925.000000	100.053632
3924.000000	100.047284
3923.000000	100.043421
3922.000000	100.043151
3921.000000	100.044198
3920.000000	100.044316
3919.000000	100.043573
3918.000000	100.043245
3917.000000	100.043508
3916.000000	100.043220
3915.000000	100.041658
3914.000000	100.038853
3913.000000	100.035558
3912.000000	100.033336
3911.000000	100.034580
3910.000000	100.040592
3909.000000	100.050091
3908.000000	100.059849
3907.000000	100.065355
3906.000000	100.061789
3905.000000	100.046512
3904.000000	100.024348
3903.000000	100.007379
3902.000000	100.004852
3901.000000	100.014877
3900.000000	100.027379
3899.000000	100.033481
3898.000000	100.032138
3897.000000	100.027838
3896.000000	100.024285
3895.000000	100.023032
3894.000000	100.024126
3893.000000	100.026691
3892.000000	100.028843
3891.000000	100.029426
3890.000000	100.029306
3889.000000	100.030759
3888.000000	100.034232
3887.000000	100.035228
3886.000000	100.029483
3885.000000	100.021527
3884.000000	100.020731
3883.000000	100.029690
3882.000000	100.041178
3881.000000	100.045068
3880.000000	100.038535
3879.000000	100.028239
3878.000000	100.022977
3877.000000	100.026605
3876.000000	100.035587
3875.000000	100.041535
3874.000000	100.039376
3873.000000	100.032797
3872.000000	100.028309
3871.000000	100.026535
3870.000000	100.024391
3869.000000	100.023467
3868.000000	100.028102
3867.000000	100.037466
3866.000000	100.043699
3865.000000	100.039534
3864.000000	100.027379
3863.000000	100.016205
3862.000000	100.010586
3861.000000	100.009501
3860.000000	100.010435
3859.000000	100.010059
3858.000000	100.005795
3857.000000	99.998879
3856.000000	99.995077
3855.000000	99.996594
3854.000000	99.994736
3853.000000	99.989406
3852.000000	99.989197
3851.000000	99.994184
3850.000000	99.999875
3849.000000	100.004770
3848.000000	100.010571
3847.000000	100.019969
3846.000000	100.032257
3845.000000	100.043370
3844.000000	100.048487
3843.000000	100.045603
3842.000000	100.037452
3841.000000	100.029519
3840.000000	100.024862
3839.000000	100.023459
3838.000000	100.025534
3837.000000	100.031355
3836.000000	100.039803
3835.000000	100.048241
3834.000000	100.054243
3833.000000	100.056792
3832.000000	100.056585
3831.000000	100.055659
3830.000000	100.056343
3829.000000	100.059412
3828.000000	100.062845
3827.000000	100.062767
3826.000000	100.057491
3825.000000	100.051036
3824.000000	100.049480
3823.000000	100.053514
3822.000000	100.054392
3821.000000	100.045420
3820.000000	100.032604
3819.000000	100.024019
3818.000000	100.021403
3817.000000	100.019587
3816.000000	100.014616
3815.000000	100.011192
3814.000000	100.015547
3813.000000	100.025915
3812.000000	100.034981
3811.000000	100.038390
3810.000000	100.037207
3809.000000	100.033856
3808.000000	100.027529
3807.000000	100.018244
3806.000000	100.011500
3805.000000	100.013039
3804.000000	100.021961
3803.000000	100.030664
3802.000000	100.029870
3801.000000	100.021677
3800.000000	100.016938
3799.000000	100.019951
3798.000000	100.025167
3797.000000	100.025627
3796.000000	100.021326
3795.000000	100.018958
3794.000000	100.023641
3793.000000	100.033675
3792.000000	100.043497
3791.000000	100.049038
3790.000000	100.049669
3789.000000	100.047395
3788.000000	100.045110
3787.000000	100.044591
3786.000000	100.045408
3785.000000	100.045849
3784.000000	100.045047
3783.000000	100.043877
3782.000000	100.042889
3781.000000	100.040397
3780.000000	100.034415
3779.000000	100.027387
3778.000000	100.024521
3777.000000	100.027901
3776.000000	100.034530
3775.000000	100.039668
3774.000000	100.041329
3773.000000	100.041503
3772.000000	100.042656
3771.000000	100.044608
3770.000000	100.046692
3769.000000	100.050068
3768.000000	100.055452
3767.000000	100.060072
3766.000000	100.059170
3765.000000	100.051003
3764.000000	100.039911
3763.000000	100.032657
3762.000000	100.031358
3761.000000	100.031765
3760.000000	100.028347
3759.000000	100.020591
3758.000000	100.011619
3757.000000	100.004365
3756.000000	100.001266
3755.000000	100.003482
3754.000000	100.007956
3753.000000	100.006639
3752.000000	99.993280
3751.000000	99.973718
3750.000000	99.961163
3749.000000	99.958790
3748.000000	99.962630
3747.000000	99.971814
3746.000000	99.985716
3745.000000	99.998029
3744.000000	100.006223
3743.000000	100.014817
3742.000000	100.024473
3741.000000	100.030371
3740.000000	100.031321
3739.000000	100.032821
3738.000000	100.039430
3737.000000	100.045691
3736.000000	100.044985
3735.000000	100.042196
3734.000000	100.044797
3733.000000	100.049779
3732.000000	100.050401
3731.000000	100.046253
3730.000000	100.041627
3729.000000	100.039223
3728.000000	100.037992
3727.000000	100.035441
3726.000000	100.031856
3725.000000	100.029963
3724.000000	100.030802
3723.000000	100.033243
3722.000000	100.036341
3721.000000	100.040559
3720.000000	100.045504
3719.000000	100.048799
3718.000000	100.047617
3717.000000	100.041863
3716.000000	100.035833
3715.000000	100.033646
3714.000000	100.033252
3713.000000	100.026828
3712.000000	100.010784
3711.000000	99.995427
3710.000000	99.994002
3709.000000	100.007092
3708.000000	100.025890
3707.000000	100.042142
3706.000000	100.053333
3705.000000	100.062273
3704.000000	100.071783
3703.000000	100.080096
3702.000000	100.082487
3701.000000	100.077756
3700.000000	100.070359
3699.000000	100.065322
3698.000000	100.063178
3697.000000	100.060605
3696.000000	100.055442
3695.000000	100.048640
3694.000000	100.041775
3693.000000	100.036036
3692.000000	100.032964
3691.000000	100.033967
3690.000000	100.037112
3689.000000	100.037524
3688.000000	100.033185
3687.000000	100.027915
3686.000000	100.026925
3685.000000	100.030174
3684.000000	100.033765
3683.000000	100.035541
3682.000000	100.036326
3681.000000	100.035737
3680.000000	100.031590
3679.000000	100.025381
3678.000000	100.023653
3677.000000	100.030061
3676.000000	100.038532
3675.000000	100.042591
3674.000000	100.040498
3673.000000	100.035844
3672.000000	100.031788
3671.000000	100.027119
3670.000000	100.021975
3669.000000	100.021778
3668.000000	100.027611
3667.000000	100.035147
3666.000000	100.040808
3665.000000	100.043622
3664.000000	100.044436
3663.000000	100.044582
3662.000000	100.044387
3661.000000	100.043409
3660.000000	100.042491
3659.000000	100.043157
3658.000000	100.044974
3657.000000	100.044565
3656.000000	100.040570
3655.000000	100.036607
3654.000000	100.036483
3653.000000	100.040199
3652.000000	100.043525
3651.000000	100.041283
3650.000000	100.034992
3649.000000	100.034073
3648.000000	100.039346
3647.000000	100.041394
3646.000000	100.036950
3645.000000	100.030700
3644.000000	100.026757
3643.000000	100.025623
3642.000000	100.026098
3641.000000	100.027156
3640.000000	100.027981
3639.000000	100.027272
3638.000000	100.025282
3637.000000	100.025285
3636.000000	100.030256
3635.000000	100.038036
3634.000000	100.042411
3633.000000	100.040373
3632.000000	100.035080
3631.000000	100.030563
3630.000000	100.025145
3629.000000	100.018177
3628.000000	100.016933
3627.000000	100.023924
3626.000000	100.035612
3625.000000	100.048481
3624.000000	100.061709
3623.000000	100.076524
3622.000000	100.093068
3621.000000	100.107005
3620.000000	100.111398
3619.000000	100.104328
3618.000000	100.091722
3617.000000	100.080539
3616.000000	100.073740
3615.000000	100.069547
3614.000000	100.063551
3613.000000	100.053332
3612.000000	100.041395
3611.000000	100.033189
3610.000000	100.032605
3609.000000	100.040051
3608.000000	100.052570
3607.000000	100.064639
3606.000000	100.071386
3605.000000	100.071880
3604.000000	100.069054
3603.000000	100.066341
3602.000000	100.065784
3601.000000	100.067990
3600.000000	100.072660
3599.000000	100.078196
3598.000000	100.081808
3597.000000	100.081103
3596.000000	100.076185
3595.000000	100.069871
3594.000000	100.065838
3593.000000	100.066123
3592.000000	100.069771
3591.000000	100.074655
3590.000000	100.078010
3589.000000	100.076537
3588.000000	100.069637
3587.000000	100.062307
3586.000000	100.058395
3585.000000	100.056800
3584.000000	100.055587
3583.000000	100.053863
3582.000000	100.051545
3581.000000	100.049007
3580.000000	100.046724
3579.000000	100.045193
3578.000000	100.044561
3577.000000	100.044439
3576.000000	100.043944
3575.000000	100.042935
3574.000000	100.042614
3573.000000	100.044711
3572.000000	100.049951
3571.000000	100.057709
3570.000000	100.066572
3569.000000	100.073916
3568.000000	100.077496
3567.000000	100.078397
3566.000000	100.078624
3565.000000	100.077140
3564.000000	100.073400
3563.000000	100.068997
3562.000000	100.066028
3561.000000	100.066125
3560.000000	100.069678
3559.000000	100.075133
3558.000000	100.079953
3557.000000	100.082389
3556.000000	100.082334
3555.000000	100.080706
3554.000000	100.078570
3553.000000	100.076909
3552.000000	100.076549
3551.000000	100.077225
3550.000000	100.077281
3549.000000	100.074598
3548.000000	100.067924
3547.000000	100.058670
3546.000000	100.051326
3545.000000	100.050364
3544.000000	100.056128
3543.000000	100.064785
3542.000000	100.071545
3541.000000	100.074068
3540.000000	100.073328
3539.000000	100.071583
3538.000000	100.070012
3537.000000	100.068323
3536.000000	100.066593
3535.000000	100.065929
3534.000000	100.067467
3533.000000	100.071321
3532.000000	100.076455
3531.000000	100.080993
3530.000000	100.082693
3529.000000	100.080354
3528.000000	100.075392
3527.000000	100.071303
3526.000000	100.070643
3525.000000	100.072992
3524.000000	100.075759
3523.000000	100.076571
3522.000000	100.075088
3521.000000	100.073180
3520.000000	100.073374
3519.000000	100.076121
3518.000000	100.078767
3517.000000	100.077844
3516.000000	100.072927
3515.000000	100.067483
3514.000000	100.065600
3513.000000	100.068314
3512.000000	100.073383
3511.000000	100.078036
3510.000000	100.081350
3509.000000	100.083877
3508.000000	100.085738
3507.000000	100.085853
3506.000000	100.083113
3505.000000	100.077870
3504.000000	100.072825
3503.000000	100.071359
3502.000000	100.073835
3501.000000	100.076807
3500.000000	100.076896
3499.000000	100.074400
3498.000000	100.072526
3497.000000	100.073995
3496.000000	100.078292
3495.000000	100.082225
3494.000000	100.082900
3493.000000	100.080200
3492.000000	100.076523
3491.000000	100.074399
3490.000000	100.074388
3489.000000	100.075062
3488.000000	100.074905
3487.000000	100.074019
3486.000000	100.073707
3485.000000	100.074500
3484.000000	100.075295
3483.000000	100.074740
3482.000000	100.073209
3481.000000	100.072640
3480.000000	100.074274
3479.000000	100.077367
3478.000000	100.080352
3477.000000	100.082295
3476.000000	100.082714
3475.000000	100.080906
3474.000000	100.076715
3473.000000	100.072006
3472.000000	100.070098
3471.000000	100.072942
3470.000000	100.079210
3469.000000	100.085486
3468.000000	100.088813
3467.000000	100.088089
3466.000000	100.084133
3465.000000	100.079264
3464.000000	100.076416
3463.000000	100.077468
3462.000000	100.082004
3461.000000	100.087822
3460.000000	100.092496
3459.000000	100.094287
3458.000000	100.092424
3457.000000	100.087598
3456.000000	100.082470
3455.000000	100.080291
3454.000000	100.082199
3453.000000	100.086096
3452.000000	100.088643
3451.000000	100.088292
3450.000000	100.086055
3449.000000	100.084037
3448.000000	100.083997
3447.000000	100.086738
3446.000000	100.091429
3445.000000	100.095600
3444.000000	100.096634
3443.000000	100.093611
3442.000000	100.087873
3441.000000	100.081807
3440.000000	100.077076
3439.000000	100.073814
3438.000000	100.071245
3437.000000	100.068854
3436.000000	100.067172
3435.000000	100.067188
3434.000000	100.068892
3433.000000	100.070766
3432.000000	100.071288
3431.000000	100.070800
3430.000000	100.071087
3429.000000	100.073340
3428.000000	100.077178
3427.000000	100.081528
3426.000000	100.085520
3425.000000	100.088320
3424.000000	100.089021
3423.000000	100.087288
3422.000000	100.083866
3421.000000	100.080083
3420.000000	100.076726
3419.000000	100.073390
3418.000000	100.068887
3417.000000	100.062427
3416.000000	100.054699
3415.000000	100.047780
3414.000000	100.043490
3413.000000	100.041800
3412.000000	100.041364
3411.000000	100.041549
3410.000000	100.043247
3409.000000	100.047427
3408.000000	100.053380
3407.000000	100.058940
3406.000000	100.062351
3405.000000	100.063563
3404.000000	100.063710
3403.000000	100.063548
3402.000000	100.062726
3401.000000	100.060653
3400.000000	100.057687
3399.000000	100.055211
3398.000000	100.054653
3397.000000	100.056642
3396.000000	100.060823
3395.000000	100.066115
3394.000000	100.071115
3393.000000	100.074589
3392.000000	100.075800
3391.000000	100.074492
3390.000000	100.070835
3389.000000	100.065507
3388.000000	100.059400
3387.000000	100.052922
3386.000000	100.046007
3385.000000	100.039227
3384.000000	100.034248
3383.000000	100.032258
3382.000000	100.032407
3381.000000	100.032893
3380.000000	100.033253
3379.000000	100.034388
3378.000000	100.036232
3377.000000	100.036874
3376.000000	100.034565
3375.000000	100.029756
3374.000000	100.024627
3373.000000	100.021325
3372.000000	100.020961
3371.000000	100.023220
3370.000000	100.026111
3369.000000	100.026935
3368.000000	100.024707
3367.000000	100.021313
3366.000000	100.019252
3365.000000	100.018522
3364.000000	100.016934
3363.000000	100.013383
3362.000000	100.009523
3361.000000	100.007731
3360.000000	100.008191
3359.000000	100.008596
3358.000000	100.006412
3357.000000	100.001130
3356.000000	99.994612
3355.000000	99.989676
3354.000000	99.988179
3353.000000	99.990000
3352.000000	99.993402
3351.000000	99.996116
3350.000000	99.996304
3349.000000	99.993333
3348.000000	99.988323
3347.000000	99.983721
3346.000000	99.981646
3345.000000	99.982303
3344.000000	99.984083
3343.000000	99.985045
3342.000000	99.983948
3341.000000	99.980179
3340.000000	99.973752
3339.000000	99.965961
3338.000000	99.959531
3337.000000	99.957161
3336.000000	99.959345
3335.000000	99.963647
3334.000000	99.966376
3333.000000	99.965296
3332.000000	99.961058
3331.000000	99.956303
3330.000000	99.953389
3329.000000	99.952703
3328.000000	99.952809
3327.000000	99.951981
3326.000000	99.949638
3325.000000	99.946546
3324.000000	99.943804
3323.000000	99.941677
3322.000000	99.939604
3321.000000	99.937481
3320.000000	99.936475
3319.000000	99.937849
3318.000000	99.940962
3317.000000	99.943207
3316.000000	99.942502
3315.000000	99.939433
3314.000000	99.936351
3313.000000	99.934559
3312.000000	99.932942
3311.000000	99.929353
3310.000000	99.923109
3309.000000	99.916240
3308.000000	99.912224
3307.000000	99.912961
3306.000000	99.916527
3305.000000	99.918271
3304.000000	99.914718
3303.000000	99.906504
3302.000000	99.897423
3301.000000	99.891048
3300.000000	99.888798
3299.000000	99.890560
3298.000000	99.895644
3297.000000	99.902719
3296.000000	99.909743
3295.000000	99.914812
3294.000000	99.917068
3293.000000	99.916763
3292.000000	99.914876
3291.000000	99.912742
3290.000000	99.911283
3289.000000	99.910067
3288.000000	99.907527
3287.000000	99.902836
3286.000000	99.897519
3285.000000	99.894601
3284.000000	99.895823
3283.000000	99.899798
3282.000000	99.903210
3281.000000	99.903942
3280.000000	99.902724
3279.000000	99.901569
3278.000000	99.901040
3277.000000	99.899593
3276.000000	99.895611
3275.000000	99.889445
3274.000000	99.883031
3273.000000	99.878183
3272.000000	99.875843
3271.000000	99.876398
3270.000000	99.879543
3269.000000	99.883688
3268.000000	99.886513
3267.000000	99.886674
3266.000000	99.884763
3265.000000	99.882579
3264.000000	99.881854
3263.000000	99.883796
3262.000000	99.888909
3261.000000	99.896342
3260.000000	99.903413
3259.000000	99.906619
3258.000000	99.903993
3257.000000	99.896851
3256.000000	99.889326
3255.000000	99.885644
3254.000000	99.886994
3253.000000	99.890643
3252.000000	99.892397
3251.000000	99.890279
3250.000000	99.885943
3249.000000	99.882649
3248.000000	99.882194
3247.000000	99.883851
3246.000000	99.885661
3245.000000	99.886212
3244.000000	99.885174
3243.000000	99.882744
3242.000000	99.879254
3241.000000	99.875562
3240.000000	99.873494
3239.000000	99.875103
3238.000000	99.880819
3237.000000	99.888344
3236.000000	99.894014
3235.000000	99.895585
3234.000000	99.893431
3233.000000	99.889174
3232.000000	99.884071
3231.000000	99.879234
3230.000000	99.876366
3229.000000	99.876829
3228.000000	99.879932
3227.000000	99.883132
3226.000000	99.884358
3225.000000	99.883484
3224.000000	99.881474
3223.000000	99.879120
3222.000000	99.877182
3221.000000	99.876845
3220.000000	99.878720
3219.000000	99.881408
3218.000000	99.882259
3217.000000	99.880052
3216.000000	99.876471
3215.000000	99.874616
3214.000000	99.876006
3213.000000	99.879182
3212.000000	99.881098
3211.000000	99.879804
3210.000000	99.875909
3209.000000	99.871700
3208.000000	99.869112
3207.000000	99.868329
3206.000000	99.867961
3205.000000	99.866339
3204.000000	99.863010
3203.000000	99.859533
3202.000000	99.858592
3201.000000	99.861747
3200.000000	99.867781
3199.000000	99.873487
3198.000000	99.876130
3197.000000	99.874931
3196.000000	99.870738
3195.000000	99.865274
3194.000000	99.860822
3193.000000	99.859335
3192.000000	99.860846
3191.000000	99.863207
3190.000000	99.864129
3189.000000	99.863133
3188.000000	99.860973
3187.000000	99.857942
3186.000000	99.853900
3185.000000	99.849752
3184.000000	99.847553
3183.000000	99.848672
3182.000000	99.852476
3181.000000	99.857011
3180.000000	99.860507
3179.000000	99.862174
3178.000000	99.862231
3177.000000	99.861455
3176.000000	99.860384
3175.000000	99.858779
3174.000000	99.856182
3173.000000	99.852937
3172.000000	99.850189
3171.000000	99.848770
3170.000000	99.848663
3169.000000	99.849793
3168.000000	99.852664
3167.000000	99.857566
3166.000000	99.863344
3165.000000	99.867555
3164.000000	99.868231
3163.000000	99.865667
3162.000000	99.862616
3161.000000	99.862263
3160.000000	99.865360
3159.000000	99.869065
3158.000000	99.869227
3157.000000	99.864438
3156.000000	99.857747
3155.000000	99.853829
3154.000000	99.854480
3153.000000	99.857292
3152.000000	99.858877
3151.000000	99.858740
3150.000000	99.859192
3149.000000	99.861627
3148.000000	99.864060
3147.000000	99.863254
3146.000000	99.858829
3145.000000	99.853955
3144.000000	99.851693
3143.000000	99.851548
3142.000000	99.850583
3141.000000	99.847362
3140.000000	99.843755
3139.000000	99.842916
3138.000000	99.846459
3137.000000	99.853645
3136.000000	99.862122
3135.000000	99.868863
3134.000000	99.871395
3133.000000	99.869363
3132.000000	99.864993
3131.000000	99.861470
3130.000000	99.860623
3129.000000	99.862033
3128.000000	99.863890
3127.000000	99.864472
3126.000000	99.863092
3125.000000	99.860119
3124.000000	99.856372
3123.000000	99.852593
3122.000000	99.849513
3121.000000	99.848083
3120.000000	99.848943
3119.000000	99.851392
3118.000000	99.853504
3117.000000	99.853936
3116.000000	99.853457
3115.000000	99.854025
3114.000000	99.856315
3113.000000	99.858684
3112.000000	99.858809
3111.000000	99.856016
3110.000000	99.851901
3109.000000	99.848934
3108.000000	99.848678
3107.000000	99.850961
3106.000000	99.854059
3105.000000	99.855637
3104.000000	99.854227
3103.000000	99.850402
3102.000000	99.846364
3101.000000	99.844046
3100.000000	99.843558
3099.000000	99.843619
3098.000000	99.843286
3097.000000	99.842847
3096.000000	99.843012
3095.000000	99.843731
3094.000000	99.844248
3093.000000	99.844073
3092.000000	99.843312
3091.000000	99.842004
3090.000000	99.839749
3089.000000	99.836407
3088.000000	99.832802
3087.000000	99.830233
3086.000000	99.829352
3085.000000	99.829929
3084.000000	99.831538
3083.000000	99.833746
3082.000000	99.835535
3081.000000	99.835348
3080.000000	99.832517
3079.000000	99.828462
3078.000000	99.825812
3077.000000	99.826040
3076.000000	99.828095
3075.000000	99.829291
3074.000000	99.827480
3073.000000	99.822786
3072.000000	99.817804
3071.000000	99.815979
3070.000000	99.818916
3069.000000	99.824706
3068.000000	99.829217
3067.000000	99.829557
3066.000000	99.826368
3065.000000	99.822724
3064.000000	99.821075
3063.000000	99.821602
3062.000000	99.822992
3061.000000	99.823934
3060.000000	99.823797
3059.000000	99.822777
3058.000000	99.822073
3057.000000	99.823422
3056.000000	99.827499
3055.000000	99.832706
3054.000000	99.836125
3053.000000	99.835965
3052.000000	99.832805
3051.000000	99.828571
3050.000000	99.824870
3049.000000	99.822416
3048.000000	99.821326
3047.000000	99.821176
3046.000000	99.820975
3045.000000	99.819770
3044.000000	99.817506
3043.000000	99.815084
3042.000000	99.813525
3041.000000	99.813204
3040.000000	99.813916
3039.000000	99.815449
3038.000000	99.817949
3037.000000	99.821582
3036.000000	99.825775
3035.000000	99.828969
3034.000000	99.829543
3033.000000	99.827071
3032.000000	99.822414
3031.000000	99.816729
3030.000000	99.811039
3029.000000	99.806845
3028.000000	99.805990
3027.000000	99.808880
3026.000000	99.813175
3025.000000	99.815293
3024.000000	99.813553
3023.000000	99.809511
3022.000000	99.806224
3021.000000	99.805704
3020.000000	99.807904
3019.000000	99.811242
3018.000000	99.813510
3017.000000	99.812658
3016.000000	99.807514
3015.000000	99.798385
3014.000000	99.787472
3013.000000	99.778595
3012.000000	99.775469
3011.000000	99.778827
3010.000000	99.785135
3009.000000	99.789063
3008.000000	99.787741
3007.000000	99.782509
3006.000000	99.776651
3005.000000	99.772134
3004.000000	99.768718
3003.000000	99.765449
3002.000000	99.762364
3001.000000	99.760963
3000.000000	99.763370
2999.000000	99.770654
2998.000000	99.781290
2997.000000	99.791430
2996.000000	99.797339
2995.000000	99.797833
2994.000000	99.794329
2993.000000	99.788759
2992.000000	99.781902
2991.000000	99.773635
2990.000000	99.764134
2989.000000	99.754405
2988.000000	99.745896
2987.000000	99.739846
2986.000000	99.736635
2985.000000	99.735055
2984.000000	99.732170
2983.000000	99.724895
2982.000000	99.712730
2981.000000	99.698854
2980.000000	99.687568
2979.000000	99.680195
2978.000000	99.673885
2977.000000	99.664781
2976.000000	99.651826
2975.000000	99.637064
2974.000000	99.622735
2973.000000	99.609005
2972.000000	99.594628
2971.000000	99.579043
2970.000000	99.563301
2969.000000	99.549140
2968.000000	99.537456
2967.000000	99.527547
2966.000000	99.517505
2965.000000	99.505290
2964.000000	99.489777
2963.000000	99.471323
2962.000000	99.451651
2961.000000	99.432843
2960.000000	99.415906
2959.000000	99.400233
2958.000000	99.384906
2957.000000	99.370408
2956.000000	99.358429
2955.000000	99.349856
2954.000000	99.343765
2953.000000	99.338916
2952.000000	99.335386
2951.000000	99.333928
2950.000000	99.334089
2949.000000	99.333887
2948.000000	99.331277
2947.000000	99.325265
2946.000000	99.315685
2945.000000	99.302593
2944.000000	99.286118
2943.000000	99.266405
2942.000000	99.243535
2941.000000	99.217648
2940.000000	99.189002
2939.000000	99.157597
2938.000000	99.122942
2937.000000	99.084828
2936.000000	99.044132
2935.000000	99.002247
2934.000000	98.959665
2933.000000	98.915578
2932.000000	98.868931
2931.000000	98.819374
2930.000000	98.767405
2929.000000	98.714278
2928.000000	98.661876
2927.000000	98.612041
2926.000000	98.565774
2925.000000	98.523526
2924.000000	98.486194
2923.000000	98.455461
2922.000000	98.433223
2921.000000	98.421298
2920.000000	98.421696
2919.000000	98.436079
2918.000000	98.464628
2917.000000	98.505894
2916.000000	98.558052
2915.000000	98.619779
2914.000000	98.689441
2913.000000	98.763915
2912.000000	98.838525
2911.000000	98.908215
2910.000000	98.969003
2909.000000	99.019472
2908.000000	99.061443
2907.000000	99.098378
2906.000000	99.132322
2905.000000	99.162490
2904.000000	99.187395
2903.000000	99.207517
2902.000000	99.225548
2901.000000	99.243550
2900.000000	99.261539
2899.000000	99.278664
2898.000000	99.294747
2897.000000	99.310588
2896.000000	99.326963
2895.000000	99.343759
2894.000000	99.359885
2893.000000	99.374055
2892.000000	99.385964
2891.000000	99.396804
2890.000000	99.408401
2889.000000	99.421653
2888.000000	99.435661
2887.000000	99.448204
2886.000000	99.457156
2885.000000	99.461998
2884.000000	99.464475
2883.000000	99.467533
2882.000000	99.473038
2881.000000	99.480288
2880.000000	99.486695
2879.000000	99.489798
2878.000000	99.488579
2877.000000	99.483447
2876.000000	99.475572
2875.000000	99.466192
2874.000000	99.456087
2873.000000	99.445586
2872.000000	99.435291
2871.000000	99.426573
2870.000000	99.420819
2869.000000	99.417972
2868.000000	99.416025
2867.000000	99.412055
2866.000000	99.403742
2865.000000	99.390225
2864.000000	99.371926
2863.000000	99.349774
2862.000000	99.324316
2861.000000	99.295336
2860.000000	99.262119
2859.000000	99.223794
2858.000000	99.179668
2857.000000	99.130189
2856.000000	99.078132
2855.000000	99.028112
2854.000000	98.984226
2853.000000	98.948479
2852.000000	98.922559
2851.000000	98.910819
2850.000000	98.919566
2849.000000	98.952334
2848.000000	99.006262
2847.000000	99.073811
2846.000000	99.147525
2845.000000	99.222596
2844.000000	99.295505
2843.000000	99.362258
2842.000000	99.418977
2841.000000	99.463922
2840.000000	99.498563
2839.000000	99.526440
2838.000000	99.550955
2837.000000	99.573805
2836.000000	99.594901
2835.000000	99.613485
2834.000000	99.629251
2833.000000	99.642553
2832.000000	99.653949
2831.000000	99.663876
2830.000000	99.672739
2829.000000	99.680922
2828.000000	99.688338
2827.000000	99.694062
2826.000000	99.696845
2825.000000	99.696285
2824.000000	99.693573
2823.000000	99.691056
2822.000000	99.691083
2821.000000	99.695052
2820.000000	99.702905
2819.000000	99.713000
2818.000000	99.722714
2817.000000	99.729905
2816.000000	99.734158
2815.000000	99.736460
2814.000000	99.737656
2813.000000	99.737700
2812.000000	99.736540
2811.000000	99.734972
2810.000000	99.733891
2809.000000	99.732999
2808.000000	99.731190
2807.000000	99.728402
2806.000000	99.726302
2805.000000	99.726559
2804.000000	99.728908
2803.000000	99.731662
2802.000000	99.733936
2801.000000	99.736498
2800.000000	99.740147
2799.000000	99.744028
2798.000000	99.746319
2797.000000	99.746452
2796.000000	99.745889
2795.000000	99.746514
2794.000000	99.748774
2793.000000	99.751764
2792.000000	99.754618
2791.000000	99.757065
2790.000000	99.758734
2789.000000	99.758748
2788.000000	99.756516
2787.000000	99.752616
2786.000000	99.748425
2785.000000	99.744944
2784.000000	99.742367
2783.000000	99.740794
2782.000000	99.740861
2781.000000	99.743206
2780.000000	99.747318
2779.000000	99.751270
2778.000000	99.752918
2777.000000	99.751527
2776.000000	99.748327
2775.000000	99.745624
2774.000000	99.745323
2773.000000	99.747974
2772.000000	99.752742
2771.000000	99.758083
2770.000000	99.762761
2769.000000	99.766502
2768.000000	99.769674
2767.000000	99.772270
2766.000000	99.773486
2765.000000	99.772638
2764.000000	99.770363
2763.000000	99.768448
2762.000000	99.768246
2761.000000	99.769451
2760.000000	99.770624
2759.000000	99.770751
2758.000000	99.770081
2757.000000	99.769513
2756.000000	99.769599
2755.000000	99.770430
2754.000000	99.772160
2753.000000	99.774776
2752.000000	99.777105
2751.000000	99.776989
2750.000000	99.773547
2749.000000	99.769045
2748.000000	99.767266
2747.000000	99.769556
2746.000000	99.773311
2745.000000	99.774795
2744.000000	99.772707
2743.000000	99.768579
2742.000000	99.764751
2741.000000	99.762875
2740.000000	99.763422
2739.000000	99.765242
2738.000000	99.766027
2737.000000	99.764777
2736.000000	99.763670
2735.000000	99.765918
2734.000000	99.771500
2733.000000	99.776516
2732.000000	99.777489
2731.000000	99.774973
2730.000000	99.772022
2729.000000	99.770275
2728.000000	99.769048
2727.000000	99.767801
2726.000000	99.767747
2725.000000	99.770412
2724.000000	99.775370
2723.000000	99.780164
2722.000000	99.782487
2721.000000	99.782140
2720.000000	99.780708
2719.000000	99.779436
2718.000000	99.777946
2717.000000	99.775383
2716.000000	99.772204
2715.000000	99.769922
2714.000000	99.769256
2713.000000	99.769664
2712.000000	99.770859
2711.000000	99.773491
2710.000000	99.777575
2709.000000	99.781394
2708.000000	99.783241
2707.000000	99.783773
2706.000000	99.785351
2705.000000	99.788952
2704.000000	99.792728
2703.000000	99.794027
2702.000000	99.792281
2701.000000	99.789546
2700.000000	99.788371
2699.000000	99.789319
2698.000000	99.790578
2697.000000	99.789967
2696.000000	99.787197
2695.000000	99.784062
2694.000000	99.782711
2693.000000	99.784248
2692.000000	99.788569
2691.000000	99.794262
2690.000000	99.798344
2689.000000	99.797556
2688.000000	99.791336
2687.000000	99.783212
2686.000000	99.778207
2685.000000	99.778805
2684.000000	99.783685
2683.000000	99.789633
2682.000000	99.793726
2681.000000	99.794331
2680.000000	99.791670
2679.000000	99.787789
2678.000000	99.784932
2677.000000	99.783487
2676.000000	99.782058
2675.000000	99.779703
2674.000000	99.777303
2673.000000	99.776498
2672.000000	99.777879
2671.000000	99.780518
2670.000000	99.782728
2669.000000	99.783103
2668.000000	99.781451
2667.000000	99.779056
2666.000000	99.777399
2665.000000	99.776273
2664.000000	99.773739
2663.000000	99.768498
2662.000000	99.761865
2661.000000	99.756709
2660.000000	99.754575
2659.000000	99.754506
2658.000000	99.754811
2657.000000	99.755387
2656.000000	99.757765
2655.000000	99.762866
2654.000000	99.769294
2653.000000	99.774373
2652.000000	99.776764
2651.000000	99.777446
2650.000000	99.778018
2649.000000	99.778859
2648.000000	99.779538
2647.000000	99.780200
2646.000000	99.781281
2645.000000	99.782159
2644.000000	99.781584
2643.000000	99.779787
2642.000000	99.778919
2641.000000	99.780713
2640.000000	99.784588
2639.000000	99.788718
2638.000000	99.792078
2637.000000	99.794569
2636.000000	99.796022
2635.000000	99.796418
2634.000000	99.796752
2633.000000	99.798377
2632.000000	99.801381
2631.000000	99.804517
2630.000000	99.806785
2629.000000	99.808121
2628.000000	99.808508
2627.000000	99.807645
2626.000000	99.806085
2625.000000	99.805673
2624.000000	99.807931
2623.000000	99.812528
2622.000000	99.818085
2621.000000	99.823868
2620.000000	99.829581
2619.000000	99.833774
2618.000000	99.833862
2617.000000	99.828496
2616.000000	99.819501
2615.000000	99.811094
2614.000000	99.807422
2613.000000	99.810478
2612.000000	99.818979
2611.000000	99.828338
2610.000000	99.832686
2609.000000	99.828828
2608.000000	99.819139
2607.000000	99.810133
2606.000000	99.807671
2605.000000	99.813376
2604.000000	99.824784
2603.000000	99.837572
2602.000000	99.847361
2601.000000	99.851094
2600.000000	99.848867
2599.000000	99.844714
2598.000000	99.844011
2597.000000	99.848728
2596.000000	99.855446
2595.000000	99.859006
2594.000000	99.858048
2593.000000	99.855949
2592.000000	99.856036
2591.000000	99.857458
2590.000000	99.857080
2589.000000	99.854308
2588.000000	99.851680
2587.000000	99.850448
2586.000000	99.848236
2585.000000	99.842586
2584.000000	99.835227
2583.000000	99.830914
2582.000000	99.832858
2581.000000	99.840786
2580.000000	99.852258
2579.000000	99.863606
2578.000000	99.870348
2577.000000	99.869896
2576.000000	99.864801
2575.000000	99.861201
2574.000000	99.862849
2573.000000	99.867730
2572.000000	99.870772
2571.000000	99.868454
2570.000000	99.860840
2569.000000	99.851590
2568.000000	99.846920
2567.000000	99.852034
2566.000000	99.866457
2565.000000	99.883781
2564.000000	99.896935
2563.000000	99.902563
2562.000000	99.900226
2561.000000	99.890795
2560.000000	99.877863
2559.000000	99.867925
2558.000000	99.865342
2557.000000	99.867933
2556.000000	99.870283
2555.000000	99.870653
2554.000000	99.871813
2553.000000	99.875747
2552.000000	99.880861
2551.000000	99.884536
2550.000000	99.885443
2549.000000	99.882799
2548.000000	99.876246
2547.000000	99.867716
2546.000000	99.861270
2545.000000	99.859775
2544.000000	99.863067
2543.000000	99.869774
2542.000000	99.878667
2541.000000	99.887173
2540.000000	99.890931
2539.000000	99.887114
2538.000000	99.877301
2537.000000	99.865546
2536.000000	99.854411
2535.000000	99.844409
2534.000000	99.836551
2533.000000	99.833325
2532.000000	99.836493
2531.000000	99.844785
2530.000000	99.854450
2529.000000	99.861900
2528.000000	99.865562
2527.000000	99.865261
2526.000000	99.860556
2525.000000	99.851064
2524.000000	99.838942
2523.000000	99.829590
2522.000000	99.827969
2521.000000	99.834127
2520.000000	99.843297
2519.000000	99.850016
2518.000000	99.851180
2517.000000	99.846546
2516.000000	99.839104
2515.000000	99.834813
2514.000000	99.838635
2513.000000	99.849137
2512.000000	99.858912
2511.000000	99.861725
2510.000000	99.857440
2509.000000	99.849049
2508.000000	99.837928
2507.000000	99.825009
2506.000000	99.814682
2505.000000	99.813052
2504.000000	99.821365
2503.000000	99.833579
2502.000000	99.841811
2501.000000	99.843097
2500.000000	99.840285
2499.000000	99.837807
2498.000000	99.837514
2497.000000	99.837951
2496.000000	99.836823
2495.000000	99.834141
2494.000000	99.832973
2493.000000	99.836509
2492.000000	99.844263
2491.000000	99.851722
2490.000000	99.854070
2489.000000	99.850350
2488.000000	99.844153
2487.000000	99.840521
2486.000000	99.841907
2485.000000	99.846542
2484.000000	99.850664
2483.000000	99.852438
2482.000000	99.853437
2481.000000	99.856306
2480.000000	99.861695
2479.000000	99.868080
2478.000000	99.874061
2477.000000	99.879950
2476.000000	99.887208
2475.000000	99.896623
2474.000000	99.906626
2473.000000	99.913253
2472.000000	99.912948
2471.000000	99.906356
2470.000000	99.898426
2469.000000	99.893506
2468.000000	99.891080
2467.000000	99.887932
2466.000000	99.883716
2465.000000	99.881937
2464.000000	99.885017
2463.000000	99.890876
2462.000000	99.895703
2461.000000	99.898194
2460.000000	99.899151
2459.000000	99.897932
2458.000000	99.891970
2457.000000	99.880603
2456.000000	99.868117
2455.000000	99.861641
2454.000000	99.865367
2453.000000	99.876582
2452.000000	99.887395
2451.000000	99.890969
2450.000000	99.886894
2449.000000	99.880670
2448.000000	99.878204
2447.000000	99.881056
2446.000000	99.886465
2445.000000	99.890744
2444.000000	99.892146
2443.000000	99.891417
2442.000000	99.890700
2441.000000	99.891808
2440.000000	99.894926
2439.000000	99.898886
2438.000000	99.902770
2437.000000	99.906892
2436.000000	99.912061
2435.000000	99.918226
2434.000000	99.923943
2433.000000	99.926843
2432.000000	99.925084
2431.000000	99.919542
2430.000000	99.914443
2429.000000	99.914129
2428.000000	99.918340
2427.000000	99.922079
2426.000000	99.921385
2425.000000	99.918042
2424.000000	99.917081
2423.000000	99.920446
2422.000000	99.924686
2421.000000	99.924750
2420.000000	99.918770
2419.000000	99.909341
2418.000000	99.901296
2417.000000	99.898062
2416.000000	99.899198
2415.000000	99.901512
2414.000000	99.902953
2413.000000	99.904467
2412.000000	99.907201
2411.000000	99.909425
2410.000000	99.908377
2409.000000	99.904366
2408.000000	99.900755
2407.000000	99.899896
2406.000000	99.901178
2405.000000	99.903220
2404.000000	99.905812
2403.000000	99.909296
2402.000000	99.913821
2401.000000	99.919568
2400.000000	99.925951
2399.000000	99.930467
2398.000000	99.930674
2397.000000	99.927890
2396.000000	99.926539
2395.000000	99.928565
2394.000000	99.930591
2393.000000	99.928402
2392.000000	99.922312
2391.000000	99.916415
2390.000000	99.913448
2389.000000	99.912396
2388.000000	99.911033
2387.000000	99.908357
2386.000000	99.905532
2385.000000	99.904878
2384.000000	99.908171
2383.000000	99.915707
2382.000000	99.925571
2381.000000	99.934892
2380.000000	99.940121
2379.000000	99.937165
2378.000000	99.924672
2377.000000	99.907642
2376.000000	99.895184
2375.000000	99.892645
2374.000000	99.899314
2373.000000	99.913154
2372.000000	99.932563
2371.000000	99.951139
2370.000000	99.958924
2369.000000	99.953605
2368.000000	99.941628
2367.000000	99.927622
2366.000000	99.911050
2365.000000	99.895993
2364.000000	99.892450
2363.000000	99.899335
2362.000000	99.902495
2361.000000	99.897106
2360.000000	99.892807
2359.000000	99.900409
2358.000000	99.916593
2357.000000	99.928297
2356.000000	99.924767
2355.000000	99.901734
2354.000000	99.875712
2353.000000	99.871209
2352.000000	99.891992
2351.000000	99.916326
2350.000000	99.921680
2349.000000	99.906202
2348.000000	99.882908
2347.000000	99.871534
2346.000000	99.879916
2345.000000	99.892380
2344.000000	99.889822
2343.000000	99.871549
2342.000000	99.855618
2341.000000	99.853104
2340.000000	99.856391
2339.000000	99.853446
2338.000000	99.846212
2337.000000	99.844716
2336.000000	99.850956
2335.000000	99.858353
2334.000000	99.866470
2333.000000	99.879877
2332.000000	99.894584
2331.000000	99.900250
2330.000000	99.891883
2329.000000	99.878013
2328.000000	99.864277
2327.000000	99.850910
2326.000000	99.837970
2325.000000	99.828340
2324.000000	99.826498
2323.000000	99.830334
2322.000000	99.834167
2321.000000	99.829644
2320.000000	99.813594
2319.000000	99.791112
2318.000000	99.771158
2317.000000	99.760627
2316.000000	99.759909
2315.000000	99.766904
2314.000000	99.777591
2313.000000	99.787621
2312.000000	99.793211
2311.000000	99.795108
2310.000000	99.797452
2309.000000	99.803406
2308.000000	99.812448
2307.000000	99.822115
2306.000000	99.831450
2305.000000	99.840856
2304.000000	99.852099
2303.000000	99.865442
2302.000000	99.878128
2301.000000	99.885218
2300.000000	99.884434
2299.000000	99.879313
2298.000000	99.874146
2297.000000	99.869404
2296.000000	99.861673
2295.000000	99.850489
2294.000000	99.840346
2293.000000	99.836883
2292.000000	99.841509
2291.000000	99.850222
2290.000000	99.856764
2289.000000	99.856400
2288.000000	99.849245
2287.000000	99.839509
2286.000000	99.832088
2285.000000	99.829324
2284.000000	99.832269
2283.000000	99.841483
2282.000000	99.855465
2281.000000	99.869171
2280.000000	99.878105
2279.000000	99.882682
2278.000000	99.886021
2277.000000	99.888148
2276.000000	99.885278
2275.000000	99.875855
2274.000000	99.864040
2273.000000	99.856523
2272.000000	99.856525
2271.000000	99.861600
2270.000000	99.865793
2269.000000	99.864005
2268.000000	99.856342
2267.000000	99.848668
2266.000000	99.847182
2265.000000	99.852193
2264.000000	99.858604
2263.000000	99.863108
2262.000000	99.868442
2261.000000	99.879099
2260.000000	99.894631
2259.000000	99.908610
2258.000000	99.914877
2257.000000	99.913338
2256.000000	99.909229
2255.000000	99.906154
2254.000000	99.901341
2253.000000	99.890180
2252.000000	99.874519
2251.000000	99.863143
2250.000000	99.862649
2249.000000	99.871305
2248.000000	99.883910
2247.000000	99.899210
2246.000000	99.917948
2245.000000	99.935585
2244.000000	99.942939
2243.000000	99.935899
2242.000000	99.920721
2241.000000	99.907173
2240.000000	99.898227
2239.000000	99.889042
2238.000000	99.876016
2237.000000	99.863880
2236.000000	99.861312
2235.000000	99.870110
2234.000000	99.882389
2233.000000	99.890531
2232.000000	99.896563
2231.000000	99.906942
2230.000000	99.919637
2229.000000	99.923375
2228.000000	99.911965
2227.000000	99.894013
2226.000000	99.885182
2225.000000	99.894362
2224.000000	99.919096
2223.000000	99.949247
2222.000000	99.970995
2221.000000	99.972116
2220.000000	99.950479
2219.000000	99.917252
2218.000000	99.888795
2217.000000	99.876442
2216.000000	99.883462
2215.000000	99.905716
2214.000000	99.931714
2213.000000	99.948157
2212.000000	99.952748
2211.000000	99.957702
2210.000000	99.973152
2209.000000	99.990186
2208.000000	99.988497
2207.000000	99.959672
2206.000000	99.915723
2205.000000	99.875644
2204.000000	99.850847
2203.000000	99.842957
2202.000000	99.847180
2201.000000	99.854621
2200.000000	99.857637
2199.000000	99.856905
2198.000000	99.859094
2197.000000	99.865631
2196.000000	99.868888
2195.000000	99.862821
2194.000000	99.853191
2193.000000	99.853378
2192.000000	99.871476
2191.000000	99.903113
2190.000000	99.934766
2189.000000	99.952593
2188.000000	99.952001
2187.000000	99.940704
2186.000000	99.929630
2185.000000	99.919727
2184.000000	99.901005
2183.000000	99.868022
2182.000000	99.833836
2181.000000	99.822698
2180.000000	99.846518
2179.000000	99.891004
2178.000000	99.926377
2177.000000	99.930837
2176.000000	99.906480
2175.000000	99.875989
2174.000000	99.864142
2173.000000	99.880110
2172.000000	99.913164
2171.000000	99.941656
2170.000000	99.946723
2169.000000	99.923090
2168.000000	99.881861
2167.000000	99.842324
2166.000000	99.818941
2165.000000	99.814286
2164.000000	99.821139
2163.000000	99.829740
2162.000000	99.835642
2161.000000	99.845651
2160.000000	99.875698
2159.000000	99.934252
2158.000000	100.005132
2157.000000	100.059068
2156.000000	100.084770
2155.000000	100.094961
2154.000000	100.103387
2153.000000	100.109984
2152.000000	100.108846
2151.000000	100.098817
2150.000000	100.080874
2149.000000	100.052818
2148.000000	100.015304
2147.000000	99.980510
2146.000000	99.967453
2145.000000	99.985929
2144.000000	100.026406
2143.000000	100.066520
2142.000000	100.086449
2141.000000	100.080545
2140.000000	100.059153
2139.000000	100.039809
2138.000000	100.034394
2137.000000	100.042636
2136.000000	100.055521
2135.000000	100.064494
2134.000000	100.068159
2133.000000	100.070738
2132.000000	100.074308
2131.000000	100.073588
2130.000000	100.061293
2129.000000	100.039392
2128.000000	100.020640
2127.000000	100.014847
2126.000000	100.016351
2125.000000	100.010768
2124.000000	99.993370
2123.000000	99.974289
2122.000000	99.964299
2121.000000	99.961288
2120.000000	99.954810
2119.000000	99.940521
2118.000000	99.925671
2117.000000	99.921734
2116.000000	99.934048
2115.000000	99.957391
2114.000000	99.979326
2113.000000	99.988549
2112.000000	99.982710
2111.000000	99.968599
2110.000000	99.954825
2109.000000	99.945899
2108.000000	99.942519
2107.000000	99.943887
2106.000000	99.948254
2105.000000	99.953962
2104.000000	99.961755
2103.000000	99.973798
2102.000000	99.989178
2101.000000	100.003057
2100.000000	100.011673
2099.000000	100.014957
2098.000000	100.012755
2097.000000	100.003056
2096.000000	99.987141
2095.000000	99.971726
2094.000000	99.961243
2093.000000	99.951720
2092.000000	99.937976
2091.000000	99.924125
2090.000000	99.920072
2089.000000	99.927127
2088.000000	99.933175
2087.000000	99.926431
2086.000000	99.910581
2085.000000	99.901544
2084.000000	99.909214
2083.000000	99.925683
2082.000000	99.934133
2081.000000	99.927379
2080.000000	99.914297
2079.000000	99.908130
2078.000000	99.912701
2077.000000	99.922549
2076.000000	99.931838
2075.000000	99.937903
2074.000000	99.938454
2073.000000	99.932201
2072.000000	99.923047
2071.000000	99.918029
2070.000000	99.919979
2069.000000	99.925767
2068.000000	99.930907
2067.000000	99.930987
2066.000000	99.919975
2065.000000	99.895645
2064.000000	99.867897
2063.000000	99.852370
2062.000000	99.853314
2061.000000	99.859752
2060.000000	99.859921
2059.000000	99.853173
2058.000000	99.845715
2057.000000	99.843377
2056.000000	99.852173
2055.000000	99.875426
2054.000000	99.902848
2053.000000	99.912011
2052.000000	99.891727
2051.000000	99.857786
2050.000000	99.837002
2049.000000	99.839617
2048.000000	99.855362
2047.000000	99.874467
2046.000000	99.898742
2045.000000	99.928810
2044.000000	99.955423
2043.000000	99.969499
2042.000000	99.970314
2041.000000	99.960062
2040.000000	99.938574
2039.000000	99.907543
2038.000000	99.875016
2037.000000	99.852557
2036.000000	99.849073
2035.000000	99.866406
2034.000000	99.898133
2033.000000	99.932906
2032.000000	99.962641
2031.000000	99.987105
2030.000000	100.007855
2029.000000	100.022899
2028.000000	100.032450
2027.000000	100.044079
2026.000000	100.065167
2025.000000	100.092958
2024.000000	100.116769
2023.000000	100.127474
2022.000000	100.121660
2021.000000	100.101172
2020.000000	100.073196
2019.000000	100.047268
2018.000000	100.029988
2017.000000	100.025249
2016.000000	100.036226
2015.000000	100.059741
2014.000000	100.079531
2013.000000	100.074963
2012.000000	100.042646
2011.000000	100.002379
2010.000000	99.976504
2009.000000	99.971038
2008.000000	99.980074
2007.000000	99.999372
2006.000000	100.026990
2005.000000	100.055809
2004.000000	100.075659
2003.000000	100.080847
2002.000000	100.071367
2001.000000	100.050630
2000.000000	100.024321
1999.000000	99.996607
1998.000000	99.966114
1997.000000	99.932186
1996.000000	99.905406
1995.000000	99.902921
1994.000000	99.930177
1993.000000	99.971489
1992.000000	100.001356
1991.000000	100.004833
1990.000000	99.985269
1989.000000	99.958186
1988.000000	99.942124
1987.000000	99.945020
1986.000000	99.954423
1985.000000	99.951073
1984.000000	99.935103
1983.000000	99.925327
1982.000000	99.927912
1981.000000	99.923689
1980.000000	99.900762
1979.000000	99.885465
1978.000000	99.916522
1977.000000	99.989522
1976.000000	100.053925
1975.000000	100.071780
1974.000000	100.053089
1973.000000	100.031162
1972.000000	100.025621
1971.000000	100.031458
1970.000000	100.031812
1969.000000	100.018088
1968.000000	100.002477
1967.000000	100.007441
1966.000000	100.038566
1965.000000	100.076869
1964.000000	100.101612
1963.000000	100.107613
1962.000000	100.097320
1961.000000	100.072597
1960.000000	100.041679
1959.000000	100.019859
1958.000000	100.012082
1957.000000	100.004821
1956.000000	99.986336
1955.000000	99.967064
1954.000000	99.967778
1953.000000	99.991387
1952.000000	100.017069
1951.000000	100.022184
1950.000000	100.003053
1949.000000	99.975044
1948.000000	99.959235
1947.000000	99.968160
1946.000000	99.997707
1945.000000	100.031410
1944.000000	100.054454
1943.000000	100.062512
1942.000000	100.057126
1941.000000	100.039759
1940.000000	100.016368
1939.000000	100.000467
1938.000000	100.003220
1937.000000	100.021506
1936.000000	100.040330
1935.000000	100.047826
1934.000000	100.043563
1933.000000	100.034520
1932.000000	100.028645
1931.000000	100.031208
1930.000000	100.043002
1929.000000	100.059296
1928.000000	100.074572
1927.000000	100.088793
1926.000000	100.104834
1925.000000	100.120135
1924.000000	100.124512
1923.000000	100.110143
1922.000000	100.081389
1921.000000	100.049766
1920.000000	100.022646
1919.000000	100.001567
1918.000000	99.987619
1917.000000	99.981253
1916.000000	99.978197
1915.000000	99.972809
1914.000000	99.964023
1913.000000	99.955998
1912.000000	99.953715
1911.000000	99.958160
1910.000000	99.967849
1909.000000	99.982888
1908.000000	100.004256
1907.000000	100.027894
1906.000000	100.042685
1905.000000	100.038914
1904.000000	100.019027
1903.000000	99.997108
1902.000000	99.985433
1901.000000	99.984093
1900.000000	99.986447
1899.000000	99.989498
1898.000000	99.993884
1897.000000	99.998077
1896.000000	99.998912
1895.000000	99.998692
1894.000000	100.005615
1893.000000	100.023312
1892.000000	100.044732
1891.000000	100.057759
1890.000000	100.055377
1889.000000	100.042904
1888.000000	100.033023
1887.000000	100.032924
1886.000000	100.039466
1885.000000	100.044723
1884.000000	100.044483
1883.000000	100.041660
1882.000000	100.041304
1881.000000	100.044004
1880.000000	100.046470
1879.000000	100.046600
1878.000000	100.045969
1877.000000	100.048900
1876.000000	100.058174
1875.000000	100.069736
1874.000000	100.073487
1873.000000	100.062547
1872.000000	100.041736
1871.000000	100.023990
1870.000000	100.018512
1869.000000	100.023566
1868.000000	100.030279
1867.000000	100.034305
1866.000000	100.039342
1865.000000	100.048929
1864.000000	100.062495
1863.000000	100.076905
1862.000000	100.086343
1861.000000	100.083623
1860.000000	100.066661
1859.000000	100.042859
1858.000000	100.023927
1857.000000	100.017089
1856.000000	100.022574
1855.000000	100.036733
1854.000000	100.053519
1853.000000	100.064393
1852.000000	100.064115
1851.000000	100.056476
1850.000000	100.049359
1849.000000	100.047311
1848.000000	100.050143
1847.000000	100.055910
1846.000000	100.061882
1845.000000	100.063574
1844.000000	100.059189
1843.000000	100.055144
1842.000000	100.059203
1841.000000	100.070591
1840.000000	100.083156
1839.000000	100.091490
1838.000000	100.092160
1837.000000	100.084592
1836.000000	100.072669
1835.000000	100.063980
1834.000000	100.063946
1833.000000	100.071315
1832.000000	100.081263
1831.000000	100.088416
1830.000000	100.088382
1829.000000	100.082090
1828.000000	100.075302
1827.000000	100.072202
1826.000000	100.070997
1825.000000	100.067201
1824.000000	100.060814
1823.000000	100.056762
1822.000000	100.058960
1821.000000	100.066911
1820.000000	100.077495
1819.000000	100.086701
1818.000000	100.091313
1817.000000	100.091512
1816.000000	100.090591
1815.000000	100.091818
1814.000000	100.094678
1813.000000	100.095430
1812.000000	100.091778
1811.000000	100.084528
1810.000000	100.076222
1809.000000	100.068588
1808.000000	100.061576
1807.000000	100.055492
1806.000000	100.050709
1805.000000	100.045125
1804.000000	100.035225
1803.000000	100.020860
1802.000000	100.005874
1801.000000	99.994279
1800.000000	99.986387
1799.000000	99.979191
1798.000000	99.971572
1797.000000	99.964120
1796.000000	99.956345
1795.000000	99.948768
1794.000000	99.943633
1793.000000	99.943086
1792.000000	99.947106
1791.000000	99.953654
1790.000000	99.963006
1789.000000	99.976236
1788.000000	99.990981
1787.000000	100.003864
1786.000000	100.013760
1785.000000	100.021146
1784.000000	100.026210
1783.000000	100.030010
1782.000000	100.033493
1781.000000	100.036127
1780.000000	100.038018
1779.000000	100.039839
1778.000000	100.042398
1777.000000	100.045634
1776.000000	100.049610
1775.000000	100.056354
1774.000000	100.066086
1773.000000	100.073715
1772.000000	100.075112
1771.000000	100.072104
1770.000000	100.067241
1769.000000	100.060957
1768.000000	100.053567
1767.000000	100.047528
1766.000000	100.045633
1765.000000	100.047491
1764.000000	100.049880
1763.000000	100.049077
1762.000000	100.042770
1761.000000	100.033585
1760.000000	100.027686
1759.000000	100.026928
1758.000000	100.027078
1757.000000	100.021911
1756.000000	100.011765
1755.000000	100.002263
1754.000000	99.993750
1753.000000	99.980617
1752.000000	99.959679
1751.000000	99.936256
1750.000000	99.918516
1749.000000	99.907514
1748.000000	99.900243
1747.000000	99.895943
1746.000000	99.892058
1745.000000	99.884260
1744.000000	99.872379
1743.000000	99.860030
1742.000000	99.848848
1741.000000	99.837183
1740.000000	99.825270
1739.000000	99.817140
1738.000000	99.812356
1737.000000	99.806231
1736.000000	99.797515
1735.000000	99.794134
1734.000000	99.807890
1733.000000	99.833456
1732.000000	99.857993
1731.000000	99.882097
1730.000000	99.908759
1729.000000	99.934769
1728.000000	99.957111
1727.000000	99.976421
1726.000000	99.992793
1725.000000	100.003090
1724.000000	100.007152
1723.000000	100.009667
1722.000000	100.015422
1721.000000	100.023029
1720.000000	100.028206
1719.000000	100.026266
1718.000000	100.014909
1717.000000	100.003048
1716.000000	99.997171
1715.000000	99.993646
1714.000000	99.990894
1713.000000	99.988538
1712.000000	99.986847
1711.000000	99.988990
1710.000000	99.997002
1709.000000	100.007494
1708.000000	100.015291
1707.000000	100.018449
1706.000000	100.017808
1705.000000	100.013719
1704.000000	100.003021
1703.000000	99.985815
1702.000000	99.967019
1701.000000	99.952078
1700.000000	99.940461
1699.000000	99.930056
1698.000000	99.923950
1697.000000	99.922008
1696.000000	99.919806
1695.000000	99.913617
1694.000000	99.908330
1693.000000	99.908341
1692.000000	99.907539
1691.000000	99.899639
1690.000000	99.884049
1689.000000	99.863930
1688.000000	99.842905
1687.000000	99.824177
1686.000000	99.810469
1685.000000	99.803756
1684.000000	99.803124
1683.000000	99.801036
1682.000000	99.793274
1681.000000	99.783474
1680.000000	99.774109
1679.000000	99.765645
1678.000000	99.757564
1677.000000	99.746821
1676.000000	99.733544
1675.000000	99.722824
1674.000000	99.718236
1673.000000	99.715900
1672.000000	99.710832
1671.000000	99.701438
1670.000000	99.692597
1669.000000	99.688963
1668.000000	99.688136
1667.000000	99.687149
1666.000000	99.683765
1665.000000	99.676375
1664.000000	99.665722
1663.000000	99.654225
1662.000000	99.642803
1661.000000	99.628552
1660.000000	99.613069
1659.000000	99.601129
1658.000000	99.595146
1657.000000	99.588933
1656.000000	99.580822
1655.000000	99.575289
1654.000000	99.585411
1653.000000	99.604409
1652.000000	99.600215
1651.000000	99.584845
1650.000000	99.578045
1649.000000	99.573783
1648.000000	99.566935
1647.000000	99.564583
1646.000000	99.571077
1645.000000	99.577319
1644.000000	99.579387
1643.000000	99.580670
1642.000000	99.582095
1641.000000	99.584833
1640.000000	99.588540
1639.000000	99.592809
1638.000000	99.600172
1637.000000	99.616185
1636.000000	99.642969
1635.000000	99.665783
1634.000000	99.669269
1633.000000	99.662594
1632.000000	99.656368
1631.000000	99.652963
1630.000000	99.654351
1629.000000	99.659414
1628.000000	99.665479
1627.000000	99.670586
1626.000000	99.674415
1625.000000	99.678105
1624.000000	99.685607
1623.000000	99.700299
1622.000000	99.716833
1621.000000	99.725597
1620.000000	99.726712
1619.000000	99.726916
1618.000000	99.731329
1617.000000	99.739721
1616.000000	99.748084
1615.000000	99.756337
1614.000000	99.765835
1613.000000	99.774486
1612.000000	99.781608
1611.000000	99.790955
1610.000000	99.803340
1609.000000	99.812422
1608.000000	99.813825
1607.000000	99.812509
1606.000000	99.813948
1605.000000	99.816160
1604.000000	99.816334
1603.000000	99.816153
1602.000000	99.816949
1601.000000	99.815346
1600.000000	99.808338
1599.000000	99.798529
1598.000000	99.789736
1597.000000	99.782442
1596.000000	99.775720
1595.000000	99.769943
1594.000000	99.764643
1593.000000	99.756578
1592.000000	99.744471
1591.000000	99.732113
1590.000000	99.722644
1589.000000	99.713116
1588.000000	99.699070
1587.000000	99.680572
1586.000000	99.659630
1585.000000	99.635328
1584.000000	99.607335
1583.000000	99.579666
1582.000000	99.555156
1581.000000	99.531836
1580.000000	99.508092
1579.000000	99.487580
1578.000000	99.475591
1577.000000	99.474949
1576.000000	99.485316
1575.000000	99.503084
1574.000000	99.521670
1573.000000	99.536246
1572.000000	99.548144
1571.000000	99.563375
1570.000000	99.586052
1569.000000	99.607381
1568.000000	99.618062
1567.000000	99.623155
1566.000000	99.629560
1565.000000	99.635789
1564.000000	99.638467
1563.000000	99.638609
1562.000000	99.638297
1561.000000	99.642858
1560.000000	99.646720
1559.000000	99.638743
1558.000000	99.623150
1557.000000	99.595636
1556.000000	99.565729
1555.000000	99.545717
1554.000000	99.529919
1553.000000	99.514647
1552.000000	99.492413
1551.000000	99.461778
1550.000000	99.423378
1549.000000	99.382652
1548.000000	99.341833
1547.000000	99.298091
1546.000000	99.244305
1545.000000	99.176648
1544.000000	99.102385
1543.000000	99.034097
1542.000000	98.976920
1541.000000	98.937656
1540.000000	98.934708
1539.000000	98.955048
1538.000000	98.963008
1537.000000	98.957084
1536.000000	98.948058
1535.000000	98.943124
1534.000000	98.950121
1533.000000	98.963796
1532.000000	98.969574
1531.000000	98.961550
1530.000000	98.946057
1529.000000	98.926731
1528.000000	98.903706
1527.000000	98.877335
1526.000000	98.847609
1525.000000	98.813878
1524.000000	98.777968
1523.000000	98.743115
1522.000000	98.713783
1521.000000	98.691675
1520.000000	98.669419
1519.000000	98.642379
1518.000000	98.609994
1517.000000	98.571582
1516.000000	98.529295
1515.000000	98.483132
1514.000000	98.431318
1513.000000	98.375267
1512.000000	98.321847
1511.000000	98.276702
1510.000000	98.238039
1509.000000	98.202482
1508.000000	98.175903
1507.000000	98.171303
1506.000000	98.161321
1505.000000	98.113294
1504.000000	98.052806
1503.000000	97.998326
1502.000000	97.944865
1501.000000	97.891578
1500.000000	97.839811
1499.000000	97.792401
1498.000000	97.745244
1497.000000	97.698517
1496.000000	97.658487
1495.000000	97.624726
1494.000000	97.588374
1493.000000	97.543346
1492.000000	97.493016
1491.000000	97.448352
1490.000000	97.416904
1489.000000	97.392602
1488.000000	97.361965
1487.000000	97.320791
1486.000000	97.274579
1485.000000	97.225279
1484.000000	97.172969
1483.000000	97.121304
1482.000000	97.073765
1481.000000	97.030263
1480.000000	96.987175
1479.000000	96.941426
1478.000000	96.891143
1477.000000	96.834009
1476.000000	96.768522
1475.000000	96.699216
1474.000000	96.637275
1473.000000	96.595056
1472.000000	96.569013
1471.000000	96.536023
1470.000000	96.486413
1469.000000	96.429169
1468.000000	96.374358
1467.000000	96.329749
1466.000000	96.301204
1465.000000	96.288834
1464.000000	96.280317
1463.000000	96.258537
1462.000000	96.219568
1461.000000	96.168631
1460.000000	96.111309
1459.000000	96.053931
1458.000000	96.012389
1457.000000	96.007198
1456.000000	96.018083
1455.000000	96.007376
1454.000000	95.972880
1453.000000	95.929022
1452.000000	95.888080
1451.000000	95.853818
1450.000000	95.821516
1449.000000	95.792442
1448.000000	95.773020
1447.000000	95.759764
1446.000000	95.738055
1445.000000	95.703006
1444.000000	95.664535
1443.000000	95.631905
1442.000000	95.603678
1441.000000	95.570941
1440.000000	95.528030
1439.000000	95.479241
1438.000000	95.439889
1437.000000	95.429718
1436.000000	95.442488
1435.000000	95.441862
1434.000000	95.410105
1433.000000	95.360583
1432.000000	95.312489
1431.000000	95.275961
1430.000000	95.246991
1429.000000	95.217629
1428.000000	95.183913
1427.000000	95.144209
1426.000000	95.099780
1425.000000	95.057377
1424.000000	95.024190
1423.000000	94.990960
1422.000000	94.940635
1421.000000	94.876389
1420.000000	94.827103
1419.000000	94.814613
1418.000000	94.813077
1417.000000	94.787435
1416.000000	94.740768
1415.000000	94.687981
1414.000000	94.633325
1413.000000	94.579167
1412.000000	94.533586
1411.000000	94.500049
1410.000000	94.466001
1409.000000	94.417993
1408.000000	94.358624
1407.000000	94.300547
1406.000000	94.252768
1405.000000	94.217506
1404.000000	94.191583
1403.000000	94.163010
1402.000000	94.119948
1401.000000	94.065935
1400.000000	94.018956
1399.000000	93.987994
1398.000000	93.955765
1397.000000	93.907308
1396.000000	93.858242
1395.000000	93.832186
1394.000000	93.821293
1393.000000	93.799853
1392.000000	93.765417
1391.000000	93.731128
1390.000000	93.703996
1389.000000	93.690425
1388.000000	93.706398
1387.000000	93.758955
1386.000000	93.823307
1385.000000	93.873012
1384.000000	93.914830
1383.000000	93.968893
1382.000000	94.039076
1381.000000	94.116472
1380.000000	94.199213
1379.000000	94.290610
1378.000000	94.383099
1377.000000	94.467069
1376.000000	94.552483
1375.000000	94.662580
1374.000000	94.798890
1373.000000	94.931878
1372.000000	95.040068
1371.000000	95.131753
1370.000000	95.224397
1369.000000	95.326263
1368.000000	95.434370
1367.000000	95.537747
1366.000000	95.627732
1365.000000	95.710026
1364.000000	95.803343
1363.000000	95.920429
1362.000000	96.048815
1361.000000	96.164362
1360.000000	96.260674
1359.000000	96.346225
1358.000000	96.426788
1357.000000	96.504163
1356.000000	96.581149
1355.000000	96.658672
1354.000000	96.732595
1353.000000	96.800553
1352.000000	96.866252
1351.000000	96.932701
1350.000000	96.996749
1349.000000	97.053323
1348.000000	97.102358
1347.000000	97.146826
1346.000000	97.188182
1345.000000	97.227400
1344.000000	97.265997
1343.000000	97.303018
1342.000000	97.336100
1341.000000	97.367935
1340.000000	97.406769
1339.000000	97.455038
1338.000000	97.503101
1337.000000	97.542783
1336.000000	97.577084
1335.000000	97.611149
1334.000000	97.644543
1333.000000	97.675622
1332.000000	97.706526
1331.000000	97.739819
1330.000000	97.774343
1329.000000	97.807911
1328.000000	97.840508
1327.000000	97.872379
1326.000000	97.902364
1325.000000	97.930111
1324.000000	97.957083
1323.000000	97.982551
1322.000000	98.002882
1321.000000	98.017338
1320.000000	98.030801
1319.000000	98.048332
1318.000000	98.070092
1317.000000	98.094034
1316.000000	98.119130
1315.000000	98.143366
1314.000000	98.163630
1313.000000	98.180928
1312.000000	98.201138
1311.000000	98.227569
1310.000000	98.256719
1309.000000	98.283610
1308.000000	98.306843
1307.000000	98.326836
1306.000000	98.343512
1305.000000	98.357834
1304.000000	98.372743
1303.000000	98.389741
1302.000000	98.407531
1301.000000	98.425721
1300.000000	98.446554
1299.000000	98.470975
1298.000000	98.496086
1297.000000	98.518229
1296.000000	98.535738
1295.000000	98.547930
1294.000000	98.554956
1293.000000	98.559772
1292.000000	98.566409
1291.000000	98.574693
1290.000000	98.580241
1289.000000	98.581603
1288.000000	98.583633
1287.000000	98.591389
1286.000000	98.603683
1285.000000	98.615326
1284.000000	98.623281
1283.000000	98.628066
1282.000000	98.631473
1281.000000	98.634982
1280.000000	98.639492
1279.000000	98.645638
1278.000000	98.654448
1277.000000	98.666991
1276.000000	98.681827
1275.000000	98.694181
1274.000000	98.700414
1273.000000	98.702698
1272.000000	98.706419
1271.000000	98.713365
1270.000000	98.720677
1269.000000	98.726093
1268.000000	98.730288
1267.000000	98.733953
1266.000000	98.736564
1265.000000	98.738843
1264.000000	98.742795
1263.000000	98.748283
1262.000000	98.752750
1261.000000	98.755107
1260.000000	98.757016
1259.000000	98.760011
1258.000000	98.764053
1257.000000	98.768945
1256.000000	98.774021
1255.000000	98.776756
1254.000000	98.775236
1253.000000	98.771673
1252.000000	98.769864
1251.000000	98.769696
1250.000000	98.767909
1249.000000	98.763751
1248.000000	98.759613
1247.000000	98.756043
1246.000000	98.750986
1245.000000	98.744843
1244.000000	98.741416
1243.000000	98.742330
1242.000000	98.744919
1241.000000	98.747153
1240.000000	98.749990
1239.000000	98.753023
1238.000000	98.752557
1237.000000	98.746884
1236.000000	98.739631
1235.000000	98.735188
1234.000000	98.734210
1233.000000	98.736022
1232.000000	98.741934
1231.000000	98.752696
1230.000000	98.765505
1229.000000	98.777225
1228.000000	98.788524
1227.000000	98.801910
1226.000000	98.817428
1225.000000	98.833026
1224.000000	98.847786
1223.000000	98.862151
1222.000000	98.875919
1221.000000	98.888115
1220.000000	98.898478
1219.000000	98.907995
1218.000000	98.918449
1217.000000	98.931521
1216.000000	98.946896
1215.000000	98.961357
1214.000000	98.971876
1213.000000	98.979791
1212.000000	98.989239
1211.000000	99.000945
1210.000000	99.010532
1209.000000	99.013907
1208.000000	99.011493
1207.000000	99.006050
1206.000000	98.999427
1205.000000	98.993055
1204.000000	98.988891
1203.000000	98.987779
1202.000000	98.988575
1201.000000	98.990442
1200.000000	98.994172
1199.000000	98.999731
1198.000000	99.004465
1197.000000	99.005885
1196.000000	99.004958
1195.000000	99.004873
1194.000000	99.007628
1193.000000	99.012961
1192.000000	99.019417
1191.000000	99.025239
1190.000000	99.029417
1189.000000	99.033062
1188.000000	99.038484
1187.000000	99.045684
1186.000000	99.050790
1185.000000	99.049556
1184.000000	99.041797
1183.000000	99.031749
1182.000000	99.024727
1181.000000	99.023452
1180.000000	99.026464
1179.000000	99.029473
1178.000000	99.029042
1177.000000	99.025277
1176.000000	99.020468
1175.000000	99.015787
1174.000000	99.010816
1173.000000	99.006038
1172.000000	99.003775
1171.000000	99.005698
1170.000000	99.010466
1169.000000	99.014666
1168.000000	99.015397
1167.000000	99.011776
1166.000000	99.005238
1165.000000	98.999177
1164.000000	98.997473
1163.000000	99.002196
1162.000000	99.012278
1161.000000	99.024368
1160.000000	99.035072
1159.000000	99.043052
1158.000000	99.049361
1157.000000	99.055134
1156.000000	99.059186
1155.000000	99.059597
1154.000000	99.058140
1153.000000	99.060582
1152.000000	99.070698
1151.000000	99.085947
1150.000000	99.101319
1149.000000	99.115551
1148.000000	99.130417
1147.000000	99.145363
1146.000000	99.156890
1145.000000	99.163207
1144.000000	99.166084
1143.000000	99.167829
1142.000000	99.169384
1141.000000	99.171856
1140.000000	99.177188
1139.000000	99.186129
1138.000000	99.197221
1137.000000	99.208550
1136.000000	99.219286
1135.000000	99.229550
1134.000000	99.240243
1133.000000	99.252622
1132.000000	99.266164
1131.000000	99.276990
1130.000000	99.280576
1129.000000	99.276529
1128.000000	99.269250
1127.000000	99.264044
1126.000000	99.263645
1125.000000	99.267619
1124.000000	99.273303
1123.000000	99.277498
1122.000000	99.279023
1121.000000	99.279601
1120.000000	99.281076
1119.000000	99.282506
1118.000000	99.281270
1117.000000	99.276113
1116.000000	99.267636
1115.000000	99.257232
1114.000000	99.247490
1113.000000	99.242008
1112.000000	99.241963
1111.000000	99.243723
1110.000000	99.242617
1109.000000	99.238571
1108.000000	99.235671
1107.000000	99.236581
1106.000000	99.240384
1105.000000	99.245555
1104.000000	99.251566
1103.000000	99.256937
1102.000000	99.258196
1101.000000	99.252570
1100.000000	99.240498
1099.000000	99.225276
1098.000000	99.212105
1097.000000	99.205094
1096.000000	99.203882
1095.000000	99.203768
1094.000000	99.201401
1093.000000	99.199009
1092.000000	99.200214
1091.000000	99.203076
1090.000000	99.201122
1089.000000	99.191165
1088.000000	99.176261
1087.000000	99.160569
1086.000000	99.145305
1085.000000	99.131231
1084.000000	99.121695
1083.000000	99.119811
1082.000000	99.123279
1081.000000	99.124553
1080.000000	99.117430
1079.000000	99.103630
1078.000000	99.092251
1077.000000	99.091434
1076.000000	99.100159
1075.000000	99.109793
1074.000000	99.114328
1073.000000	99.116442
1072.000000	99.121683
1071.000000	99.129834
1070.000000	99.135992
1069.000000	99.138364
1068.000000	99.140205
1067.000000	99.144342
1066.000000	99.150052
1065.000000	99.156095
1064.000000	99.162956
1063.000000	99.170476
1062.000000	99.176092
1061.000000	99.177283
1060.000000	99.174275
1059.000000	99.169365
1058.000000	99.164878
1057.000000	99.161974
1056.000000	99.159991
1055.000000	99.156831
1054.000000	99.151624
1053.000000	99.147163
1052.000000	99.148166
1051.000000	99.156512
1050.000000	99.169168
1049.000000	99.180876
1048.000000	99.187975
1047.000000	99.190259
1046.000000	99.190281
1045.000000	99.190040
1044.000000	99.187662
1043.000000	99.179231
1042.000000	99.165151
1041.000000	99.152302
1040.000000	99.147449
1039.000000	99.150686
1038.000000	99.157683
1037.000000	99.165735
1036.000000	99.173653
1035.000000	99.178047
1034.000000	99.175757
1033.000000	99.169889
1032.000000	99.168082
1031.000000	99.173216
1030.000000	99.179969
1029.000000	99.182000
1028.000000	99.178999
1027.000000	99.174801
1026.000000	99.171779
1025.000000	99.169840
1024.000000	99.169151
1023.000000	99.171313
1022.000000	99.178045
1021.000000	99.189442
1020.000000	99.202964
1019.000000	99.214299
1018.000000	99.220648
1017.000000	99.223375
1016.000000	99.226219
1015.000000	99.231400
1014.000000	99.239007
1013.000000	99.249088
1012.000000	99.261633
1011.000000	99.274759
1010.000000	99.285924
1009.000000	99.295569
1008.000000	99.306926
1007.000000	99.321238
1006.000000	99.335428
1005.000000	99.345552
1004.000000	99.351039
1003.000000	99.354718
1002.000000	99.360161
1001.000000	99.369868
1000.000000	99.384520
999.000000	99.402866
998.000000	99.422728
997.000000	99.442185
996.000000	99.459140
995.000000	99.470702
994.000000	99.475438
993.000000	99.476756
992.000000	99.481737
991.000000	99.494938
990.000000	99.513692
989.000000	99.530485
988.000000	99.540236
987.000000	99.544930
986.000000	99.551097
985.000000	99.562586
984.000000	99.576314
983.000000	99.586063
982.000000	99.590000
981.000000	99.592823
980.000000	99.600030
979.000000	99.611629
978.000000	99.622253
977.000000	99.626037
976.000000	99.621009
975.000000	99.611017
974.000000	99.604170
973.000000	99.606791
972.000000	99.616985
971.000000	99.625573
970.000000	99.625396
969.000000	99.618513
968.000000	99.613354
967.000000	99.617041
966.000000	99.631473
965.000000	99.653422
964.000000	99.675312
963.000000	99.688224
962.000000	99.688600
961.000000	99.681995
960.000000	99.677555
959.000000	99.679796
958.000000	99.687902
957.000000	99.700660
956.000000	99.717792
955.000000	99.736732
954.000000	99.752641
953.000000	99.763271
952.000000	99.771342
951.000000	99.780856
950.000000	99.792576
949.000000	99.803965
948.000000	99.812222
947.000000	99.816816
946.000000	99.819386
945.000000	99.821102
944.000000	99.820631
943.000000	99.816383
942.000000	99.811147
941.000000	99.811524
940.000000	99.820694
939.000000	99.834097
938.000000	99.844743
937.000000	99.851359
936.000000	99.858277
935.000000	99.868330
934.000000	99.878885
933.000000	99.884745
932.000000	99.883176
931.000000	99.876298
930.000000	99.869824
929.000000	99.868721
928.000000	99.872976
927.000000	99.878798
926.000000	99.884315
925.000000	99.891360
924.000000	99.900824
923.000000	99.910143
922.000000	99.917844
921.000000	99.926360
920.000000	99.936528
919.000000	99.943166
918.000000	99.941500
917.000000	99.935464
916.000000	99.933600
915.000000	99.938247
914.000000	99.944177
913.000000	99.947372
912.000000	99.949232
911.000000	99.951674
910.000000	99.953696
909.000000	99.954300
908.000000	99.954811
907.000000	99.956758
906.000000	99.960560
905.000000	99.966767
904.000000	99.975330
903.000000	99.983654
902.000000	99.989255
901.000000	99.994442
900.000000	100.004443
899.000000	100.020442
898.000000	100.038667
897.000000	100.056170
896.000000	100.072724
895.000000	100.086451
894.000000	100.093467
893.000000	100.094380
892.000000	100.096143
891.000000	100.104347
890.000000	100.116485
889.000000	100.124816
888.000000	100.122464
887.000000	100.103372
886.000000	100.059692
885.000000	99.981342
884.000000	99.856251
883.000000	99.671143
882.000000	99.413331
881.000000	99.074528
880.000000	98.650708
879.000000	98.141238
878.000000	97.554594
877.000000	96.911173
876.000000	96.233396
875.000000	95.535984
874.000000	94.854443
873.000000	94.300553
872.000000	94.070754
871.000000	94.336557
870.000000	95.087493
869.000000	96.099391
868.000000	97.075625
867.000000	97.826625
866.000000	98.330642
865.000000	98.661610
864.000000	98.894496
863.000000	99.071827
862.000000	99.214831
861.000000	99.333041
860.000000	99.425390
859.000000	99.487987
858.000000	99.526581
857.000000	99.554985
856.000000	99.583447
855.000000	99.614799
854.000000	99.648676
853.000000	99.681361
852.000000	99.701790
851.000000	99.698162
850.000000	99.673337
849.000000	99.648340
848.000000	99.645864
847.000000	99.671598
846.000000	99.713245
845.000000	99.754295
844.000000	99.785613
843.000000	99.807144
842.000000	99.823610
841.000000	99.839205
840.000000	99.853959
839.000000	99.864052
838.000000	99.866713
837.000000	99.865440
836.000000	99.869720
835.000000	99.888218
834.000000	99.920519
833.000000	99.955384
832.000000	99.979556
831.000000	99.989598
830.000000	99.993360
829.000000	99.998653
828.000000	100.003834
827.000000	100.003332
826.000000	99.998439
825.000000	99.995560
824.000000	99.995238
823.000000	99.991507
822.000000	99.983538
821.000000	99.979938
820.000000	99.988339
819.000000	100.006289
818.000000	100.024952
817.000000	100.037002
816.000000	100.038739
815.000000	100.030133
814.000000	100.016739
813.000000	100.007011
812.000000	100.003207
811.000000	99.998367
810.000000	99.987040
809.000000	99.976378
808.000000	99.980663
807.000000	100.004804
806.000000	100.037273
805.000000	100.060063
804.000000	100.063764
803.000000	100.053499
802.000000	100.042853
801.000000	100.042402
800.000000	100.051996
799.000000	100.062804
798.000000	100.066145
797.000000	100.059753
796.000000	100.046711
795.000000	100.031994
794.000000	100.021030
793.000000	100.017911
792.000000	100.022203
791.000000	100.029078
790.000000	100.034798
789.000000	100.040646
788.000000	100.049544
787.000000	100.060367
786.000000	100.068072
785.000000	100.068831
784.000000	100.063170
783.000000	100.054310
782.000000	100.045156
781.000000	100.037496
780.000000	100.033329
779.000000	100.035342
778.000000	100.044127
777.000000	100.054634
776.000000	100.058322
775.000000	100.051492
774.000000	100.039916
773.000000	100.032558
772.000000	100.032149
771.000000	100.035016
770.000000	100.038119
769.000000	100.041165
768.000000	100.042480
767.000000	100.038953
766.000000	100.031578
765.000000	100.026077
764.000000	100.025949
763.000000	100.028915
762.000000	100.032150
761.000000	100.036744
760.000000	100.044326
759.000000	100.052700
758.000000	100.058065
757.000000	100.059399
756.000000	100.058442
755.000000	100.057909
754.000000	100.061298
753.000000	100.071332
752.000000	100.086402
751.000000	100.100618
750.000000	100.108597
749.000000	100.108667
748.000000	100.101553
747.000000	100.089262
746.000000	100.076099
745.000000	100.066890
744.000000	100.062589
743.000000	100.060917
742.000000	100.061803
741.000000	100.067878
740.000000	100.078803
739.000000	100.089931
738.000000	100.097465
737.000000	100.099890
736.000000	100.094010
735.000000	100.076682
734.000000	100.053077
733.000000	100.035528
732.000000	100.029165
731.000000	100.024254
730.000000	100.007904
729.000000	99.978467
728.000000	99.946919
727.000000	99.926618
726.000000	99.921400
725.000000	99.924056
724.000000	99.924323
723.000000	99.916693
722.000000	99.899749
721.000000	99.870015
720.000000	99.821080
719.000000	99.749420
718.000000	99.654874
717.000000	99.530616
716.000000	99.360832
715.000000	99.144191
714.000000	98.922471
713.000000	98.770581
712.000000	98.745481
711.000000	98.843806
710.000000	99.011160
709.000000	99.185007
708.000000	99.327418
707.000000	99.430844
706.000000	99.503017
705.000000	99.553487
704.000000	99.590877
703.000000	99.621422
702.000000	99.647931
701.000000	99.669794
700.000000	99.683830
699.000000	99.691828
698.000000	99.701710
697.000000	99.719814
696.000000	99.745843
695.000000	99.774092
694.000000	99.802216
693.000000	99.830633
692.000000	99.853601
691.000000	99.865946
690.000000	99.871831
689.000000	99.879510
688.000000	99.888374
687.000000	99.889063
686.000000	99.882021
685.000000	99.877572
684.000000	99.874828
683.000000	99.862572
682.000000	99.842146
681.000000	99.829360
680.000000	99.828379
679.000000	99.827010
678.000000	99.821732
677.000000	99.818950
676.000000	99.821727
675.000000	99.827765
674.000000	99.841186
673.000000	99.869988
672.000000	99.914017
671.000000	99.976308
670.000000	100.073934
669.000000	100.214925
668.000000	100.306448
667.000000	100.244135
666.000000	100.112979
665.000000	99.980331
664.000000	99.872760
663.000000	99.814112
662.000000	99.800512
661.000000	99.808754
660.000000	99.818084
659.000000	99.825818
658.000000	99.834565
657.000000	99.836350
656.000000	99.829670
655.000000	99.826371
654.000000	99.829129
653.000000	99.825910
652.000000	99.817072
651.000000	99.819078
650.000000	99.835801
649.000000	99.847585
648.000000	99.842006
647.000000	99.831315
646.000000	99.828383
645.000000	99.832331
644.000000	99.839968
643.000000	99.849975
642.000000	99.855998
641.000000	99.849001
640.000000	99.832905
639.000000	99.824725
638.000000	99.830927
637.000000	99.840051
636.000000	99.844724
635.000000	99.849909
634.000000	99.856515
633.000000	99.855214
632.000000	99.841688
631.000000	99.825843
630.000000	99.818925
629.000000	99.820400
628.000000	99.825001
627.000000	99.832311
626.000000	99.841603
625.000000	99.850163
624.000000	99.855451
623.000000	99.852122
622.000000	99.832110
621.000000	99.796883
620.000000	99.764594
619.000000	99.752475
618.000000	99.755515
617.000000	99.755138
616.000000	99.746389
615.000000	99.740200
614.000000	99.740296
613.000000	99.736996
612.000000	99.726275
611.000000	99.717101
610.000000	99.715122
609.000000	99.714228
608.000000	99.711361
607.000000	99.716529
606.000000	99.736492
605.000000	99.764011
604.000000	99.787577
603.000000	99.801678
602.000000	99.805416
601.000000	99.799510
600.000000	99.789167
599.000000	99.782401
598.000000	99.779672
597.000000	99.772888
596.000000	99.759479
595.000000	99.749435
594.000000	99.752646
593.000000	99.765042
592.000000	99.774599
591.000000	99.777340
590.000000	99.780846
589.000000	99.793078
588.000000	99.812345
587.000000	99.825675
586.000000	99.814605
585.000000	99.769652
584.000000	99.704064
583.000000	99.649703
582.000000	99.634464
581.000000	99.662355
580.000000	99.713337
579.000000	99.760655
578.000000	99.788399
577.000000	99.797233
576.000000	99.797215
575.000000	99.795047
574.000000	99.789341
573.000000	99.779273
572.000000	99.771232
571.000000	99.770210
570.000000	99.770042
569.000000	99.761281
568.000000	99.747251
567.000000	99.739411
566.000000	99.737659
565.000000	99.728916
564.000000	99.705991
563.000000	99.675702
562.000000	99.647167
561.000000	99.625257
560.000000	99.617983
559.000000	99.634944
558.000000	99.669561
557.000000	99.696521
556.000000	99.697254
555.000000	99.680669
554.000000	99.669785
553.000000	99.672623
552.000000	99.676706
551.000000	99.668634
550.000000	99.651876
549.000000	99.644448
548.000000	99.660795
547.000000	99.696662
546.000000	99.731680
545.000000	99.748925
544.000000	99.749448
543.000000	99.743062
542.000000	99.732710
541.000000	99.717033
540.000000	99.702219
539.000000	99.697423
538.000000	99.697966
537.000000	99.686327
536.000000	99.653419
535.000000	99.610338
534.000000	99.576512
533.000000	99.564741
532.000000	99.577534
531.000000	99.608176
530.000000	99.641825
529.000000	99.665308
528.000000	99.676331
527.000000	99.678744
526.000000	99.673267
525.000000	99.660866
524.000000	99.651294
523.000000	99.653020
522.000000	99.660176
521.000000	99.663685
520.000000	99.668262
519.000000	99.683543
518.000000	99.702688
517.000000	99.711982
516.000000	99.721115
515.000000	99.749481
514.000000	99.783907
513.000000	99.783585
512.000000	99.734324
511.000000	99.675295
510.000000	99.655233
509.000000	99.678702
508.000000	99.714564
507.000000	99.743422
506.000000	99.769852
505.000000	99.794638
504.000000	99.802957
503.000000	99.783002
502.000000	99.745280
501.000000	99.715112
500.000000	99.706250
499.000000	99.713213
498.000000	99.723977
497.000000	99.731511
496.000000	99.735807
495.000000	99.739238
494.000000	99.743631
493.000000	99.751735
492.000000	99.765887
491.000000	99.781408
490.000000	99.786106
489.000000	99.775925
488.000000	99.762532
487.000000	99.755725
486.000000	99.746118
485.000000	99.723190
484.000000	99.709365
483.000000	99.744048
482.000000	99.823364
481.000000	99.887519
480.000000	99.882910
479.000000	99.816700
478.000000	99.742123
477.000000	99.706470
476.000000	99.723159
475.000000	99.781314
474.000000	99.856560
473.000000	99.912275
472.000000	99.917784
471.000000	99.879179
470.000000	99.830852
469.000000	99.801288
468.000000	99.798458
467.000000	99.813484
466.000000	99.830454
465.000000	99.842702
464.000000	99.855128
463.000000	99.860004
462.000000	99.827502
461.000000	99.745395
460.000000	99.658379
459.000000	99.641346
458.000000	99.721892
457.000000	99.835732
456.000000	99.910472
455.000000	99.948020
454.000000	99.980309
453.000000	100.018606
452.000000	100.060059
451.000000	100.097073
450.000000	100.113687
