PE IR       SUBTECH     SPECTRUM    ASCII       PEDS        4.00        
   -1
AD10-F010_1.ASC
23/09/08
10:54:37.00
23/09/08
11:14:38.00
uco
Sample 010 By uco Date Friday, September 08 2023
450.000000
#HDR
-1
-1
#GR
cm-1
%T
1.0
0.0
4000.000000
-1.000000
3551
8
100.371927
94.209603
#DATA
4000.000000	100.116799
3999.000000	100.121022
3998.000000	100.124051
3997.000000	100.123712
3996.000000	100.119883
3995.000000	100.114287
3994.000000	100.109202
3993.000000	100.119024
3992.000000	100.119543
3991.000000	100.121648
3990.000000	100.122829
3989.000000	100.121316
3988.000000	100.117615
3987.000000	100.114051
3986.000000	100.112556
3985.000000	100.112744
3984.000000	100.112289
3983.000000	100.109181
3982.000000	100.103736
3981.000000	100.098632
3980.000000	100.097038
3979.000000	100.100391
3978.000000	100.107482
3977.000000	100.115140
3976.000000	100.119976
3975.000000	100.120213
3974.000000	100.116475
3973.000000	100.111180
3972.000000	100.106918
3971.000000	100.105055
3970.000000	100.105260
3969.000000	100.106120
3968.000000	100.106451
3967.000000	100.106070
3966.000000	100.105479
3965.000000	100.104878
3964.000000	100.103608
3963.000000	100.100788
3962.000000	100.096551
3961.000000	100.092593
3960.000000	100.091127
3959.000000	100.093389
3958.000000	100.098694
3957.000000	100.104559
3956.000000	100.108205
3955.000000	100.108231
3954.000000	100.105493
3953.000000	100.102190
3952.000000	100.099854
3951.000000	100.098241
3950.000000	100.095822
3949.000000	100.091804
3948.000000	100.087554
3947.000000	100.085791
3946.000000	100.088660
3945.000000	100.095923
3944.000000	100.104491
3943.000000	100.110208
3942.000000	100.110709
3941.000000	100.106934
3940.000000	100.101728
3939.000000	100.097599
3938.000000	100.095597
3937.000000	100.095550
3936.000000	100.096856
3935.000000	100.098506
3934.000000	100.099108
3933.000000	100.097703
3932.000000	100.094599
3931.000000	100.091157
3930.000000	100.088308
3929.000000	100.086310
3928.000000	100.085424
3927.000000	100.085348
3926.000000	100.085068
3925.000000	100.084078
3924.000000	100.083531
3923.000000	100.084909
3922.000000	100.087908
3921.000000	100.090387
3920.000000	100.090501
3919.000000	100.088712
3918.000000	100.087626
3917.000000	100.089016
3916.000000	100.091441
3915.000000	100.092097
3914.000000	100.089932
3913.000000	100.086679
3912.000000	100.084999
3911.000000	100.086461
3910.000000	100.090367
3909.000000	100.094366
3908.000000	100.096310
3907.000000	100.094918
3906.000000	100.089558
3905.000000	100.080417
3904.000000	100.069847
3903.000000	100.062085
3902.000000	100.060048
3901.000000	100.063341
3900.000000	100.069347
3899.000000	100.074535
3898.000000	100.076188
3897.000000	100.073876
3896.000000	100.068908
3895.000000	100.063447
3894.000000	100.059250
3893.000000	100.057054
3892.000000	100.056947
3891.000000	100.058893
3890.000000	100.061879
3889.000000	100.064895
3888.000000	100.067762
3887.000000	100.069558
3886.000000	100.069597
3885.000000	100.069867
3884.000000	100.072814
3883.000000	100.078055
3882.000000	100.082891
3881.000000	100.084505
3880.000000	100.082663
3879.000000	100.078955
3878.000000	100.074951
3877.000000	100.072381
3876.000000	100.072484
3875.000000	100.074978
3874.000000	100.079120
3873.000000	100.084770
3872.000000	100.091188
3871.000000	100.096208
3870.000000	100.097747
3869.000000	100.096046
3868.000000	100.092675
3867.000000	100.088981
3866.000000	100.085225
3865.000000	100.080549
3864.000000	100.074841
3863.000000	100.069268
3862.000000	100.064718
3861.000000	100.061863
3860.000000	100.061427
3859.000000	100.062446
3858.000000	100.062953
3857.000000	100.062103
3856.000000	100.060821
3855.000000	100.058910
3854.000000	100.052753
3853.000000	100.048353
3852.000000	100.051615
3851.000000	100.056238
3850.000000	100.058229
3849.000000	100.059391
3848.000000	100.061315
3847.000000	100.064340
3846.000000	100.067715
3845.000000	100.070431
3844.000000	100.071623
3843.000000	100.070991
3842.000000	100.069026
3841.000000	100.067279
3840.000000	100.067102
3839.000000	100.068595
3838.000000	100.071534
3837.000000	100.075523
3836.000000	100.080012
3835.000000	100.084606
3834.000000	100.088990
3833.000000	100.092761
3832.000000	100.095412
3831.000000	100.096127
3830.000000	100.094516
3829.000000	100.090973
3828.000000	100.086249
3827.000000	100.081068
3826.000000	100.076327
3825.000000	100.073699
3824.000000	100.075029
3823.000000	100.080422
3822.000000	100.085315
3821.000000	100.085673
3820.000000	100.082776
3819.000000	100.078231
3818.000000	100.073229
3817.000000	100.068088
3816.000000	100.063526
3815.000000	100.061295
3814.000000	100.061523
3813.000000	100.062668
3812.000000	100.063461
3811.000000	100.064061
3810.000000	100.065544
3809.000000	100.068401
3808.000000	100.071023
3807.000000	100.072083
3806.000000	100.072658
3805.000000	100.074702
3804.000000	100.079084
3803.000000	100.084814
3802.000000	100.089031
3801.000000	100.091222
3800.000000	100.091829
3799.000000	100.090805
3798.000000	100.088051
3797.000000	100.083012
3796.000000	100.075639
3795.000000	100.067960
3794.000000	100.062850
3793.000000	100.061627
3792.000000	100.063266
3791.000000	100.065627
3790.000000	100.067224
3789.000000	100.067940
3788.000000	100.068354
3787.000000	100.068840
3786.000000	100.069943
3785.000000	100.073006
3784.000000	100.078929
3783.000000	100.086183
3782.000000	100.091007
3781.000000	100.089225
3780.000000	100.079395
3779.000000	100.066061
3778.000000	100.056576
3777.000000	100.054687
3776.000000	100.059102
3775.000000	100.066112
3774.000000	100.072058
3773.000000	100.074990
3772.000000	100.074668
3771.000000	100.071938
3770.000000	100.068861
3769.000000	100.067637
3768.000000	100.068802
3767.000000	100.070949
3766.000000	100.072092
3765.000000	100.070762
3764.000000	100.066886
3763.000000	100.062079
3762.000000	100.058312
3761.000000	100.056144
3760.000000	100.054577
3759.000000	100.052595
3758.000000	100.049430
3757.000000	100.045107
3756.000000	100.041830
3755.000000	100.042852
3754.000000	100.048244
3753.000000	100.052360
3752.000000	100.047857
3751.000000	100.036353
3750.000000	100.028949
3749.000000	100.029890
3748.000000	100.035082
3747.000000	100.041951
3746.000000	100.050075
3745.000000	100.058091
3744.000000	100.065998
3743.000000	100.073294
3742.000000	100.077582
3741.000000	100.078522
3740.000000	100.078586
3739.000000	100.080074
3738.000000	100.082574
3737.000000	100.081761
3736.000000	100.076264
3735.000000	100.072380
3734.000000	100.073736
3733.000000	100.075496
3732.000000	100.072839
3731.000000	100.065954
3730.000000	100.057688
3729.000000	100.050714
3728.000000	100.046716
3727.000000	100.045577
3726.000000	100.045430
3725.000000	100.044381
3724.000000	100.042712
3723.000000	100.043074
3722.000000	100.047281
3721.000000	100.054464
3720.000000	100.061519
3719.000000	100.064894
3718.000000	100.062498
3717.000000	100.055160
3716.000000	100.047613
3715.000000	100.045924
3714.000000	100.051947
3713.000000	100.060355
3712.000000	100.063303
3711.000000	100.060377
3710.000000	100.057671
3709.000000	100.058527
3708.000000	100.062174
3707.000000	100.066590
3706.000000	100.070460
3705.000000	100.074371
3704.000000	100.079478
3703.000000	100.085836
3702.000000	100.092361
3701.000000	100.097786
3700.000000	100.101012
3699.000000	100.101496
3698.000000	100.099316
3697.000000	100.094254
3696.000000	100.085805
3695.000000	100.074065
3694.000000	100.060650
3693.000000	100.049197
3692.000000	100.044443
3691.000000	100.050052
3690.000000	100.065201
3689.000000	100.082762
3688.000000	100.092885
3687.000000	100.091499
3686.000000	100.083343
3685.000000	100.074524
3684.000000	100.067347
3683.000000	100.061764
3682.000000	100.057936
3681.000000	100.056006
3680.000000	100.054972
3679.000000	100.053641
3678.000000	100.051787
3677.000000	100.050349
3676.000000	100.051587
3675.000000	100.059092
3674.000000	100.067982
3673.000000	100.071324
3672.000000	100.068377
3671.000000	100.061607
3670.000000	100.056213
3669.000000	100.058348
3668.000000	100.065941
3667.000000	100.072380
3666.000000	100.074746
3665.000000	100.074301
3664.000000	100.073851
3663.000000	100.075338
3662.000000	100.078125
3661.000000	100.079913
3660.000000	100.079723
3659.000000	100.078672
3658.000000	100.077873
3657.000000	100.076678
3656.000000	100.074105
3655.000000	100.070304
3654.000000	100.066149
3653.000000	100.063094
3652.000000	100.061690
3651.000000	100.061282
3650.000000	100.064151
3649.000000	100.075971
3648.000000	100.092162
3647.000000	100.099310
3646.000000	100.093597
3645.000000	100.082255
3644.000000	100.073362
3643.000000	100.070553
3642.000000	100.072885
3641.000000	100.076442
3640.000000	100.077267
3639.000000	100.073827
3638.000000	100.068088
3637.000000	100.064071
3636.000000	100.064075
3635.000000	100.066145
3634.000000	100.065650
3633.000000	100.060344
3632.000000	100.052611
3631.000000	100.046907
3630.000000	100.045840
3629.000000	100.051743
3628.000000	100.065017
3627.000000	100.077928
3626.000000	100.085456
3625.000000	100.089266
3624.000000	100.092714
3623.000000	100.098273
3622.000000	100.107272
3621.000000	100.118860
3620.000000	100.129155
3619.000000	100.133370
3618.000000	100.129790
3617.000000	100.120842
3616.000000	100.111238
3615.000000	100.103974
3614.000000	100.097946
3613.000000	100.089881
3612.000000	100.078318
3611.000000	100.065359
3610.000000	100.055057
3609.000000	100.051811
3608.000000	100.057835
3607.000000	100.069539
3606.000000	100.079427
3605.000000	100.082801
3604.000000	100.081066
3603.000000	100.078672
3602.000000	100.079115
3601.000000	100.082879
3600.000000	100.087709
3599.000000	100.090755
3598.000000	100.090827
3597.000000	100.088637
3596.000000	100.085792
3595.000000	100.084256
3594.000000	100.085532
3593.000000	100.089657
3592.000000	100.094823
3591.000000	100.099225
3590.000000	100.101839
3589.000000	100.102210
3588.000000	100.101108
3587.000000	100.101092
3586.000000	100.102333
3585.000000	100.103026
3584.000000	100.103027
3583.000000	100.102731
3582.000000	100.101606
3581.000000	100.099459
3580.000000	100.097245
3579.000000	100.095865
3578.000000	100.094141
3577.000000	100.089617
3576.000000	100.081289
3575.000000	100.071406
3574.000000	100.063782
3573.000000	100.060443
3572.000000	100.060803
3571.000000	100.063404
3570.000000	100.067640
3569.000000	100.073027
3568.000000	100.079092
3567.000000	100.086125
3566.000000	100.093027
3565.000000	100.095964
3564.000000	100.093631
3563.000000	100.088359
3562.000000	100.083242
3561.000000	100.080795
3560.000000	100.082816
3559.000000	100.089460
3558.000000	100.098757
3557.000000	100.107326
3556.000000	100.112065
3555.000000	100.111395
3554.000000	100.105709
3553.000000	100.097091
3552.000000	100.088372
3551.000000	100.081284
3550.000000	100.075629
3549.000000	100.070433
3548.000000	100.065494
3547.000000	100.062459
3546.000000	100.064087
3545.000000	100.071229
3544.000000	100.081047
3543.000000	100.089503
3542.000000	100.094449
3541.000000	100.096488
3540.000000	100.097755
3539.000000	100.099851
3538.000000	100.102567
3537.000000	100.104001
3536.000000	100.102361
3535.000000	100.097661
3534.000000	100.091977
3533.000000	100.088264
3532.000000	100.088458
3531.000000	100.092088
3530.000000	100.096209
3529.000000	100.097388
3528.000000	100.094506
3527.000000	100.089765
3526.000000	100.086733
3525.000000	100.087691
3524.000000	100.092302
3523.000000	100.097988
3522.000000	100.101732
3521.000000	100.102337
3520.000000	100.101236
3519.000000	100.100632
3518.000000	100.101096
3517.000000	100.101099
3516.000000	100.098942
3515.000000	100.094875
3514.000000	100.090963
3513.000000	100.089280
3512.000000	100.090462
3511.000000	100.093773
3510.000000	100.098054
3509.000000	100.102407
3508.000000	100.106136
3507.000000	100.108408
3506.000000	100.108363
3505.000000	100.105614
3504.000000	100.101367
3503.000000	100.098392
3502.000000	100.098551
3501.000000	100.100730
3500.000000	100.102161
3499.000000	100.101492
3498.000000	100.100073
3497.000000	100.100696
3496.000000	100.104525
3495.000000	100.109345
3494.000000	100.111368
3493.000000	100.109031
3492.000000	100.104338
3491.000000	100.100209
3490.000000	100.097360
3489.000000	100.094680
3488.000000	100.092200
3487.000000	100.092035
3486.000000	100.095685
3485.000000	100.101491
3484.000000	100.105914
3483.000000	100.106974
3482.000000	100.105854
3481.000000	100.104976
3480.000000	100.105228
3479.000000	100.105659
3478.000000	100.105403
3477.000000	100.104877
3476.000000	100.104991
3475.000000	100.105689
3474.000000	100.105872
3473.000000	100.105001
3472.000000	100.104257
3471.000000	100.105432
3470.000000	100.108608
3469.000000	100.111642
3468.000000	100.112286
3467.000000	100.110588
3466.000000	100.108918
3465.000000	100.109668
3464.000000	100.113130
3463.000000	100.117294
3462.000000	100.119469
3461.000000	100.118427
3460.000000	100.115404
3459.000000	100.113123
3458.000000	100.113618
3457.000000	100.116683
3456.000000	100.120363
3455.000000	100.122715
3454.000000	100.123103
3453.000000	100.122100
3452.000000	100.120452
3451.000000	100.118398
3450.000000	100.115813
3449.000000	100.113200
3448.000000	100.112343
3447.000000	100.115028
3446.000000	100.120202
3445.000000	100.123706
3444.000000	100.122090
3443.000000	100.116115
3442.000000	100.109798
3441.000000	100.106121
3440.000000	100.104644
3439.000000	100.103289
3438.000000	100.101267
3437.000000	100.099570
3436.000000	100.099523
3435.000000	100.101549
3434.000000	100.104909
3433.000000	100.108214
3432.000000	100.110470
3431.000000	100.112076
3430.000000	100.114205
3429.000000	100.117022
3428.000000	100.119145
3427.000000	100.119308
3426.000000	100.117912
3425.000000	100.116326
3424.000000	100.115124
3423.000000	100.113714
3422.000000	100.111586
3421.000000	100.109299
3420.000000	100.107919
3419.000000	100.107569
3418.000000	100.106847
3417.000000	100.104141
3416.000000	100.099694
3415.000000	100.096144
3414.000000	100.096226
3413.000000	100.099718
3412.000000	100.103427
3411.000000	100.104412
3410.000000	100.102583
3409.000000	100.099973
3408.000000	100.098308
3407.000000	100.097856
3406.000000	100.098025
3405.000000	100.098252
3404.000000	100.098560
3403.000000	100.099634
3402.000000	100.101996
3401.000000	100.104765
3400.000000	100.105687
3399.000000	100.103229
3398.000000	100.098512
3397.000000	100.094502
3396.000000	100.093162
3395.000000	100.093933
3394.000000	100.094998
3393.000000	100.095337
3392.000000	100.095451
3391.000000	100.096650
3390.000000	100.099942
3389.000000	100.104976
3388.000000	100.109427
3387.000000	100.109885
3386.000000	100.104393
3385.000000	100.094457
3384.000000	100.084067
3383.000000	100.076597
3382.000000	100.072866
3381.000000	100.071964
3380.000000	100.072852
3379.000000	100.074689
3378.000000	100.076359
3377.000000	100.076823
3376.000000	100.075965
3375.000000	100.074446
3374.000000	100.072588
3373.000000	100.069990
3372.000000	100.066498
3371.000000	100.062923
3370.000000	100.060209
3369.000000	100.058144
3368.000000	100.055655
3367.000000	100.052489
3366.000000	100.049955
3365.000000	100.049507
3364.000000	100.050965
3363.000000	100.052534
3362.000000	100.052424
3361.000000	100.050163
3360.000000	100.046537
3359.000000	100.042699
3358.000000	100.039378
3357.000000	100.036631
3356.000000	100.034099
3355.000000	100.031575
3354.000000	100.029417
3353.000000	100.028417
3352.000000	100.029182
3351.000000	100.031402
3350.000000	100.033471
3349.000000	100.032980
3348.000000	100.028419
3347.000000	100.020856
3346.000000	100.013598
3345.000000	100.009502
3344.000000	100.008559
3343.000000	100.008482
3342.000000	100.007390
3341.000000	100.005224
3340.000000	100.002828
3339.000000	100.000975
3338.000000	100.000647
3337.000000	100.002941
3336.000000	100.007381
3335.000000	100.010932
3334.000000	100.010263
3333.000000	100.005351
3332.000000	99.999839
3331.000000	99.997460
3330.000000	99.998744
3329.000000	100.001352
3328.000000	100.002767
3327.000000	100.001957
3326.000000	99.999005
3325.000000	99.994289
3324.000000	99.988375
3323.000000	99.982328
3322.000000	99.977786
3321.000000	99.976601
3320.000000	99.979790
3319.000000	99.985942
3318.000000	99.990765
3317.000000	99.989471
3316.000000	99.980798
3315.000000	99.968779
3314.000000	99.959806
3313.000000	99.957439
3312.000000	99.960056
3311.000000	99.963361
3310.000000	99.964691
3309.000000	99.964703
3308.000000	99.965433
3307.000000	99.967647
3306.000000	99.970206
3305.000000	99.971170
3304.000000	99.968986
3303.000000	99.963169
3302.000000	99.954738
3301.000000	99.946032
3300.000000	99.939441
3299.000000	99.936006
3298.000000	99.935480
3297.000000	99.937527
3296.000000	99.942031
3295.000000	99.948061
3294.000000	99.953472
3293.000000	99.956552
3292.000000	99.957644
3291.000000	99.958270
3290.000000	99.958720
3289.000000	99.957409
3288.000000	99.952884
3287.000000	99.945820
3286.000000	99.938711
3285.000000	99.934009
3284.000000	99.932673
3283.000000	99.933801
3282.000000	99.935187
3281.000000	99.934613
3280.000000	99.931366
3279.000000	99.926664
3278.000000	99.922545
3277.000000	99.920260
3276.000000	99.919599
3275.000000	99.919464
3274.000000	99.918863
3273.000000	99.917654
3272.000000	99.916687
3271.000000	99.917084
3270.000000	99.919005
3269.000000	99.921106
3268.000000	99.921510
3267.000000	99.919530
3266.000000	99.916516
3265.000000	99.914929
3264.000000	99.916371
3263.000000	99.920334
3262.000000	99.924779
3261.000000	99.927912
3260.000000	99.929404
3259.000000	99.929859
3258.000000	99.929515
3257.000000	99.927896
3256.000000	99.924661
3255.000000	99.920434
3254.000000	99.916631
3253.000000	99.914553
3252.000000	99.914573
3251.000000	99.915933
3250.000000	99.917338
3249.000000	99.918182
3248.000000	99.919171
3247.000000	99.921350
3246.000000	99.924408
3245.000000	99.926318
3244.000000	99.924908
3243.000000	99.919620
3242.000000	99.911943
3241.000000	99.904922
3240.000000	99.902213
3239.000000	99.906100
3238.000000	99.915164
3237.000000	99.924287
3236.000000	99.928270
3235.000000	99.925933
3234.000000	99.920301
3233.000000	99.915193
3232.000000	99.912452
3231.000000	99.912280
3230.000000	99.914574
3229.000000	99.918700
3228.000000	99.922576
3227.000000	99.923356
3226.000000	99.919707
3225.000000	99.913112
3224.000000	99.906755
3223.000000	99.903129
3222.000000	99.902481
3221.000000	99.903214
3220.000000	99.903453
3219.000000	99.902223
3218.000000	99.899413
3217.000000	99.895346
3216.000000	99.891106
3215.000000	99.889039
3214.000000	99.891573
3213.000000	99.898528
3212.000000	99.906193
3211.000000	99.910127
3210.000000	99.909174
3209.000000	99.906144
3208.000000	99.904648
3207.000000	99.905689
3206.000000	99.907383
3205.000000	99.907182
3204.000000	99.903916
3203.000000	99.898348
3202.000000	99.892332
3201.000000	99.887491
3200.000000	99.884496
3199.000000	99.883418
3198.000000	99.884339
3197.000000	99.886929
3196.000000	99.889635
3195.000000	99.890385
3194.000000	99.888773
3193.000000	99.886797
3192.000000	99.886696
3191.000000	99.888265
3190.000000	99.889114
3189.000000	99.887476
3188.000000	99.884068
3187.000000	99.881006
3186.000000	99.879569
3185.000000	99.879314
3184.000000	99.879188
3183.000000	99.878947
3182.000000	99.879332
3181.000000	99.880810
3180.000000	99.882474
3179.000000	99.882745
3178.000000	99.881334
3177.000000	99.879969
3176.000000	99.880733
3175.000000	99.883976
3174.000000	99.888289
3173.000000	99.892063
3172.000000	99.894516
3171.000000	99.895550
3170.000000	99.895398
3169.000000	99.894549
3168.000000	99.893447
3167.000000	99.892210
3166.000000	99.891014
3165.000000	99.890525
3164.000000	99.891204
3163.000000	99.892238
3162.000000	99.892115
3161.000000	99.890586
3160.000000	99.889099
3159.000000	99.888680
3158.000000	99.888141
3157.000000	99.885564
3156.000000	99.881408
3155.000000	99.878994
3154.000000	99.881343
3153.000000	99.888019
3152.000000	99.895535
3151.000000	99.900619
3150.000000	99.902478
3149.000000	99.902006
3148.000000	99.899603
3147.000000	99.894605
3146.000000	99.886835
3145.000000	99.878064
3144.000000	99.871441
3143.000000	99.869324
3142.000000	99.871728
3141.000000	99.876543
3140.000000	99.881027
3139.000000	99.883367
3138.000000	99.883578
3137.000000	99.883123
3136.000000	99.883352
3135.000000	99.884109
3134.000000	99.884241
3133.000000	99.883666
3132.000000	99.884327
3131.000000	99.888472
3130.000000	99.896039
3129.000000	99.904108
3128.000000	99.908956
3127.000000	99.908620
3126.000000	99.903776
3125.000000	99.896720
3124.000000	99.890000
3123.000000	99.885512
3122.000000	99.883945
3121.000000	99.884337
3120.000000	99.884603
3119.000000	99.883137
3118.000000	99.880248
3117.000000	99.877867
3116.000000	99.877871
3115.000000	99.880667
3114.000000	99.885155
3113.000000	99.889346
3112.000000	99.891013
3111.000000	99.888681
3110.000000	99.882966
3109.000000	99.876793
3108.000000	99.873447
3107.000000	99.873884
3106.000000	99.875901
3105.000000	99.876135
3104.000000	99.873142
3103.000000	99.868750
3102.000000	99.866451
3101.000000	99.868224
3100.000000	99.872637
3099.000000	99.876012
3098.000000	99.875378
3097.000000	99.870565
3096.000000	99.864152
3095.000000	99.859867
3094.000000	99.860431
3093.000000	99.865749
3092.000000	99.872593
3091.000000	99.876552
3090.000000	99.875140
3089.000000	99.869296
3088.000000	99.862011
3087.000000	99.855923
3086.000000	99.852384
3085.000000	99.851962
3084.000000	99.854726
3083.000000	99.859840
3082.000000	99.865509
3081.000000	99.869680
3080.000000	99.870981
3079.000000	99.869420
3078.000000	99.866580
3077.000000	99.864552
3076.000000	99.863908
3075.000000	99.862835
3074.000000	99.859046
3073.000000	99.852695
3072.000000	99.846776
3071.000000	99.844432
3070.000000	99.846087
3069.000000	99.849124
3068.000000	99.849941
3067.000000	99.846547
3066.000000	99.840076
3065.000000	99.834174
3064.000000	99.832261
3063.000000	99.834984
3062.000000	99.840229
3061.000000	99.845237
3060.000000	99.848255
3059.000000	99.848758
3058.000000	99.847551
3057.000000	99.846812
3056.000000	99.848605
3055.000000	99.852656
3054.000000	99.856471
3053.000000	99.858363
3052.000000	99.859160
3051.000000	99.860147
3050.000000	99.860466
3049.000000	99.858199
3048.000000	99.853624
3047.000000	99.849715
3046.000000	99.849111
3045.000000	99.851553
3044.000000	99.854636
3043.000000	99.856371
3042.000000	99.856855
3041.000000	99.857786
3040.000000	99.860505
3039.000000	99.864319
3038.000000	99.866973
3037.000000	99.866933
3036.000000	99.864679
3035.000000	99.861455
3034.000000	99.857618
3033.000000	99.853100
3032.000000	99.848776
3031.000000	99.846111
3030.000000	99.845719
3029.000000	99.847364
3028.000000	99.850765
3027.000000	99.854938
3026.000000	99.857145
3025.000000	99.854631
3024.000000	99.848129
3023.000000	99.842110
3022.000000	99.840580
3021.000000	99.843476
3020.000000	99.847777
3019.000000	99.850791
3018.000000	99.851241
3017.000000	99.848296
3016.000000	99.841656
3015.000000	99.832858
3014.000000	99.825311
3013.000000	99.822088
3012.000000	99.823637
3011.000000	99.827432
3010.000000	99.829782
3009.000000	99.828519
3008.000000	99.824537
3007.000000	99.820720
3006.000000	99.818852
3005.000000	99.817637
3004.000000	99.814174
3003.000000	99.807622
3002.000000	99.801032
3001.000000	99.799264
3000.000000	99.804757
2999.000000	99.815146
2998.000000	99.824993
2997.000000	99.830205
2996.000000	99.830947
2995.000000	99.830225
2994.000000	99.829900
2993.000000	99.828666
2992.000000	99.824072
2991.000000	99.815810
2990.000000	99.806488
2989.000000	99.799393
2988.000000	99.795934
2987.000000	99.794974
2986.000000	99.793950
2985.000000	99.790451
2984.000000	99.783224
2983.000000	99.772719
2982.000000	99.761139
2981.000000	99.751595
2980.000000	99.745942
2979.000000	99.742905
2978.000000	99.738859
2977.000000	99.731254
2976.000000	99.721093
2975.000000	99.711498
2974.000000	99.704117
2973.000000	99.697634
2972.000000	99.689573
2971.000000	99.678486
2970.000000	99.664310
2969.000000	99.647928
2968.000000	99.631240
2967.000000	99.616836
2966.000000	99.606254
2965.000000	99.598398
2964.000000	99.590258
2963.000000	99.579468
2962.000000	99.565932
2961.000000	99.551048
2960.000000	99.535835
2959.000000	99.520234
2958.000000	99.504206
2957.000000	99.488976
2956.000000	99.476584
2955.000000	99.468228
2954.000000	99.463582
2953.000000	99.461941
2952.000000	99.463047
2951.000000	99.466142
2950.000000	99.468839
2949.000000	99.468314
2948.000000	99.463675
2947.000000	99.456250
2946.000000	99.447242
2945.000000	99.435933
2944.000000	99.420737
2943.000000	99.401401
2942.000000	99.379680
2941.000000	99.357946
2940.000000	99.337258
2939.000000	99.316348
2938.000000	99.292305
2937.000000	99.262759
2936.000000	99.227760
2935.000000	99.189568
2934.000000	99.150857
2933.000000	99.113310
2932.000000	99.077262
2931.000000	99.041504
2930.000000	99.003472
2929.000000	98.960919
2928.000000	98.914208
2927.000000	98.866709
2926.000000	98.822714
2925.000000	98.785431
2924.000000	98.756411
2923.000000	98.735587
2922.000000	98.721419
2921.000000	98.712408
2920.000000	98.709715
2919.000000	98.717431
2918.000000	98.739384
2917.000000	98.775867
2916.000000	98.823878
2915.000000	98.879873
2914.000000	98.941254
2913.000000	99.005712
2912.000000	99.069933
2911.000000	99.129491
2910.000000	99.179965
2909.000000	99.219163
2908.000000	99.248878
2907.000000	99.273903
2906.000000	99.298392
2905.000000	99.323158
2904.000000	99.346550
2903.000000	99.367056
2902.000000	99.384302
2901.000000	99.398848
2900.000000	99.411654
2899.000000	99.424362
2898.000000	99.438108
2897.000000	99.452436
2896.000000	99.466183
2895.000000	99.479070
2894.000000	99.491444
2893.000000	99.502695
2892.000000	99.511487
2891.000000	99.517839
2890.000000	99.523890
2889.000000	99.531933
2888.000000	99.542264
2887.000000	99.553186
2886.000000	99.562533
2885.000000	99.568941
2884.000000	99.572429
2883.000000	99.574210
2882.000000	99.575660
2881.000000	99.577246
2880.000000	99.578566
2879.000000	99.579242
2878.000000	99.579256
2877.000000	99.578610
2876.000000	99.577231
2875.000000	99.575043
2874.000000	99.571483
2873.000000	99.565285
2872.000000	99.555946
2871.000000	99.545417
2870.000000	99.537084
2869.000000	99.532394
2868.000000	99.529368
2867.000000	99.524831
2866.000000	99.517219
2865.000000	99.506743
2864.000000	99.493883
2863.000000	99.478800
2862.000000	99.461460
2861.000000	99.441180
2860.000000	99.416254
2859.000000	99.384996
2858.000000	99.347364
2857.000000	99.305368
2856.000000	99.262194
2855.000000	99.221201
2854.000000	99.185227
2853.000000	99.156072
2852.000000	99.135045
2851.000000	99.124809
2850.000000	99.129971
2849.000000	99.154489
2848.000000	99.197668
2847.000000	99.253404
2846.000000	99.313775
2845.000000	99.373362
2844.000000	99.430111
2843.000000	99.483231
2842.000000	99.531325
2841.000000	99.572518
2840.000000	99.605918
2839.000000	99.632229
2838.000000	99.653115
2837.000000	99.670284
2836.000000	99.685115
2835.000000	99.698607
2834.000000	99.711137
2833.000000	99.722352
2832.000000	99.731693
2831.000000	99.739165
2830.000000	99.745412
2829.000000	99.751182
2828.000000	99.756839
2827.000000	99.762172
2826.000000	99.766356
2825.000000	99.768357
2824.000000	99.768156
2823.000000	99.767700
2822.000000	99.769976
2821.000000	99.776469
2820.000000	99.785575
2819.000000	99.793766
2818.000000	99.798319
2817.000000	99.798968
2816.000000	99.797401
2815.000000	99.795616
2814.000000	99.794799
2813.000000	99.795366
2812.000000	99.797434
2811.000000	99.800593
2810.000000	99.803204
2809.000000	99.802825
2808.000000	99.798429
2807.000000	99.792213
2806.000000	99.788283
2805.000000	99.789076
2804.000000	99.793369
2803.000000	99.798043
2802.000000	99.801198
2801.000000	99.803122
2800.000000	99.804805
2799.000000	99.806349
2798.000000	99.806964
2797.000000	99.806127
2796.000000	99.804520
2795.000000	99.803780
2794.000000	99.805172
2793.000000	99.808463
2792.000000	99.812220
2791.000000	99.815104
2790.000000	99.816686
2789.000000	99.817302
2788.000000	99.817819
2787.000000	99.819396
2786.000000	99.822432
2785.000000	99.825345
2784.000000	99.825358
2783.000000	99.821394
2782.000000	99.815679
2781.000000	99.811730
2780.000000	99.810954
2779.000000	99.811870
2778.000000	99.812206
2777.000000	99.810940
2776.000000	99.808627
2775.000000	99.806785
2774.000000	99.807020
2773.000000	99.809874
2772.000000	99.814141
2771.000000	99.817842
2770.000000	99.820089
2769.000000	99.821580
2768.000000	99.823311
2767.000000	99.825445
2766.000000	99.827585
2765.000000	99.829484
2764.000000	99.831136
2763.000000	99.832562
2762.000000	99.833743
2761.000000	99.834322
2760.000000	99.833301
2759.000000	99.829865
2758.000000	99.825034
2757.000000	99.821771
2756.000000	99.822585
2755.000000	99.827138
2754.000000	99.832806
2753.000000	99.837274
2752.000000	99.839932
2751.000000	99.841021
2750.000000	99.840580
2749.000000	99.838667
2748.000000	99.835937
2747.000000	99.833380
2746.000000	99.831736
2745.000000	99.831411
2744.000000	99.832535
2743.000000	99.834609
2742.000000	99.836357
2741.000000	99.836503
2740.000000	99.834722
2739.000000	99.831525
2738.000000	99.827516
2737.000000	99.823478
2736.000000	99.821079
2735.000000	99.822280
2734.000000	99.827216
2733.000000	99.833203
2732.000000	99.836984
2731.000000	99.837859
2730.000000	99.837746
2729.000000	99.838145
2728.000000	99.838236
2727.000000	99.836668
2726.000000	99.834200
2725.000000	99.833349
2724.000000	99.835617
2723.000000	99.840103
2722.000000	99.844833
2721.000000	99.848364
2720.000000	99.849830
2719.000000	99.848656
2718.000000	99.845327
2717.000000	99.841886
2716.000000	99.840465
2715.000000	99.841082
2714.000000	99.841661
2713.000000	99.840498
2712.000000	99.838166
2711.000000	99.836619
2710.000000	99.836961
2709.000000	99.838745
2708.000000	99.841209
2707.000000	99.844376
2706.000000	99.848526
2705.000000	99.852924
2704.000000	99.855644
2703.000000	99.854988
2702.000000	99.851231
2701.000000	99.846962
2700.000000	99.845393
2699.000000	99.847719
2698.000000	99.851880
2697.000000	99.854175
2696.000000	99.852546
2695.000000	99.848362
2694.000000	99.844915
2693.000000	99.844432
2692.000000	99.846752
2691.000000	99.850374
2690.000000	99.853830
2689.000000	99.855903
2688.000000	99.855558
2687.000000	99.852765
2686.000000	99.849206
2685.000000	99.847310
2684.000000	99.848089
2683.000000	99.850171
2682.000000	99.851152
2681.000000	99.849786
2680.000000	99.846861
2679.000000	99.844188
2678.000000	99.842930
2677.000000	99.842884
2676.000000	99.843181
2675.000000	99.843440
2674.000000	99.844074
2673.000000	99.845585
2672.000000	99.847873
2671.000000	99.850305
2670.000000	99.852105
2669.000000	99.852550
2668.000000	99.851301
2667.000000	99.848937
2666.000000	99.846695
2665.000000	99.845013
2664.000000	99.842624
2663.000000	99.837955
2662.000000	99.831544
2661.000000	99.826128
2660.000000	99.823912
2659.000000	99.824423
2658.000000	99.825710
2657.000000	99.827056
2656.000000	99.829495
2655.000000	99.833658
2654.000000	99.838178
2653.000000	99.840952
2652.000000	99.841477
2651.000000	99.841145
2650.000000	99.841233
2649.000000	99.841429
2648.000000	99.840807
2647.000000	99.839665
2646.000000	99.839382
2645.000000	99.840496
2644.000000	99.842069
2643.000000	99.843491
2642.000000	99.845756
2641.000000	99.849781
2640.000000	99.854137
2639.000000	99.856140
2638.000000	99.855230
2637.000000	99.853640
2636.000000	99.853174
2635.000000	99.852942
2634.000000	99.851555
2633.000000	99.850375
2632.000000	99.852778
2631.000000	99.860133
2630.000000	99.869743
2629.000000	99.877078
2628.000000	99.879396
2627.000000	99.877243
2626.000000	99.873225
2625.000000	99.869651
2624.000000	99.867063
2623.000000	99.864846
2622.000000	99.863140
2621.000000	99.863506
2620.000000	99.867110
2619.000000	99.872718
2618.000000	99.877143
2617.000000	99.877602
2616.000000	99.873450
2615.000000	99.866508
2614.000000	99.860530
2613.000000	99.859400
2612.000000	99.864044
2611.000000	99.870985
2610.000000	99.875317
2609.000000	99.875449
2608.000000	99.874131
2607.000000	99.874774
2606.000000	99.877960
2605.000000	99.881780
2604.000000	99.884139
2603.000000	99.884012
2602.000000	99.881522
2601.000000	99.877993
2600.000000	99.875561
2599.000000	99.875885
2598.000000	99.878995
2597.000000	99.883391
2596.000000	99.887155
2595.000000	99.889245
2594.000000	99.890132
2593.000000	99.890668
2592.000000	99.889873
2591.000000	99.885151
2590.000000	99.876560
2589.000000	99.869892
2588.000000	99.872358
2587.000000	99.884138
2586.000000	99.896847
2585.000000	99.901940
2584.000000	99.899086
2583.000000	99.894751
2582.000000	99.894361
2581.000000	99.898190
2580.000000	99.903344
2579.000000	99.906870
2578.000000	99.906889
2577.000000	99.903273
2576.000000	99.898124
2575.000000	99.894442
2574.000000	99.893913
2573.000000	99.896541
2572.000000	99.901618
2571.000000	99.907454
2570.000000	99.910867
2569.000000	99.909542
2568.000000	99.905676
2567.000000	99.905370
2566.000000	99.912973
2565.000000	99.926650
2564.000000	99.939849
2563.000000	99.946351
2562.000000	99.943703
2561.000000	99.933786
2560.000000	99.921505
2559.000000	99.912055
2558.000000	99.907765
2557.000000	99.907050
2556.000000	99.906676
2555.000000	99.904868
2554.000000	99.902296
2553.000000	99.900895
2552.000000	99.902425
2551.000000	99.907349
2550.000000	99.914026
2549.000000	99.918940
2548.000000	99.918560
2547.000000	99.911623
2546.000000	99.900089
2545.000000	99.888260
2544.000000	99.880869
2543.000000	99.880911
2542.000000	99.888150
2541.000000	99.899102
2540.000000	99.908575
2539.000000	99.911989
2538.000000	99.907606
2537.000000	99.897804
2536.000000	99.887988
2535.000000	99.882886
2534.000000	99.883133
2533.000000	99.885846
2532.000000	99.888354
2531.000000	99.890434
2530.000000	99.892564
2529.000000	99.893634
2528.000000	99.891804
2527.000000	99.887040
2526.000000	99.881365
2525.000000	99.876765
2524.000000	99.874211
2523.000000	99.874560
2522.000000	99.878617
2521.000000	99.885272
2520.000000	99.890754
2519.000000	99.891196
2518.000000	99.885822
2517.000000	99.877164
2516.000000	99.868660
2515.000000	99.862895
2514.000000	99.861324
2513.000000	99.863905
2512.000000	99.868512
2511.000000	99.871997
2510.000000	99.872531
2509.000000	99.870284
2508.000000	99.865695
2507.000000	99.858593
2506.000000	99.850092
2505.000000	99.843933
2504.000000	99.843853
2503.000000	99.849484
2502.000000	99.856451
2501.000000	99.861041
2500.000000	99.863531
2499.000000	99.866458
2498.000000	99.870444
2497.000000	99.872978
2496.000000	99.871236
2495.000000	99.865726
2494.000000	99.861089
2493.000000	99.862929
2492.000000	99.873095
2491.000000	99.887821
2490.000000	99.900749
2489.000000	99.907983
2488.000000	99.909893
2487.000000	99.908547
2486.000000	99.904709
2485.000000	99.898054
2484.000000	99.889331
2483.000000	99.881174
2482.000000	99.876783
2481.000000	99.878239
2480.000000	99.885526
2479.000000	99.896298
2478.000000	99.906636
2477.000000	99.913088
2476.000000	99.915099
2475.000000	99.915605
2474.000000	99.918631
2473.000000	99.925394
2472.000000	99.932580
2471.000000	99.934884
2470.000000	99.929810
2469.000000	99.920052
2468.000000	99.911270
2467.000000	99.908049
2466.000000	99.911799
2465.000000	99.920872
2464.000000	99.931431
2463.000000	99.939114
2462.000000	99.941837
2461.000000	99.941262
2460.000000	99.940290
2459.000000	99.939077
2458.000000	99.934919
2457.000000	99.926419
2456.000000	99.916493
2455.000000	99.910302
2454.000000	99.910565
2453.000000	99.915135
2452.000000	99.918723
2451.000000	99.917142
2450.000000	99.911093
2449.000000	99.905964
2448.000000	99.907244
2447.000000	99.915811
2446.000000	99.927873
2445.000000	99.938480
2444.000000	99.944012
2443.000000	99.942781
2442.000000	99.936270
2441.000000	99.929897
2440.000000	99.929237
2439.000000	99.934023
2438.000000	99.938186
2437.000000	99.937451
2436.000000	99.934782
2435.000000	99.936067
2434.000000	99.942125
2433.000000	99.947624
2432.000000	99.947258
2431.000000	99.940791
2430.000000	99.931909
2429.000000	99.924247
2428.000000	99.919314
2427.000000	99.917108
2426.000000	99.917645
2425.000000	99.921557
2424.000000	99.929051
2423.000000	99.938405
2422.000000	99.946107
2421.000000	99.948852
2420.000000	99.945515
2419.000000	99.937788
2418.000000	99.929509
2417.000000	99.924489
2416.000000	99.923560
2415.000000	99.924018
2414.000000	99.923334
2413.000000	99.922708
2412.000000	99.924930
2411.000000	99.929381
2410.000000	99.932323
2409.000000	99.932401
2408.000000	99.932678
2407.000000	99.935805
2406.000000	99.940004
2405.000000	99.941612
2404.000000	99.939428
2403.000000	99.935000
2402.000000	99.930801
2401.000000	99.929642
2400.000000	99.933357
2399.000000	99.939975
2398.000000	99.944503
2397.000000	99.944712
2396.000000	99.943970
2395.000000	99.945939
2394.000000	99.948653
2393.000000	99.947256
2392.000000	99.941131
2391.000000	99.935145
2390.000000	99.934163
2389.000000	99.938678
2388.000000	99.945893
2387.000000	99.951918
2386.000000	99.954312
2385.000000	99.953955
2384.000000	99.954215
2383.000000	99.957581
2382.000000	99.962308
2381.000000	99.965695
2380.000000	99.967599
2379.000000	99.968588
2378.000000	99.966887
2377.000000	99.960359
2376.000000	99.951193
2375.000000	99.944783
2374.000000	99.945903
2373.000000	99.957225
2372.000000	99.978799
2371.000000	100.003904
2370.000000	100.019690
2369.000000	100.018638
2368.000000	100.004309
2367.000000	99.985347
2366.000000	99.967994
2365.000000	99.957863
2364.000000	99.959962
2363.000000	99.967743
2362.000000	99.966354
2361.000000	99.954269
2360.000000	99.946071
2359.000000	99.955569
2358.000000	99.979894
2357.000000	100.001132
2356.000000	100.005429
2355.000000	99.987075
2354.000000	99.964518
2353.000000	99.961851
2352.000000	99.981725
2351.000000	100.001683
2350.000000	100.002163
2349.000000	99.984443
2348.000000	99.962216
2347.000000	99.951963
2346.000000	99.958239
2345.000000	99.963662
2344.000000	99.952713
2343.000000	99.929282
2342.000000	99.914314
2341.000000	99.917336
2340.000000	99.926861
2339.000000	99.929642
2338.000000	99.927320
2337.000000	99.931025
2336.000000	99.941788
2335.000000	99.956278
2334.000000	99.973337
2333.000000	99.996058
2332.000000	100.011874
2331.000000	100.009555
2330.000000	99.985422
2329.000000	99.957268
2328.000000	99.933653
2327.000000	99.917260
2326.000000	99.904487
2325.000000	99.896344
2324.000000	99.894206
2323.000000	99.897496
2322.000000	99.900639
2321.000000	99.896059
2320.000000	99.877800
2319.000000	99.853386
2318.000000	99.831853
2317.000000	99.820318
2316.000000	99.813070
2315.000000	99.809515
2314.000000	99.809746
2313.000000	99.817136
2312.000000	99.825340
2311.000000	99.831114
2310.000000	99.834091
2309.000000	99.840647
2308.000000	99.852339
2307.000000	99.868395
2306.000000	99.883468
2305.000000	99.892777
2304.000000	99.893126
2303.000000	99.889829
2302.000000	99.891358
2301.000000	99.903775
2300.000000	99.921609
2299.000000	99.936505
2298.000000	99.940726
2297.000000	99.934385
2296.000000	99.919874
2295.000000	99.904134
2294.000000	99.893443
2293.000000	99.891107
2292.000000	99.893501
2291.000000	99.895388
2290.000000	99.895358
2289.000000	99.895691
2288.000000	99.897880
2287.000000	99.900365
2286.000000	99.901758
2285.000000	99.901496
2284.000000	99.899617
2283.000000	99.895745
2282.000000	99.891808
2281.000000	99.891465
2280.000000	99.897194
2279.000000	99.907341
2278.000000	99.917782
2277.000000	99.925238
2276.000000	99.927694
2275.000000	99.924498
2274.000000	99.917243
2273.000000	99.910927
2272.000000	99.909882
2271.000000	99.913246
2270.000000	99.915896
2269.000000	99.915239
2268.000000	99.914409
2267.000000	99.917843
2266.000000	99.925367
2265.000000	99.933305
2264.000000	99.939624
2263.000000	99.945585
2262.000000	99.952790
2261.000000	99.961208
2260.000000	99.970635
2259.000000	99.980220
2258.000000	99.986602
2257.000000	99.984629
2256.000000	99.972499
2255.000000	99.954111
2254.000000	99.935045
2253.000000	99.918730
2252.000000	99.906906
2251.000000	99.901635
2250.000000	99.903355
2249.000000	99.909610
2248.000000	99.917202
2247.000000	99.925789
2246.000000	99.936356
2245.000000	99.948207
2244.000000	99.959015
2243.000000	99.966761
2242.000000	99.969586
2241.000000	99.965666
2240.000000	99.955800
2239.000000	99.944576
2238.000000	99.936352
2237.000000	99.931356
2236.000000	99.928361
2235.000000	99.929288
2234.000000	99.937282
2233.000000	99.950986
2232.000000	99.965078
2231.000000	99.976506
2230.000000	99.985767
2229.000000	99.991210
2228.000000	99.987638
2227.000000	99.974483
2226.000000	99.961920
2225.000000	99.963437
2224.000000	99.980904
2223.000000	100.000219
2222.000000	100.003763
2221.000000	99.986591
2220.000000	99.959394
2219.000000	99.936403
2218.000000	99.923376
2217.000000	99.918542
2216.000000	99.921449
2215.000000	99.935512
2214.000000	99.960642
2213.000000	99.987669
2212.000000	100.004184
2211.000000	100.005133
2210.000000	99.994488
2209.000000	99.977222
2208.000000	99.953500
2207.000000	99.922105
2206.000000	99.887592
2205.000000	99.860956
2204.000000	99.851909
2203.000000	99.861076
2202.000000	99.881220
2201.000000	99.905505
2200.000000	99.932065
2199.000000	99.958642
2198.000000	99.975409
2197.000000	99.969024
2196.000000	99.937619
2195.000000	99.899125
2194.000000	99.880584
2193.000000	99.897211
2192.000000	99.939655
2191.000000	99.980849
2190.000000	99.995476
2189.000000	99.976044
2188.000000	99.934865
2187.000000	99.892416
2186.000000	99.863580
2185.000000	99.852434
2184.000000	99.854218
2183.000000	99.860108
2182.000000	99.863587
2181.000000	99.866726
2180.000000	99.878878
2179.000000	99.905136
2178.000000	99.936567
2177.000000	99.955616
2176.000000	99.952815
2175.000000	99.936367
2174.000000	99.924060
2173.000000	99.926861
2172.000000	99.939643
2171.000000	99.945922
2170.000000	99.932940
2169.000000	99.906008
2168.000000	99.886817
2167.000000	99.892150
2166.000000	99.915187
2165.000000	99.932321
2164.000000	99.927929
2163.000000	99.907255
2162.000000	99.884996
2161.000000	99.871903
2160.000000	99.874379
2159.000000	99.895869
2158.000000	99.931498
2157.000000	99.969035
2156.000000	100.001319
2155.000000	100.030301
2154.000000	100.057006
2153.000000	100.075668
2152.000000	100.079944
2151.000000	100.068643
2150.000000	100.044597
2149.000000	100.014319
2148.000000	99.990213
2147.000000	99.986526
2146.000000	100.009129
2145.000000	100.050129
2144.000000	100.093085
2143.000000	100.122362
2142.000000	100.129774
2141.000000	100.118575
2140.000000	100.101586
2139.000000	100.089709
2138.000000	100.081434
2137.000000	100.067894
2136.000000	100.047036
2135.000000	100.027312
2134.000000	100.016883
2133.000000	100.015519
2132.000000	100.017894
2131.000000	100.019625
2130.000000	100.018891
2129.000000	100.016970
2128.000000	100.018319
2127.000000	100.025662
2126.000000	100.034183
2125.000000	100.035180
2124.000000	100.026996
2123.000000	100.017454
2122.000000	100.013691
2121.000000	100.013965
2120.000000	100.011795
2119.000000	100.003536
2118.000000	99.988988
2117.000000	99.969512
2116.000000	99.950106
2115.000000	99.939443
2114.000000	99.942314
2113.000000	99.953212
2112.000000	99.961917
2111.000000	99.965137
2110.000000	99.968756
2109.000000	99.978824
2108.000000	99.993959
2107.000000	100.006827
2106.000000	100.010631
2105.000000	100.004210
2104.000000	99.993128
2103.000000	99.985837
2102.000000	99.987176
2101.000000	99.995584
2100.000000	100.006161
2099.000000	100.014321
2098.000000	100.016110
2097.000000	100.009133
2096.000000	99.996218
2095.000000	99.984771
2094.000000	99.978992
2093.000000	99.975594
2092.000000	99.970861
2091.000000	99.968518
2090.000000	99.974616
2089.000000	99.985777
2088.000000	99.989136
2087.000000	99.977178
2086.000000	99.957941
2085.000000	99.946334
2084.000000	99.946907
2083.000000	99.949250
2082.000000	99.942020
2081.000000	99.927920
2080.000000	99.921321
2079.000000	99.931697
2078.000000	99.953145
2077.000000	99.971615
2076.000000	99.978675
2075.000000	99.974998
2074.000000	99.963805
2073.000000	99.947524
2072.000000	99.931205
2071.000000	99.922728
2070.000000	99.926580
2069.000000	99.940108
2068.000000	99.957102
2067.000000	99.972555
2066.000000	99.983004
2065.000000	99.986258
2064.000000	99.983114
2063.000000	99.976645
2062.000000	99.968805
2061.000000	99.960444
2060.000000	99.953544
2059.000000	99.948697
2058.000000	99.941479
2057.000000	99.928276
2056.000000	99.915899
2055.000000	99.916696
2054.000000	99.930377
2053.000000	99.939448
2052.000000	99.929819
2051.000000	99.909233
2050.000000	99.898000
2049.000000	99.905055
2048.000000	99.920057
2047.000000	99.929595
2046.000000	99.932859
2045.000000	99.937395
2044.000000	99.946829
2043.000000	99.957456
2042.000000	99.963042
2041.000000	99.960304
2040.000000	99.950824
2039.000000	99.938044
2038.000000	99.924327
2037.000000	99.914708
2036.000000	99.921029
2035.000000	99.952378
2034.000000	99.997726
2033.000000	100.027943
2032.000000	100.024606
2031.000000	99.999891
2030.000000	99.979356
2029.000000	99.975650
2028.000000	99.987528
2027.000000	100.013904
2026.000000	100.052940
2025.000000	100.088936
2024.000000	100.097992
2023.000000	100.073653
2022.000000	100.037428
2021.000000	100.018558
2020.000000	100.026097
2019.000000	100.044138
2018.000000	100.051734
2017.000000	100.042819
2016.000000	100.027111
2015.000000	100.015465
2014.000000	100.009788
2013.000000	100.005600
2012.000000	99.998334
2011.000000	99.986875
2010.000000	99.976267
2009.000000	99.978052
2008.000000	100.000095
2007.000000	100.031700
2006.000000	100.047894
2005.000000	100.036462
2004.000000	100.014618
2003.000000	100.009644
2002.000000	100.028050
2001.000000	100.049713
2000.000000	100.048324
1999.000000	100.014328
1998.000000	99.962672
1997.000000	99.924547
1996.000000	99.924035
1995.000000	99.953520
1994.000000	99.976825
1993.000000	99.966069
1992.000000	99.935719
1991.000000	99.924793
1990.000000	99.946717
1989.000000	99.980029
1988.000000	100.004274
1987.000000	100.020545
1986.000000	100.033305
1985.000000	100.032984
1984.000000	100.007882
1983.000000	99.960119
1982.000000	99.900227
1981.000000	99.838617
1980.000000	99.792369
1979.000000	99.787180
1978.000000	99.835310
1977.000000	99.914818
1976.000000	99.986665
1975.000000	100.029363
1974.000000	100.042424
1973.000000	100.030935
1972.000000	100.005950
1971.000000	99.988118
1970.000000	99.994914
1969.000000	100.027054
1968.000000	100.071973
1967.000000	100.115570
1966.000000	100.147883
1965.000000	100.165257
1964.000000	100.171221
1963.000000	100.167875
1962.000000	100.145609
1961.000000	100.092991
1960.000000	100.020805
1959.000000	99.962140
1958.000000	99.941310
1957.000000	99.952460
1956.000000	99.972672
1955.000000	99.986936
1954.000000	99.995243
1953.000000	100.003377
1952.000000	100.013094
1951.000000	100.017811
1950.000000	100.006876
1949.000000	99.979595
1948.000000	99.954606
1947.000000	99.955305
1946.000000	99.983435
1945.000000	100.017018
1944.000000	100.037404
1943.000000	100.047100
1942.000000	100.054771
1941.000000	100.056204
1940.000000	100.045248
1939.000000	100.030585
1938.000000	100.026950
1937.000000	100.036846
1936.000000	100.049803
1935.000000	100.058162
1934.000000	100.064461
1933.000000	100.073259
1932.000000	100.083190
1931.000000	100.089238
1930.000000	100.088936
1929.000000	100.084363
1928.000000	100.080546
1927.000000	100.082012
1926.000000	100.089153
1925.000000	100.097829
1924.000000	100.103051
1923.000000	100.101751
1922.000000	100.091378
1921.000000	100.069947
1920.000000	100.040683
1919.000000	100.014976
1918.000000	100.006281
1917.000000	100.015358
1916.000000	100.027703
1915.000000	100.030977
1914.000000	100.025032
1913.000000	100.017238
1912.000000	100.014067
1911.000000	100.016324
1910.000000	100.021087
1909.000000	100.026219
1908.000000	100.031921
1907.000000	100.038304
1906.000000	100.043430
1905.000000	100.045534
1904.000000	100.046179
1903.000000	100.048020
1902.000000	100.049425
1901.000000	100.045801
1900.000000	100.038278
1899.000000	100.034791
1898.000000	100.039200
1897.000000	100.045182
1896.000000	100.044984
1895.000000	100.040761
1894.000000	100.041175
1893.000000	100.048946
1892.000000	100.058795
1891.000000	100.065265
1890.000000	100.066258
1889.000000	100.061880
1888.000000	100.055265
1887.000000	100.053395
1886.000000	100.060972
1885.000000	100.073633
1884.000000	100.080741
1883.000000	100.075999
1882.000000	100.062791
1881.000000	100.049383
1880.000000	100.043336
1879.000000	100.048893
1878.000000	100.064632
1877.000000	100.082999
1876.000000	100.095105
1875.000000	100.097130
1874.000000	100.090495
1873.000000	100.077999
1872.000000	100.062722
1871.000000	100.049738
1870.000000	100.045360
1869.000000	100.052543
1868.000000	100.066637
1867.000000	100.080672
1866.000000	100.092609
1865.000000	100.101311
1864.000000	100.104891
1863.000000	100.104687
1862.000000	100.104399
1861.000000	100.104228
1860.000000	100.099893
1859.000000	100.089115
1858.000000	100.076027
1857.000000	100.067135
1856.000000	100.065531
1855.000000	100.070948
1854.000000	100.081032
1853.000000	100.090600
1852.000000	100.094240
1851.000000	100.091733
1850.000000	100.088365
1849.000000	100.089091
1848.000000	100.093297
1847.000000	100.096452
1846.000000	100.096214
1845.000000	100.094835
1844.000000	100.095290
1843.000000	100.097083
1842.000000	100.098709
1841.000000	100.098731
1840.000000	100.096816
1839.000000	100.095119
1838.000000	100.095651
1837.000000	100.097563
1836.000000	100.098648
1835.000000	100.098634
1834.000000	100.099151
1833.000000	100.101925
1832.000000	100.108572
1831.000000	100.117841
1830.000000	100.122198
1829.000000	100.114166
1828.000000	100.097797
1827.000000	100.083589
1826.000000	100.077139
1825.000000	100.078257
1824.000000	100.083598
1823.000000	100.089972
1822.000000	100.095547
1821.000000	100.098369
1820.000000	100.097488
1819.000000	100.094495
1818.000000	100.093241
1817.000000	100.097327
1816.000000	100.106649
1815.000000	100.117241
1814.000000	100.124795
1813.000000	100.127595
1812.000000	100.127172
1811.000000	100.125437
1810.000000	100.122431
1809.000000	100.117600
1808.000000	100.110580
1807.000000	100.101743
1806.000000	100.092202
1805.000000	100.082242
1804.000000	100.070940
1803.000000	100.057955
1802.000000	100.044558
1801.000000	100.032975
1800.000000	100.023362
1799.000000	100.013623
1798.000000	100.004348
1797.000000	99.997934
1796.000000	99.993646
1795.000000	99.988201
1794.000000	99.980647
1793.000000	99.976248
1792.000000	99.982448
1791.000000	99.997997
1790.000000	100.015380
1789.000000	100.029711
1788.000000	100.039237
1787.000000	100.045449
1786.000000	100.052380
1785.000000	100.062954
1784.000000	100.076278
1783.000000	100.089990
1782.000000	100.101364
1781.000000	100.106978
1780.000000	100.104617
1779.000000	100.096597
1778.000000	100.089221
1777.000000	100.086849
1776.000000	100.089296
1775.000000	100.094188
1774.000000	100.100272
1773.000000	100.108749
1772.000000	100.120203
1771.000000	100.129180
1770.000000	100.129696
1769.000000	100.120840
1768.000000	100.107055
1767.000000	100.096647
1766.000000	100.094668
1765.000000	100.098838
1764.000000	100.103873
1763.000000	100.107611
1762.000000	100.110538
1761.000000	100.112910
1760.000000	100.114716
1759.000000	100.113719
1758.000000	100.105248
1757.000000	100.087353
1756.000000	100.066487
1755.000000	100.051566
1754.000000	100.042221
1753.000000	100.031328
1752.000000	100.016149
1751.000000	100.002375
1750.000000	99.995557
1749.000000	99.992635
1748.000000	99.988921
1747.000000	99.984312
1746.000000	99.979494
1745.000000	99.974065
1744.000000	99.968388
1743.000000	99.962226
1742.000000	99.952278
1741.000000	99.936442
1740.000000	99.920735
1739.000000	99.914763
1738.000000	99.917115
1737.000000	99.916795
1736.000000	99.907781
1735.000000	99.899328
1734.000000	99.908732
1733.000000	99.931750
1732.000000	99.955543
1731.000000	99.978927
1730.000000	100.002120
1729.000000	100.021519
1728.000000	100.034701
1727.000000	100.044981
1726.000000	100.055910
1725.000000	100.067050
1724.000000	100.075786
1723.000000	100.081743
1722.000000	100.086585
1721.000000	100.090544
1720.000000	100.092675
1719.000000	100.092670
1718.000000	100.090006
1717.000000	100.088008
1716.000000	100.088276
1715.000000	100.087021
1714.000000	100.082955
1713.000000	100.076711
1712.000000	100.070013
1711.000000	100.066548
1710.000000	100.068982
1709.000000	100.075677
1708.000000	100.081886
1707.000000	100.083334
1706.000000	100.080451
1705.000000	100.077519
1704.000000	100.074523
1703.000000	100.065073
1702.000000	100.043967
1701.000000	100.017505
1700.000000	100.000185
1699.000000	99.995968
1698.000000	100.000328
1697.000000	100.004141
1696.000000	100.003333
1695.000000	99.995321
1694.000000	99.985732
1693.000000	99.980578
1692.000000	99.975677
1691.000000	99.968893
1690.000000	99.961197
1689.000000	99.951914
1688.000000	99.939866
1687.000000	99.924268
1686.000000	99.905900
1685.000000	99.889718
1684.000000	99.882105
1683.000000	99.877830
1682.000000	99.874580
1681.000000	99.871193
1680.000000	99.862851
1679.000000	99.849337
1678.000000	99.832735
1677.000000	99.814213
1676.000000	99.797337
1675.000000	99.788099
1674.000000	99.785735
1673.000000	99.783443
1672.000000	99.775080
1671.000000	99.761546
1670.000000	99.752001
1669.000000	99.750108
1668.000000	99.748680
1667.000000	99.744488
1666.000000	99.736657
1665.000000	99.724076
1664.000000	99.708748
1663.000000	99.695152
1662.000000	99.683655
1661.000000	99.670338
1660.000000	99.654520
1659.000000	99.639674
1658.000000	99.629320
1657.000000	99.623605
1656.000000	99.619205
1655.000000	99.618243
1654.000000	99.634883
1653.000000	99.664055
1652.000000	99.660936
1651.000000	99.651084
1650.000000	99.649582
1649.000000	99.644105
1648.000000	99.632848
1647.000000	99.626910
1646.000000	99.628262
1645.000000	99.626472
1644.000000	99.623654
1643.000000	99.622961
1642.000000	99.623640
1641.000000	99.625622
1640.000000	99.629145
1639.000000	99.633192
1638.000000	99.637829
1637.000000	99.647561
1636.000000	99.666317
1635.000000	99.680999
1634.000000	99.680630
1633.000000	99.677720
1632.000000	99.678356
1631.000000	99.681763
1630.000000	99.687271
1629.000000	99.693334
1628.000000	99.697592
1627.000000	99.699954
1626.000000	99.701814
1625.000000	99.705404
1624.000000	99.714944
1623.000000	99.731722
1622.000000	99.747367
1621.000000	99.753825
1620.000000	99.753382
1619.000000	99.752338
1618.000000	99.756921
1617.000000	99.770072
1616.000000	99.786524
1615.000000	99.801091
1614.000000	99.813026
1613.000000	99.819193
1612.000000	99.820512
1611.000000	99.824386
1610.000000	99.835464
1609.000000	99.848694
1608.000000	99.857513
1607.000000	99.862661
1606.000000	99.866870
1605.000000	99.869267
1604.000000	99.869603
1603.000000	99.870831
1602.000000	99.873938
1601.000000	99.874662
1600.000000	99.869767
1599.000000	99.862221
1598.000000	99.856532
1597.000000	99.853926
1596.000000	99.853596
1595.000000	99.854423
1594.000000	99.853578
1593.000000	99.846932
1592.000000	99.834387
1591.000000	99.820976
1590.000000	99.810252
1589.000000	99.799889
1588.000000	99.786705
1587.000000	99.771069
1586.000000	99.752810
1585.000000	99.728409
1584.000000	99.698080
1583.000000	99.669037
1582.000000	99.647797
1581.000000	99.633182
1580.000000	99.620625
1579.000000	99.609014
1578.000000	99.600396
1577.000000	99.596592
1576.000000	99.597331
1575.000000	99.602538
1574.000000	99.612996
1573.000000	99.624220
1572.000000	99.632508
1571.000000	99.642236
1570.000000	99.660213
1569.000000	99.680384
1568.000000	99.693324
1567.000000	99.701935
1566.000000	99.708408
1565.000000	99.709170
1564.000000	99.703489
1563.000000	99.696321
1562.000000	99.691070
1561.000000	99.688493
1560.000000	99.689195
1559.000000	99.685686
1558.000000	99.667575
1557.000000	99.637685
1556.000000	99.618116
1555.000000	99.607559
1554.000000	99.598891
1553.000000	99.586102
1552.000000	99.566633
1551.000000	99.539616
1550.000000	99.506694
1549.000000	99.469814
1548.000000	99.430002
1547.000000	99.386440
1546.000000	99.336637
1545.000000	99.280380
1544.000000	99.222761
1543.000000	99.169263
1542.000000	99.122158
1541.000000	99.090606
1540.000000	99.090052
1539.000000	99.102807
1538.000000	99.105207
1537.000000	99.104625
1536.000000	99.104003
1535.000000	99.105581
1534.000000	99.113639
1533.000000	99.123093
1532.000000	99.122293
1531.000000	99.111465
1530.000000	99.097096
1529.000000	99.080562
1528.000000	99.058829
1527.000000	99.028941
1526.000000	98.992198
1525.000000	98.956242
1524.000000	98.927379
1523.000000	98.903577
1522.000000	98.878247
1521.000000	98.848277
1520.000000	98.817494
1519.000000	98.792543
1518.000000	98.769905
1517.000000	98.741750
1516.000000	98.705305
1515.000000	98.662471
1514.000000	98.616100
1513.000000	98.569794
1512.000000	98.530745
1511.000000	98.503210
1510.000000	98.479972
1509.000000	98.449185
1508.000000	98.409919
1507.000000	98.377600
1506.000000	98.342502
1505.000000	98.289508
1504.000000	98.245288
1503.000000	98.210157
1502.000000	98.172614
1501.000000	98.129893
1500.000000	98.087938
1499.000000	98.050095
1498.000000	98.007918
1497.000000	97.954451
1496.000000	97.900057
1495.000000	97.857763
1494.000000	97.824424
1493.000000	97.789926
1492.000000	97.752108
1491.000000	97.717952
1490.000000	97.690844
1489.000000	97.664492
1488.000000	97.632018
1487.000000	97.593357
1486.000000	97.551773
1485.000000	97.507528
1484.000000	97.461513
1483.000000	97.416865
1482.000000	97.374118
1481.000000	97.331038
1480.000000	97.286943
1479.000000	97.243593
1478.000000	97.201082
1477.000000	97.156162
1476.000000	97.105462
1475.000000	97.048893
1474.000000	96.990958
1473.000000	96.940557
1472.000000	96.902080
1471.000000	96.864754
1470.000000	96.821391
1469.000000	96.774203
1468.000000	96.728179
1467.000000	96.687963
1466.000000	96.655050
1465.000000	96.627419
1464.000000	96.601061
1463.000000	96.573029
1462.000000	96.543148
1461.000000	96.511270
1460.000000	96.476500
1459.000000	96.438131
1458.000000	96.398522
1457.000000	96.366702
1456.000000	96.343789
1455.000000	96.322446
1454.000000	96.296652
1453.000000	96.263883
1452.000000	96.229376
1451.000000	96.197581
1450.000000	96.166807
1449.000000	96.137220
1448.000000	96.114801
1447.000000	96.099076
1446.000000	96.077791
1445.000000	96.044882
1444.000000	96.006772
1443.000000	95.971806
1442.000000	95.940983
1441.000000	95.908638
1440.000000	95.870378
1439.000000	95.827394
1438.000000	95.787403
1437.000000	95.763128
1436.000000	95.757093
1435.000000	95.752191
1434.000000	95.733356
1433.000000	95.700199
1432.000000	95.661538
1431.000000	95.626544
1430.000000	95.595448
1429.000000	95.562823
1428.000000	95.528016
1427.000000	95.494174
1426.000000	95.461824
1425.000000	95.430296
1424.000000	95.399867
1423.000000	95.365956
1422.000000	95.319586
1421.000000	95.260613
1420.000000	95.204391
1419.000000	95.168423
1418.000000	95.143246
1417.000000	95.108487
1416.000000	95.063086
1415.000000	95.012806
1414.000000	94.958719
1413.000000	94.901887
1412.000000	94.848512
1411.000000	94.802658
1410.000000	94.756925
1409.000000	94.702418
1408.000000	94.642972
1407.000000	94.589070
1406.000000	94.543533
1405.000000	94.501879
1404.000000	94.463283
1403.000000	94.428936
1402.000000	94.395316
1401.000000	94.360813
1400.000000	94.332352
1399.000000	94.314852
1398.000000	94.296611
1397.000000	94.265787
1396.000000	94.231531
1395.000000	94.212485
1394.000000	94.209603
1393.000000	94.211181
1392.000000	94.218027
1391.000000	94.235944
1390.000000	94.263607
1389.000000	94.301611
1388.000000	94.361984
1387.000000	94.450984
1386.000000	94.548419
1385.000000	94.633268
1384.000000	94.711245
1383.000000	94.796911
1382.000000	94.891547
1381.000000	94.988230
1380.000000	95.087175
1379.000000	95.191420
1378.000000	95.295196
1377.000000	95.392868
1376.000000	95.493982
1375.000000	95.613556
1374.000000	95.745926
1373.000000	95.865927
1372.000000	95.963045
1371.000000	96.049350
1370.000000	96.138327
1369.000000	96.233791
1368.000000	96.332057
1367.000000	96.425675
1366.000000	96.510075
1365.000000	96.590927
1364.000000	96.681011
1363.000000	96.785092
1362.000000	96.889701
1361.000000	96.978437
1360.000000	97.051738
1359.000000	97.118783
1358.000000	97.184600
1357.000000	97.250937
1356.000000	97.318724
1355.000000	97.384651
1354.000000	97.442542
1353.000000	97.492338
1352.000000	97.540611
1351.000000	97.589806
1350.000000	97.635153
1349.000000	97.672776
1348.000000	97.705851
1347.000000	97.738690
1346.000000	97.770873
1345.000000	97.800691
1344.000000	97.829216
1343.000000	97.857553
1342.000000	97.885059
1341.000000	97.912607
1340.000000	97.943146
1339.000000	97.975602
1338.000000	98.003314
1337.000000	98.024393
1336.000000	98.044895
1335.000000	98.068622
1334.000000	98.092796
1333.000000	98.115363
1332.000000	98.139879
1331.000000	98.169728
1330.000000	98.202137
1329.000000	98.231509
1328.000000	98.255897
1327.000000	98.277072
1326.000000	98.297001
1325.000000	98.316366
1324.000000	98.335509
1323.000000	98.353837
1322.000000	98.370199
1321.000000	98.385447
1320.000000	98.402546
1319.000000	98.422731
1318.000000	98.443854
1317.000000	98.464254
1316.000000	98.484568
1315.000000	98.504183
1314.000000	98.520226
1313.000000	98.532720
1312.000000	98.546849
1311.000000	98.566968
1310.000000	98.591094
1309.000000	98.613812
1308.000000	98.632260
1307.000000	98.647468
1306.000000	98.662033
1305.000000	98.677453
1304.000000	98.693586
1303.000000	98.708906
1302.000000	98.722001
1301.000000	98.733212
1300.000000	98.744309
1299.000000	98.756973
1298.000000	98.772548
1297.000000	98.791755
1296.000000	98.812397
1295.000000	98.828890
1294.000000	98.837166
1293.000000	98.839309
1292.000000	98.840664
1291.000000	98.843371
1290.000000	98.845640
1289.000000	98.846621
1288.000000	98.848014
1287.000000	98.850805
1286.000000	98.853936
1285.000000	98.856989
1284.000000	98.861218
1283.000000	98.866994
1282.000000	98.872580
1281.000000	98.875961
1280.000000	98.876471
1279.000000	98.875295
1278.000000	98.875738
1277.000000	98.881686
1276.000000	98.893220
1275.000000	98.905183
1274.000000	98.912758
1273.000000	98.917164
1272.000000	98.922885
1271.000000	98.930572
1270.000000	98.936706
1269.000000	98.939473
1268.000000	98.940398
1267.000000	98.940291
1266.000000	98.938192
1265.000000	98.935572
1264.000000	98.937293
1263.000000	98.946128
1262.000000	98.958638
1261.000000	98.968181
1260.000000	98.970586
1259.000000	98.966883
1258.000000	98.962062
1257.000000	98.961059
1256.000000	98.964016
1255.000000	98.965783
1254.000000	98.961921
1253.000000	98.954444
1252.000000	98.948925
1251.000000	98.947175
1250.000000	98.945996
1249.000000	98.942341
1248.000000	98.936135
1247.000000	98.928148
1246.000000	98.918948
1245.000000	98.910697
1244.000000	98.906341
1243.000000	98.905789
1242.000000	98.905918
1241.000000	98.905087
1240.000000	98.904270
1239.000000	98.903175
1238.000000	98.899201
1237.000000	98.892069
1236.000000	98.885873
1235.000000	98.884292
1234.000000	98.886441
1233.000000	98.889616
1232.000000	98.893816
1231.000000	98.900967
1230.000000	98.911480
1229.000000	98.924169
1228.000000	98.938303
1227.000000	98.953883
1226.000000	98.970710
1225.000000	98.988608
1224.000000	99.007729
1223.000000	99.027411
1222.000000	99.045660
1221.000000	99.060641
1220.000000	99.072230
1219.000000	99.082037
1218.000000	99.092532
1217.000000	99.105637
1216.000000	99.120746
1215.000000	99.134425
1214.000000	99.143630
1213.000000	99.149169
1212.000000	99.154291
1211.000000	99.160183
1210.000000	99.164863
1209.000000	99.166154
1208.000000	99.163642
1207.000000	99.157887
1206.000000	99.150243
1205.000000	99.143625
1204.000000	99.140977
1203.000000	99.142400
1202.000000	99.145428
1201.000000	99.148239
1200.000000	99.150734
1199.000000	99.152590
1198.000000	99.152801
1197.000000	99.152045
1196.000000	99.153412
1195.000000	99.159433
1194.000000	99.169580
1193.000000	99.181026
1192.000000	99.190770
1191.000000	99.197172
1190.000000	99.201100
1189.000000	99.205593
1188.000000	99.212608
1187.000000	99.220050
1186.000000	99.223680
1185.000000	99.222122
1184.000000	99.217670
1183.000000	99.212308
1182.000000	99.205688
1181.000000	99.197911
1180.000000	99.191929
1179.000000	99.191223
1178.000000	99.196099
1177.000000	99.203584
1176.000000	99.210011
1175.000000	99.212796
1174.000000	99.210860
1173.000000	99.204706
1172.000000	99.196312
1171.000000	99.188683
1170.000000	99.184847
1169.000000	99.186150
1168.000000	99.190768
1167.000000	99.194647
1166.000000	99.195133
1165.000000	99.193571
1164.000000	99.193696
1163.000000	99.197872
1162.000000	99.205303
1161.000000	99.213037
1160.000000	99.217935
1159.000000	99.218854
1158.000000	99.218208
1157.000000	99.220244
1156.000000	99.226474
1155.000000	99.233757
1154.000000	99.238305
1153.000000	99.240694
1152.000000	99.245288
1151.000000	99.255399
1150.000000	99.270353
1149.000000	99.286642
1148.000000	99.300612
1147.000000	99.310728
1146.000000	99.318741
1145.000000	99.328115
1144.000000	99.340332
1143.000000	99.353470
1142.000000	99.364896
1141.000000	99.373738
1140.000000	99.380003
1139.000000	99.383584
1138.000000	99.385575
1137.000000	99.388387
1136.000000	99.392678
1135.000000	99.396294
1134.000000	99.398350
1133.000000	99.402239
1132.000000	99.411862
1131.000000	99.426176
1130.000000	99.439852
1129.000000	99.448369
1128.000000	99.450706
1127.000000	99.448738
1126.000000	99.446091
1125.000000	99.445937
1124.000000	99.448000
1123.000000	99.449224
1122.000000	99.448757
1121.000000	99.449658
1120.000000	99.453706
1119.000000	99.457740
1118.000000	99.458067
1117.000000	99.455619
1116.000000	99.453261
1115.000000	99.450664
1114.000000	99.445773
1113.000000	99.439020
1112.000000	99.432047
1111.000000	99.424312
1110.000000	99.415235
1109.000000	99.407735
1108.000000	99.405364
1107.000000	99.407022
1106.000000	99.409157
1105.000000	99.411554
1104.000000	99.415697
1103.000000	99.418468
1102.000000	99.413604
1101.000000	99.399949
1100.000000	99.384001
1099.000000	99.371959
1098.000000	99.365073
1097.000000	99.361641
1096.000000	99.359618
1095.000000	99.356339
1094.000000	99.350246
1093.000000	99.344179
1092.000000	99.342755
1091.000000	99.345180
1090.000000	99.344410
1089.000000	99.335162
1088.000000	99.319245
1087.000000	99.301524
1086.000000	99.284517
1085.000000	99.269193
1084.000000	99.257872
1083.000000	99.252891
1082.000000	99.253393
1081.000000	99.255548
1080.000000	99.255843
1079.000000	99.253889
1078.000000	99.253222
1077.000000	99.258989
1076.000000	99.272374
1075.000000	99.287274
1074.000000	99.295245
1073.000000	99.294311
1072.000000	99.290157
1071.000000	99.288584
1070.000000	99.290151
1069.000000	99.292924
1068.000000	99.296495
1067.000000	99.300877
1066.000000	99.304664
1065.000000	99.307442
1064.000000	99.312014
1063.000000	99.320688
1062.000000	99.329965
1061.000000	99.332301
1060.000000	99.324504
1059.000000	99.312843
1058.000000	99.307991
1057.000000	99.314614
1056.000000	99.326742
1055.000000	99.334242
1054.000000	99.333525
1053.000000	99.330497
1052.000000	99.332993
1051.000000	99.341960
1050.000000	99.351389
1049.000000	99.355343
1048.000000	99.353206
1047.000000	99.349348
1046.000000	99.349302
1045.000000	99.354778
1044.000000	99.360722
1043.000000	99.359042
1042.000000	99.347390
1041.000000	99.333051
1040.000000	99.325666
1039.000000	99.327515
1038.000000	99.332952
1037.000000	99.335689
1036.000000	99.333823
1035.000000	99.328805
1034.000000	99.323326
1033.000000	99.320111
1032.000000	99.320074
1031.000000	99.321365
1030.000000	99.322005
1029.000000	99.322930
1028.000000	99.326476
1027.000000	99.332750
1026.000000	99.339960
1025.000000	99.347351
1024.000000	99.355170
1023.000000	99.362589
1022.000000	99.368632
1021.000000	99.374443
1020.000000	99.381400
1019.000000	99.387579
1018.000000	99.389446
1017.000000	99.387085
1016.000000	99.384432
1015.000000	99.384323
1014.000000	99.386581
1013.000000	99.391189
1012.000000	99.399716
1011.000000	99.412363
1010.000000	99.426612
1009.000000	99.440344
1008.000000	99.453949
1007.000000	99.467772
1006.000000	99.479698
1005.000000	99.487250
1004.000000	99.491317
1003.000000	99.496353
1002.000000	99.506873
1001.000000	99.523843
1000.000000	99.543843
999.000000	99.561793
998.000000	99.575187
997.000000	99.585408
996.000000	99.594669
995.000000	99.602835
994.000000	99.608406
993.000000	99.611865
992.000000	99.616508
991.000000	99.625803
990.000000	99.640162
989.000000	99.655760
988.000000	99.667130
987.000000	99.672751
986.000000	99.678111
985.000000	99.690268
984.000000	99.708361
983.000000	99.722931
982.000000	99.726451
981.000000	99.721359
980.000000	99.715629
979.000000	99.713614
978.000000	99.714364
977.000000	99.715671
976.000000	99.715936
975.000000	99.714454
974.000000	99.713538
973.000000	99.717985
972.000000	99.728490
971.000000	99.737942
970.000000	99.739150
969.000000	99.734486
968.000000	99.732661
967.000000	99.737470
966.000000	99.744971
965.000000	99.751382
964.000000	99.757684
963.000000	99.765323
962.000000	99.772654
961.000000	99.777999
960.000000	99.783008
959.000000	99.791043
958.000000	99.804310
957.000000	99.822585
956.000000	99.842379
955.000000	99.858109
954.000000	99.867517
953.000000	99.875299
952.000000	99.887288
951.000000	99.901113
950.000000	99.907625
949.000000	99.902594
948.000000	99.892649
947.000000	99.888135
946.000000	99.893074
945.000000	99.903518
944.000000	99.912572
943.000000	99.915670
942.000000	99.914007
941.000000	99.913920
940.000000	99.920509
939.000000	99.931445
938.000000	99.939490
937.000000	99.941373
936.000000	99.940656
935.000000	99.941699
934.000000	99.945100
933.000000	99.949964
932.000000	99.956251
931.000000	99.962599
930.000000	99.965778
929.000000	99.965292
928.000000	99.966009
927.000000	99.973117
926.000000	99.986058
925.000000	99.999325
924.000000	100.007632
923.000000	100.008977
922.000000	100.004850
921.000000	99.999522
920.000000	99.997949
919.000000	100.002531
918.000000	100.012149
917.000000	100.024223
916.000000	100.035713
915.000000	100.042069
914.000000	100.039002
913.000000	100.027899
912.000000	100.017246
911.000000	100.015797
910.000000	100.024490
909.000000	100.036241
908.000000	100.043265
907.000000	100.043180
906.000000	100.038695
905.000000	100.033395
904.000000	100.028841
903.000000	100.025686
902.000000	100.025901
901.000000	100.031692
900.000000	100.042142
899.000000	100.053464
898.000000	100.064326
897.000000	100.077660
896.000000	100.094687
895.000000	100.110044
894.000000	100.117487
893.000000	100.118946
892.000000	100.122806
891.000000	100.133646
890.000000	100.147751
889.000000	100.158256
888.000000	100.159583
887.000000	100.145240
886.000000	100.106404
885.000000	100.033956
884.000000	99.918410
883.000000	99.748590
882.000000	99.512577
881.000000	99.202106
880.000000	98.813211
879.000000	98.346100
878.000000	97.811566
877.000000	97.232739
876.000000	96.634711
875.000000	96.036984
874.000000	95.483081
873.000000	95.084074
872.000000	95.007784
871.000000	95.368899
870.000000	96.107660
869.000000	97.000565
868.000000	97.804106
867.000000	98.393048
866.000000	98.778744
865.000000	99.031335
864.000000	99.207815
863.000000	99.337961
862.000000	99.438745
861.000000	99.521339
860.000000	99.589787
859.000000	99.643546
858.000000	99.684179
857.000000	99.715937
856.000000	99.743050
855.000000	99.769775
854.000000	99.799963
853.000000	99.831861
852.000000	99.853714
851.000000	99.850836
850.000000	99.821061
849.000000	99.781751
848.000000	99.758795
847.000000	99.767195
846.000000	99.801724
845.000000	99.844872
844.000000	99.881607
843.000000	99.907268
842.000000	99.925276
841.000000	99.941046
840.000000	99.957875
839.000000	99.975345
838.000000	99.989893
837.000000	99.998493
836.000000	100.003517
835.000000	100.012678
834.000000	100.031728
833.000000	100.057250
832.000000	100.078911
831.000000	100.089234
830.000000	100.089584
829.000000	100.086584
828.000000	100.085190
827.000000	100.086569
826.000000	100.089679
825.000000	100.091757
824.000000	100.088834
823.000000	100.079557
822.000000	100.068102
821.000000	100.060772
820.000000	100.060060
819.000000	100.064132
818.000000	100.070920
817.000000	100.079233
816.000000	100.086248
815.000000	100.088233
814.000000	100.085657
813.000000	100.084313
812.000000	100.088564
811.000000	100.095503
810.000000	100.098533
809.000000	100.095602
808.000000	100.090991
807.000000	100.089238
806.000000	100.090166
805.000000	100.090532
804.000000	100.088828
803.000000	100.087398
802.000000	100.090059
801.000000	100.098034
800.000000	100.107925
799.000000	100.113879
798.000000	100.112291
797.000000	100.104254
796.000000	100.093463
795.000000	100.083165
794.000000	100.075646
793.000000	100.072693
792.000000	100.074223
791.000000	100.077008
790.000000	100.077630
789.000000	100.077325
788.000000	100.081660
787.000000	100.093896
786.000000	100.110299
785.000000	100.123751
784.000000	100.130643
783.000000	100.131730
782.000000	100.127553
781.000000	100.117306
780.000000	100.103488
779.000000	100.093516
778.000000	100.092742
777.000000	100.097517
776.000000	100.099175
775.000000	100.094467
774.000000	100.088243
773.000000	100.086038
772.000000	100.088336
771.000000	100.092558
770.000000	100.095404
769.000000	100.091441
768.000000	100.075561
767.000000	100.051706
766.000000	100.034728
765.000000	100.036865
764.000000	100.053839
763.000000	100.069685
762.000000	100.074325
761.000000	100.071052
760.000000	100.067800
759.000000	100.068095
758.000000	100.072415
757.000000	100.081717
756.000000	100.095334
755.000000	100.108994
754.000000	100.118664
753.000000	100.124605
752.000000	100.129110
751.000000	100.132025
750.000000	100.130824
749.000000	100.124274
748.000000	100.114355
747.000000	100.104708
746.000000	100.098136
745.000000	100.095173
744.000000	100.094450
743.000000	100.094552
742.000000	100.094778
741.000000	100.093505
740.000000	100.088456
739.000000	100.080856
738.000000	100.076029
737.000000	100.075675
736.000000	100.071942
735.000000	100.055275
734.000000	100.028197
733.000000	100.004666
732.000000	99.994840
731.000000	99.995874
730.000000	99.998707
729.000000	99.997082
728.000000	99.990864
727.000000	99.984631
726.000000	99.981269
725.000000	99.977341
724.000000	99.965836
723.000000	99.944239
722.000000	99.917173
721.000000	99.889004
720.000000	99.855488
719.000000	99.804839
718.000000	99.725592
717.000000	99.610003
716.000000	99.454608
715.000000	99.270705
714.000000	99.097848
713.000000	98.993418
712.000000	98.995672
711.000000	99.093607
710.000000	99.236591
709.000000	99.372388
708.000000	99.476299
707.000000	99.551790
706.000000	99.607339
705.000000	99.642843
704.000000	99.659443
703.000000	99.668837
702.000000	99.686270
701.000000	99.715585
700.000000	99.744655
699.000000	99.761394
698.000000	99.765099
697.000000	99.762437
696.000000	99.761580
695.000000	99.768707
694.000000	99.788920
693.000000	99.820890
692.000000	99.851460
691.000000	99.870348
690.000000	99.880396
689.000000	99.889301
688.000000	99.897776
687.000000	99.902102
686.000000	99.907826
685.000000	99.921390
684.000000	99.931097
683.000000	99.920314
682.000000	99.895108
681.000000	99.876823
680.000000	99.868636
679.000000	99.855646
678.000000	99.837927
677.000000	99.826790
676.000000	99.824388
675.000000	99.824440
674.000000	99.833160
673.000000	99.866414
672.000000	99.929051
671.000000	100.018554
670.000000	100.140921
669.000000	100.290773
668.000000	100.371927
667.000000	100.274248
666.000000	100.109719
665.000000	99.958525
664.000000	99.844092
663.000000	99.785552
662.000000	99.779845
661.000000	99.801115
660.000000	99.823614
659.000000	99.837384
658.000000	99.839886
657.000000	99.823013
656.000000	99.793492
655.000000	99.775920
654.000000	99.779452
653.000000	99.785502
652.000000	99.783501
651.000000	99.786585
650.000000	99.803928
649.000000	99.820049
648.000000	99.819448
647.000000	99.807015
646.000000	99.790455
645.000000	99.771120
644.000000	99.756226
643.000000	99.755917
642.000000	99.765061
641.000000	99.762669
640.000000	99.740949
639.000000	99.719857
638.000000	99.719204
637.000000	99.734775
636.000000	99.754137
635.000000	99.773983
634.000000	99.792576
633.000000	99.801747
632.000000	99.797283
631.000000	99.787940
630.000000	99.784551
629.000000	99.787618
628.000000	99.794555
627.000000	99.808645
626.000000	99.829177
625.000000	99.846730
624.000000	99.852050
623.000000	99.843201
622.000000	99.823061
621.000000	99.797075
620.000000	99.774625
619.000000	99.763532
618.000000	99.761427
617.000000	99.759097
616.000000	99.751915
615.000000	99.740453
614.000000	99.722602
613.000000	99.697312
612.000000	99.675775
611.000000	99.673866
610.000000	99.691008
609.000000	99.710127
608.000000	99.721607
607.000000	99.733005
606.000000	99.747221
605.000000	99.753463
604.000000	99.744809
603.000000	99.730185
602.000000	99.722479
601.000000	99.725184
600.000000	99.737088
599.000000	99.758397
598.000000	99.782425
597.000000	99.792543
596.000000	99.780210
595.000000	99.758911
594.000000	99.748678
593.000000	99.750564
592.000000	99.748970
591.000000	99.736787
590.000000	99.724798
589.000000	99.724123
588.000000	99.731728
587.000000	99.736261
586.000000	99.728904
585.000000	99.707183
584.000000	99.673624
583.000000	99.635791
582.000000	99.607231
581.000000	99.605058
580.000000	99.639851
579.000000	99.702392
578.000000	99.762400
577.000000	99.790740
576.000000	99.785836
575.000000	99.772846
574.000000	99.772131
573.000000	99.777472
572.000000	99.772657
571.000000	99.753793
570.000000	99.729311
569.000000	99.706573
568.000000	99.690233
567.000000	99.687356
566.000000	99.699552
565.000000	99.713573
564.000000	99.710586
563.000000	99.685457
562.000000	99.650445
561.000000	99.621950
560.000000	99.608887
559.000000	99.611152
558.000000	99.620906
557.000000	99.626809
556.000000	99.623795
555.000000	99.618932
554.000000	99.622177
553.000000	99.632267
552.000000	99.636795
551.000000	99.625110
550.000000	99.600087
549.000000	99.577692
548.000000	99.575593
547.000000	99.598458
546.000000	99.629375
545.000000	99.640552
544.000000	99.620368
543.000000	99.587147
542.000000	99.572881
541.000000	99.593585
540.000000	99.635453
539.000000	99.667679
538.000000	99.666591
537.000000	99.633093
536.000000	99.590573
535.000000	99.565839
534.000000	99.568439
533.000000	99.587134
532.000000	99.603144
531.000000	99.606194
530.000000	99.601367
529.000000	99.601795
528.000000	99.611485
527.000000	99.617138
526.000000	99.601910
525.000000	99.570647
524.000000	99.547415
523.000000	99.540977
522.000000	99.533991
521.000000	99.514021
520.000000	99.499807
519.000000	99.522436
518.000000	99.583209
517.000000	99.650718
516.000000	99.703535
515.000000	99.744761
514.000000	99.776671
513.000000	99.792122
512.000000	99.793663
511.000000	99.798302
510.000000	99.813407
509.000000	99.826070
508.000000	99.824939
507.000000	99.819823
506.000000	99.823494
505.000000	99.824978
504.000000	99.802178
503.000000	99.753419
502.000000	99.705843
501.000000	99.686371
500.000000	99.690401
499.000000	99.693815
498.000000	99.682523
497.000000	99.664618
496.000000	99.659375
495.000000	99.674541
494.000000	99.698365
493.000000	99.715014
492.000000	99.719703
491.000000	99.714830
490.000000	99.698830
489.000000	99.675051
488.000000	99.662336
487.000000	99.677861
486.000000	99.711003
485.000000	99.734368
484.000000	99.747376
483.000000	99.781649
482.000000	99.847202
481.000000	99.903222
480.000000	99.902186
479.000000	99.843232
478.000000	99.770531
477.000000	99.733179
476.000000	99.753494
475.000000	99.819325
474.000000	99.886059
473.000000	99.895891
472.000000	99.830092
471.000000	99.738949
470.000000	99.681123
469.000000	99.668382
468.000000	99.687162
467.000000	99.729568
466.000000	99.787915
465.000000	99.845901
464.000000	99.886103
463.000000	99.890892
462.000000	99.843619
461.000000	99.751588
460.000000	99.670209
459.000000	99.677505
458.000000	99.793101
457.000000	99.925987
456.000000	99.987938
455.000000	100.006922
454.000000	100.048449
453.000000	100.119843
452.000000	100.170793
451.000000	100.161991
450.000000	100.103878
