PE IR       SUBTECH     SPECTRUM    ASCII       PEDS        4.00        
   -1
AD10-C015_1.ASC
23/09/08
11:13:44.00
23/09/08
11:14:38.00
uco
Sample 016 By uco Date Friday, September 08 2023
450.000000
#HDR
-1
-1
#GR
cm-1
%T
1.0
0.0
4000.000000
-1.000000
3551
8
100.186664
93.949514
#DATA
4000.000000	100.093059
3999.000000	100.098539
3998.000000	100.102754
3997.000000	100.103689
3996.000000	100.101736
3995.000000	100.097609
3994.000000	100.091845
3993.000000	100.084671
3992.000000	100.076957
3991.000000	100.070905
3990.000000	100.069173
3989.000000	100.072820
3988.000000	100.080196
3987.000000	100.087983
3986.000000	100.093293
3985.000000	100.095151
3984.000000	100.094465
3983.000000	100.092933
3982.000000	100.091837
3981.000000	100.091297
3980.000000	100.090463
3979.000000	100.088564
3978.000000	100.085937
3977.000000	100.083884
3976.000000	100.083245
3975.000000	100.083133
3974.000000	100.081464
3973.000000	100.076896
3972.000000	100.070267
3971.000000	100.064220
3970.000000	100.061418
3969.000000	100.063017
3968.000000	100.068151
3967.000000	100.074350
3966.000000	100.078805
3965.000000	100.079852
3964.000000	100.078058
3963.000000	100.075863
3962.000000	100.075543
3961.000000	100.077130
3960.000000	100.078438
3959.000000	100.077401
3958.000000	100.074366
3957.000000	100.072033
3956.000000	100.073130
3955.000000	100.078085
3954.000000	100.084575
3953.000000	100.089215
3952.000000	100.089999
3951.000000	100.087751
3950.000000	100.085676
3949.000000	100.086984
3948.000000	100.091865
3947.000000	100.096771
3946.000000	100.097367
3945.000000	100.092262
3944.000000	100.084250
3943.000000	100.078204
3942.000000	100.077069
3941.000000	100.079762
3940.000000	100.083005
3939.000000	100.084375
3938.000000	100.083388
3937.000000	100.080592
3936.000000	100.076506
3935.000000	100.071489
3934.000000	100.066237
3933.000000	100.062202
3932.000000	100.061071
3931.000000	100.063431
3930.000000	100.067928
3929.000000	100.072053
3928.000000	100.073785
3927.000000	100.072540
3926.000000	100.069247
3925.000000	100.065550
3924.000000	100.062564
3923.000000	100.060384
3922.000000	100.058775
3921.000000	100.058081
3920.000000	100.059293
3919.000000	100.063236
3918.000000	100.069491
3917.000000	100.075789
3916.000000	100.079174
3915.000000	100.078416
3914.000000	100.075092
3913.000000	100.072078
3912.000000	100.071353
3911.000000	100.072901
3910.000000	100.075307
3909.000000	100.077060
3908.000000	100.077180
3907.000000	100.075226
3906.000000	100.071521
3905.000000	100.067791
3904.000000	100.066624
3903.000000	100.069130
3902.000000	100.073436
3901.000000	100.076548
3900.000000	100.077188
3899.000000	100.075924
3898.000000	100.073564
3897.000000	100.070324
3896.000000	100.066382
3895.000000	100.062163
3894.000000	100.058098
3893.000000	100.054627
3892.000000	100.052678
3891.000000	100.052991
3890.000000	100.054708
3889.000000	100.056054
3888.000000	100.056212
3887.000000	100.056161
3886.000000	100.057559
3885.000000	100.060288
3884.000000	100.062137
3883.000000	100.061465
3882.000000	100.059046
3881.000000	100.057414
3880.000000	100.058719
3879.000000	100.062260
3878.000000	100.065010
3877.000000	100.065062
3876.000000	100.063615
3875.000000	100.063818
3874.000000	100.067441
3873.000000	100.072682
3872.000000	100.076327
3871.000000	100.077883
3870.000000	100.079687
3869.000000	100.082391
3868.000000	100.083583
3867.000000	100.081565
3866.000000	100.077107
3865.000000	100.071253
3864.000000	100.064156
3863.000000	100.056414
3862.000000	100.049656
3861.000000	100.045330
3860.000000	100.044331
3859.000000	100.047454
3858.000000	100.054933
3857.000000	100.064814
3856.000000	100.072956
3855.000000	100.077846
3854.000000	100.084433
3853.000000	100.096788
3852.000000	100.108049
3851.000000	100.110269
3850.000000	100.104750
3849.000000	100.096377
3848.000000	100.088067
3847.000000	100.080708
3846.000000	100.074225
3845.000000	100.067878
3844.000000	100.060966
3843.000000	100.053644
3842.000000	100.046571
3841.000000	100.040378
3840.000000	100.035930
3839.000000	100.034742
3838.000000	100.037945
3837.000000	100.043954
3836.000000	100.049379
3835.000000	100.052970
3834.000000	100.056508
3833.000000	100.062063
3832.000000	100.069050
3831.000000	100.073890
3830.000000	100.073498
3829.000000	100.068432
3828.000000	100.062416
3827.000000	100.059180
3826.000000	100.058997
3825.000000	100.058758
3824.000000	100.055712
3823.000000	100.050916
3822.000000	100.049302
3821.000000	100.054671
3820.000000	100.064415
3819.000000	100.072777
3818.000000	100.076883
3817.000000	100.077082
3816.000000	100.074582
3815.000000	100.069775
3814.000000	100.063700
3813.000000	100.059582
3812.000000	100.060397
3811.000000	100.065688
3810.000000	100.071704
3809.000000	100.074188
3808.000000	100.071593
3807.000000	100.065908
3806.000000	100.060441
3805.000000	100.057456
3804.000000	100.057825
3803.000000	100.061507
3802.000000	100.067405
3801.000000	100.072247
3800.000000	100.072038
3799.000000	100.066507
3798.000000	100.059301
3797.000000	100.054673
3796.000000	100.054882
3795.000000	100.058932
3794.000000	100.063355
3793.000000	100.064724
3792.000000	100.061376
3791.000000	100.054170
3790.000000	100.046410
3789.000000	100.041849
3788.000000	100.042158
3787.000000	100.046268
3786.000000	100.052080
3785.000000	100.058312
3784.000000	100.064570
3783.000000	100.070028
3782.000000	100.073072
3781.000000	100.072061
3780.000000	100.066683
3779.000000	100.058923
3778.000000	100.052065
3777.000000	100.048131
3776.000000	100.047146
3775.000000	100.047895
3774.000000	100.048387
3773.000000	100.046680
3772.000000	100.042394
3771.000000	100.037423
3770.000000	100.034458
3769.000000	100.034471
3768.000000	100.036478
3767.000000	100.039905
3766.000000	100.045733
3765.000000	100.054498
3764.000000	100.064236
3763.000000	100.071643
3762.000000	100.074916
3761.000000	100.074251
3760.000000	100.070483
3759.000000	100.064878
3758.000000	100.060118
3757.000000	100.059489
3756.000000	100.064616
3755.000000	100.074361
3754.000000	100.085605
3753.000000	100.095375
3752.000000	100.102611
3751.000000	100.107882
3750.000000	100.110260
3749.000000	100.106923
3748.000000	100.097851
3747.000000	100.086227
3746.000000	100.076431
3745.000000	100.072967
3744.000000	100.074096
3743.000000	100.071359
3742.000000	100.063238
3741.000000	100.057088
3740.000000	100.058453
3739.000000	100.065322
3738.000000	100.070676
3737.000000	100.068509
3736.000000	100.058961
3735.000000	100.048963
3734.000000	100.045228
3733.000000	100.047817
3732.000000	100.052768
3731.000000	100.057198
3730.000000	100.060865
3729.000000	100.064770
3728.000000	100.069436
3727.000000	100.073772
3726.000000	100.075426
3725.000000	100.073085
3724.000000	100.068197
3723.000000	100.063450
3722.000000	100.060299
3721.000000	100.058473
3720.000000	100.057246
3719.000000	100.056532
3718.000000	100.056763
3717.000000	100.058042
3716.000000	100.060079
3715.000000	100.062967
3714.000000	100.067266
3713.000000	100.073007
3712.000000	100.078776
3711.000000	100.082649
3710.000000	100.084063
3709.000000	100.083610
3708.000000	100.081807
3707.000000	100.078679
3706.000000	100.074034
3705.000000	100.068114
3704.000000	100.062026
3703.000000	100.057716
3702.000000	100.056756
3701.000000	100.058465
3700.000000	100.060004
3699.000000	100.059465
3698.000000	100.058156
3697.000000	100.059066
3696.000000	100.063391
3695.000000	100.069459
3694.000000	100.075204
3693.000000	100.080296
3692.000000	100.085352
3691.000000	100.089656
3690.000000	100.091082
3689.000000	100.088845
3688.000000	100.084505
3687.000000	100.079783
3686.000000	100.075656
3685.000000	100.072491
3684.000000	100.069506
3683.000000	100.065680
3682.000000	100.061963
3681.000000	100.061937
3680.000000	100.068555
3679.000000	100.080028
3678.000000	100.090517
3677.000000	100.096106
3676.000000	100.098797
3675.000000	100.102251
3674.000000	100.105249
3673.000000	100.104558
3672.000000	100.099805
3671.000000	100.093057
3670.000000	100.086197
3669.000000	100.079071
3668.000000	100.071177
3667.000000	100.063947
3666.000000	100.059521
3665.000000	100.058645
3664.000000	100.060191
3663.000000	100.062263
3662.000000	100.063643
3661.000000	100.064246
3660.000000	100.064329
3659.000000	100.063793
3658.000000	100.062395
3657.000000	100.060533
3656.000000	100.058821
3655.000000	100.057197
3654.000000	100.055657
3653.000000	100.055056
3652.000000	100.055718
3651.000000	100.055198
3650.000000	100.049404
3649.000000	100.039980
3648.000000	100.035440
3647.000000	100.039474
3646.000000	100.047159
3645.000000	100.052098
3644.000000	100.051330
3643.000000	100.045613
3642.000000	100.037872
3641.000000	100.031667
3640.000000	100.030166
3639.000000	100.035100
3638.000000	100.044960
3637.000000	100.054935
3636.000000	100.060200
3635.000000	100.059861
3634.000000	100.057233
3633.000000	100.056082
3632.000000	100.057103
3631.000000	100.058161
3630.000000	100.057209
3629.000000	100.054078
3628.000000	100.050339
3627.000000	100.046759
3626.000000	100.042766
3625.000000	100.037884
3624.000000	100.031853
3623.000000	100.025102
3622.000000	100.019577
3621.000000	100.018060
3620.000000	100.021516
3619.000000	100.026974
3618.000000	100.029976
3617.000000	100.029233
3616.000000	100.027155
3615.000000	100.026739
3614.000000	100.028503
3613.000000	100.029984
3612.000000	100.028622
3611.000000	100.024676
3610.000000	100.020702
3609.000000	100.018763
3608.000000	100.018736
3607.000000	100.019403
3606.000000	100.020060
3605.000000	100.020199
3604.000000	100.018685
3603.000000	100.014340
3602.000000	100.007414
3601.000000	100.000181
3600.000000	99.995476
3599.000000	99.994679
3598.000000	99.997020
3597.000000	100.000027
3596.000000	100.000827
3595.000000	99.998353
3594.000000	99.994773
3593.000000	99.993553
3592.000000	99.995868
3591.000000	99.999798
3590.000000	100.002898
3589.000000	100.004763
3588.000000	100.007034
3587.000000	100.010847
3586.000000	100.014460
3585.000000	100.015117
3584.000000	100.012267
3583.000000	100.007726
3582.000000	100.003899
3581.000000	100.002417
3580.000000	100.003671
3579.000000	100.007079
3578.000000	100.011516
3577.000000	100.015405
3576.000000	100.016833
3575.000000	100.014266
3574.000000	100.007674
3573.000000	99.998920
3572.000000	99.990618
3571.000000	99.984217
3570.000000	99.979170
3569.000000	99.973833
3568.000000	99.967427
3567.000000	99.962010
3566.000000	99.961148
3565.000000	99.965499
3564.000000	99.972259
3563.000000	99.978228
3562.000000	99.981704
3561.000000	99.982663
3560.000000	99.981986
3559.000000	99.980235
3558.000000	99.977246
3557.000000	99.972914
3556.000000	99.967971
3555.000000	99.963770
3554.000000	99.961562
3553.000000	99.962007
3552.000000	99.964924
3551.000000	99.968907
3550.000000	99.971445
3549.000000	99.970165
3548.000000	99.964436
3547.000000	99.956146
3546.000000	99.948634
3545.000000	99.944056
3544.000000	99.941823
3543.000000	99.940106
3542.000000	99.938098
3541.000000	99.936517
3540.000000	99.936414
3539.000000	99.937866
3538.000000	99.939748
3537.000000	99.940662
3536.000000	99.940047
3535.000000	99.938220
3534.000000	99.935452
3533.000000	99.931660
3532.000000	99.927249
3531.000000	99.923655
3530.000000	99.922329
3529.000000	99.922858
3528.000000	99.922711
3527.000000	99.919520
3526.000000	99.913604
3525.000000	99.907805
3524.000000	99.905127
3523.000000	99.906710
3522.000000	99.911602
3521.000000	99.917739
3520.000000	99.922797
3519.000000	99.924725
3518.000000	99.922580
3517.000000	99.917311
3516.000000	99.911152
3515.000000	99.905871
3514.000000	99.901727
3513.000000	99.898183
3512.000000	99.895166
3511.000000	99.893178
3510.000000	99.892452
3509.000000	99.892730
3508.000000	99.893933
3507.000000	99.896344
3506.000000	99.899634
3505.000000	99.901947
3504.000000	99.900560
3503.000000	99.894388
3502.000000	99.885905
3501.000000	99.879647
3500.000000	99.878328
3499.000000	99.880527
3498.000000	99.882180
3497.000000	99.880576
3496.000000	99.877132
3495.000000	99.875559
3494.000000	99.877384
3493.000000	99.880341
3492.000000	99.881518
3491.000000	99.880708
3490.000000	99.879843
3489.000000	99.879824
3488.000000	99.879169
3487.000000	99.875900
3486.000000	99.869824
3485.000000	99.862503
3484.000000	99.855941
3483.000000	99.851995
3482.000000	99.852199
3481.000000	99.856874
3480.000000	99.864224
3479.000000	99.871065
3478.000000	99.874982
3477.000000	99.875683
3476.000000	99.874308
3475.000000	99.871657
3474.000000	99.867280
3473.000000	99.860449
3472.000000	99.851883
3471.000000	99.844157
3470.000000	99.840061
3469.000000	99.840454
3468.000000	99.843661
3467.000000	99.846901
3466.000000	99.848445
3465.000000	99.848554
3464.000000	99.848675
3463.000000	99.849791
3462.000000	99.851374
3461.000000	99.851634
3460.000000	99.848820
3459.000000	99.842575
3458.000000	99.834392
3457.000000	99.826883
3456.000000	99.822410
3455.000000	99.821885
3454.000000	99.824492
3453.000000	99.828301
3452.000000	99.831165
3451.000000	99.831545
3450.000000	99.829280
3449.000000	99.825840
3448.000000	99.823489
3447.000000	99.823524
3446.000000	99.825227
3445.000000	99.826919
3444.000000	99.827822
3443.000000	99.828477
3442.000000	99.829703
3441.000000	99.831646
3440.000000	99.833819
3439.000000	99.835540
3438.000000	99.836226
3437.000000	99.835652
3436.000000	99.834071
3435.000000	99.831732
3434.000000	99.828294
3433.000000	99.823265
3432.000000	99.817312
3431.000000	99.812715
3430.000000	99.811941
3429.000000	99.815582
3428.000000	99.821704
3427.000000	99.827133
3426.000000	99.829448
3425.000000	99.828269
3424.000000	99.825127
3423.000000	99.822094
3422.000000	99.820252
3421.000000	99.819193
3420.000000	99.817699
3419.000000	99.814663
3418.000000	99.809576
3417.000000	99.802861
3416.000000	99.796133
3415.000000	99.791525
3414.000000	99.789986
3413.000000	99.790217
3412.000000	99.789807
3411.000000	99.787454
3410.000000	99.783910
3409.000000	99.781017
3408.000000	99.780356
3407.000000	99.782700
3406.000000	99.787889
3405.000000	99.794592
3404.000000	99.800454
3403.000000	99.803255
3402.000000	99.802473
3401.000000	99.799723
3400.000000	99.797318
3399.000000	99.796136
3398.000000	99.795005
3397.000000	99.792471
3396.000000	99.788949
3395.000000	99.786304
3394.000000	99.785141
3393.000000	99.783507
3392.000000	99.779334
3391.000000	99.773781
3390.000000	99.770850
3389.000000	99.773415
3388.000000	99.780352
3387.000000	99.787595
3386.000000	99.791339
3385.000000	99.790114
3384.000000	99.784823
3383.000000	99.777911
3382.000000	99.772264
3381.000000	99.769749
3380.000000	99.770055
3379.000000	99.771005
3378.000000	99.770413
3377.000000	99.767890
3376.000000	99.764996
3375.000000	99.763717
3374.000000	99.764733
3373.000000	99.767036
3372.000000	99.769084
3371.000000	99.770106
3370.000000	99.770280
3369.000000	99.770028
3368.000000	99.769640
3367.000000	99.769384
3366.000000	99.769260
3365.000000	99.768434
3364.000000	99.765713
3363.000000	99.761230
3362.000000	99.757166
3361.000000	99.755859
3360.000000	99.757111
3359.000000	99.758092
3358.000000	99.756190
3357.000000	99.751470
3356.000000	99.746150
3355.000000	99.742366
3354.000000	99.741051
3353.000000	99.742383
3352.000000	99.745977
3351.000000	99.750156
3350.000000	99.752066
3349.000000	99.749770
3348.000000	99.744370
3347.000000	99.739323
3346.000000	99.737211
3345.000000	99.737463
3344.000000	99.737599
3343.000000	99.736418
3342.000000	99.735334
3341.000000	99.736467
3340.000000	99.740057
3339.000000	99.744212
3338.000000	99.746914
3337.000000	99.747753
3336.000000	99.747590
3335.000000	99.746976
3334.000000	99.745313
3333.000000	99.741587
3332.000000	99.735669
3331.000000	99.728758
3330.000000	99.722672
3329.000000	99.718758
3328.000000	99.717343
3327.000000	99.718008
3326.000000	99.720087
3325.000000	99.722716
3324.000000	99.724543
3323.000000	99.724049
3322.000000	99.720787
3321.000000	99.716456
3320.000000	99.714240
3319.000000	99.716519
3318.000000	99.722837
3317.000000	99.729939
3316.000000	99.733704
3315.000000	99.731421
3314.000000	99.723194
3313.000000	99.712024
3312.000000	99.702386
3311.000000	99.697667
3310.000000	99.698167
3309.000000	99.701371
3308.000000	99.704221
3307.000000	99.705093
3306.000000	99.704042
3305.000000	99.702152
3304.000000	99.701172
3303.000000	99.702986
3302.000000	99.708158
3301.000000	99.714747
3300.000000	99.719355
3299.000000	99.719932
3298.000000	99.717349
3297.000000	99.714093
3296.000000	99.711753
3295.000000	99.710159
3294.000000	99.708709
3293.000000	99.707768
3292.000000	99.708387
3291.000000	99.710915
3290.000000	99.714315
3289.000000	99.717048
3288.000000	99.718442
3287.000000	99.718884
3286.000000	99.718685
3285.000000	99.717212
3284.000000	99.713632
3283.000000	99.708417
3282.000000	99.703579
3281.000000	99.701058
3280.000000	99.701117
3279.000000	99.702548
3278.000000	99.704169
3277.000000	99.705825
3276.000000	99.708089
3275.000000	99.711332
3274.000000	99.715096
3273.000000	99.718010
3272.000000	99.718426
3271.000000	99.715637
3270.000000	99.710782
3269.000000	99.706267
3268.000000	99.703960
3267.000000	99.703972
3266.000000	99.705246
3265.000000	99.707004
3264.000000	99.709185
3263.000000	99.711752
3262.000000	99.714305
3261.000000	99.716629
3260.000000	99.719144
3259.000000	99.722333
3258.000000	99.725916
3257.000000	99.729012
3256.000000	99.730995
3255.000000	99.731823
3254.000000	99.731613
3253.000000	99.730429
3252.000000	99.728778
3251.000000	99.727967
3250.000000	99.729434
3249.000000	99.733482
3248.000000	99.738706
3247.000000	99.742763
3246.000000	99.743917
3245.000000	99.742120
3244.000000	99.738656
3243.000000	99.734684
3242.000000	99.730243
3241.000000	99.724902
3240.000000	99.719322
3239.000000	99.715648
3238.000000	99.715924
3237.000000	99.720158
3236.000000	99.726162
3235.000000	99.731371
3234.000000	99.734699
3233.000000	99.736691
3232.000000	99.738226
3231.000000	99.739297
3230.000000	99.739183
3229.000000	99.737747
3228.000000	99.736329
3227.000000	99.736927
3226.000000	99.740196
3225.000000	99.744439
3224.000000	99.746836
3223.000000	99.745816
3222.000000	99.742204
3221.000000	99.738361
3220.000000	99.736641
3219.000000	99.738367
3218.000000	99.743367
3217.000000	99.749753
3216.000000	99.754419
3215.000000	99.754773
3214.000000	99.750782
3213.000000	99.745179
3212.000000	99.741286
3211.000000	99.740404
3210.000000	99.741376
3209.000000	99.742547
3208.000000	99.743685
3207.000000	99.745822
3206.000000	99.749486
3205.000000	99.753752
3204.000000	99.757240
3203.000000	99.759565
3202.000000	99.761265
3201.000000	99.762511
3200.000000	99.762621
3199.000000	99.761001
3198.000000	99.757990
3197.000000	99.754288
3196.000000	99.749980
3195.000000	99.744714
3194.000000	99.738662
3193.000000	99.732820
3192.000000	99.728524
3191.000000	99.727138
3190.000000	99.729815
3189.000000	99.736414
3188.000000	99.744348
3187.000000	99.749694
3186.000000	99.750510
3185.000000	99.748856
3184.000000	99.748681
3183.000000	99.751914
3182.000000	99.757190
3181.000000	99.761876
3180.000000	99.764152
3179.000000	99.763246
3178.000000	99.759426
3177.000000	99.754646
3176.000000	99.752009
3175.000000	99.753048
3174.000000	99.755842
3173.000000	99.757100
3172.000000	99.756282
3171.000000	99.756631
3170.000000	99.761463
3169.000000	99.770227
3168.000000	99.778798
3167.000000	99.783303
3166.000000	99.782952
3165.000000	99.779654
3164.000000	99.775960
3163.000000	99.773662
3162.000000	99.773480
3161.000000	99.775190
3160.000000	99.777973
3159.000000	99.780847
3158.000000	99.782890
3157.000000	99.783218
3156.000000	99.781373
3155.000000	99.778229
3154.000000	99.776191
3153.000000	99.777656
3152.000000	99.782796
3151.000000	99.789066
3150.000000	99.793055
3149.000000	99.792816
3148.000000	99.788595
3147.000000	99.782079
3146.000000	99.775323
3145.000000	99.769949
3144.000000	99.766632
3143.000000	99.765260
3142.000000	99.765780
3141.000000	99.768653
3140.000000	99.774080
3139.000000	99.781008
3138.000000	99.787393
3137.000000	99.791389
3136.000000	99.792002
3135.000000	99.789164
3134.000000	99.784328
3133.000000	99.781107
3132.000000	99.783732
3131.000000	99.793495
3130.000000	99.806753
3129.000000	99.817200
3128.000000	99.820368
3127.000000	99.816293
3126.000000	99.808558
3125.000000	99.801313
3124.000000	99.796877
3123.000000	99.795183
3122.000000	99.794957
3121.000000	99.795316
3120.000000	99.796213
3119.000000	99.797514
3118.000000	99.798361
3117.000000	99.797989
3116.000000	99.796855
3115.000000	99.796341
3114.000000	99.797347
3113.000000	99.799654
3112.000000	99.802525
3111.000000	99.805398
3110.000000	99.807892
3109.000000	99.809468
3108.000000	99.809245
3107.000000	99.806396
3106.000000	99.801261
3105.000000	99.796245
3104.000000	99.794681
3103.000000	99.797794
3102.000000	99.802981
3101.000000	99.805965
3100.000000	99.804768
3099.000000	99.800955
3098.000000	99.797310
3097.000000	99.795278
3096.000000	99.794511
3095.000000	99.793587
3094.000000	99.790967
3093.000000	99.786431
3092.000000	99.782201
3091.000000	99.781699
3090.000000	99.786310
3089.000000	99.793728
3088.000000	99.800026
3087.000000	99.802954
3086.000000	99.802876
3085.000000	99.801437
3084.000000	99.800158
3083.000000	99.799696
3082.000000	99.799338
3081.000000	99.797444
3080.000000	99.793437
3079.000000	99.789357
3078.000000	99.788355
3077.000000	99.791303
3076.000000	99.795632
3075.000000	99.797839
3074.000000	99.796685
3073.000000	99.793725
3072.000000	99.791314
3071.000000	99.790590
3070.000000	99.791121
3069.000000	99.791794
3068.000000	99.791792
3067.000000	99.791050
3066.000000	99.790234
3065.000000	99.790392
3064.000000	99.792247
3063.000000	99.795463
3062.000000	99.798683
3061.000000	99.800590
3060.000000	99.800955
3059.000000	99.800454
3058.000000	99.799787
3057.000000	99.799478
3056.000000	99.800303
3055.000000	99.802849
3054.000000	99.806346
3053.000000	99.808892
3052.000000	99.809405
3051.000000	99.808545
3050.000000	99.807065
3049.000000	99.804336
3048.000000	99.799951
3047.000000	99.796154
3046.000000	99.796639
3045.000000	99.802261
3044.000000	99.809268
3043.000000	99.812700
3042.000000	99.810881
3041.000000	99.806019
3040.000000	99.801241
3039.000000	99.798135
3038.000000	99.796607
3037.000000	99.795755
3036.000000	99.794579
3035.000000	99.792784
3034.000000	99.791574
3033.000000	99.793185
3032.000000	99.798906
3031.000000	99.807183
3030.000000	99.814066
3029.000000	99.816077
3028.000000	99.812924
3027.000000	99.807498
3026.000000	99.803265
3025.000000	99.801871
3024.000000	99.803290
3023.000000	99.807483
3022.000000	99.814589
3021.000000	99.823249
3020.000000	99.830138
3019.000000	99.832467
3018.000000	99.830665
3017.000000	99.827729
3016.000000	99.826036
3015.000000	99.825618
3014.000000	99.825313
3013.000000	99.824385
3012.000000	99.822605
3011.000000	99.819979
3010.000000	99.817271
3009.000000	99.816032
3008.000000	99.817067
3007.000000	99.819280
3006.000000	99.821181
3005.000000	99.823267
3004.000000	99.827454
3003.000000	99.833582
3002.000000	99.837901
3001.000000	99.836478
3000.000000	99.829732
2999.000000	99.822364
2998.000000	99.818537
2997.000000	99.818038
2996.000000	99.817589
2995.000000	99.815108
2994.000000	99.811789
2993.000000	99.810218
2992.000000	99.811423
2991.000000	99.814233
2990.000000	99.816897
2989.000000	99.818573
2988.000000	99.819193
2987.000000	99.818660
2986.000000	99.816810
2985.000000	99.814038
2984.000000	99.811295
2983.000000	99.809058
2982.000000	99.806589
2981.000000	99.802607
2980.000000	99.796762
2979.000000	99.790225
2978.000000	99.784861
2977.000000	99.781998
2976.000000	99.781872
2975.000000	99.783818
2974.000000	99.786675
2973.000000	99.789239
2972.000000	99.790718
2971.000000	99.790919
2970.000000	99.789881
2969.000000	99.787344
2968.000000	99.782789
2967.000000	99.776248
2966.000000	99.768989
2965.000000	99.762918
2964.000000	99.758845
2963.000000	99.755566
2962.000000	99.751256
2961.000000	99.746081
2960.000000	99.742781
2959.000000	99.743959
2958.000000	99.748965
2957.000000	99.754088
2956.000000	99.755981
2955.000000	99.754391
2954.000000	99.751545
2953.000000	99.749509
2952.000000	99.748527
2951.000000	99.747402
2950.000000	99.744898
2949.000000	99.740945
2948.000000	99.736942
2947.000000	99.734732
2946.000000	99.734650
2945.000000	99.734500
2944.000000	99.731081
2943.000000	99.723360
2942.000000	99.714143
2941.000000	99.708202
2940.000000	99.708272
2939.000000	99.712555
2938.000000	99.716119
2937.000000	99.715052
2936.000000	99.709566
2935.000000	99.703057
2934.000000	99.698184
2933.000000	99.694151
2932.000000	99.688064
2931.000000	99.678608
2930.000000	99.667764
2929.000000	99.658874
2928.000000	99.653647
2927.000000	99.651216
2926.000000	99.649321
2925.000000	99.645580
2924.000000	99.638169
2923.000000	99.626668
2922.000000	99.612870
2921.000000	99.599945
2920.000000	99.590008
2919.000000	99.582793
2918.000000	99.577350
2917.000000	99.574679
2916.000000	99.577471
2915.000000	99.586884
2914.000000	99.600425
2913.000000	99.613793
2912.000000	99.624466
2911.000000	99.632894
2910.000000	99.640734
2909.000000	99.648992
2908.000000	99.657897
2907.000000	99.667110
2906.000000	99.675211
2905.000000	99.679953
2904.000000	99.680559
2903.000000	99.679717
2902.000000	99.681911
2901.000000	99.689016
2900.000000	99.698189
2899.000000	99.704733
2898.000000	99.706518
2897.000000	99.705106
2896.000000	99.703210
2895.000000	99.702389
2894.000000	99.703126
2893.000000	99.705672
2892.000000	99.709673
2891.000000	99.713681
2890.000000	99.716320
2889.000000	99.717907
2888.000000	99.719933
2887.000000	99.722694
2886.000000	99.724494
2885.000000	99.723854
2884.000000	99.721833
2883.000000	99.721060
2882.000000	99.722593
2881.000000	99.724670
2880.000000	99.724820
2879.000000	99.722517
2878.000000	99.719361
2877.000000	99.717301
2876.000000	99.717361
2875.000000	99.719706
2874.000000	99.723768
2873.000000	99.727838
2872.000000	99.729380
2871.000000	99.726903
2870.000000	99.721791
2869.000000	99.717632
2868.000000	99.717227
2867.000000	99.720271
2866.000000	99.723952
2865.000000	99.725551
2864.000000	99.724316
2863.000000	99.721448
2862.000000	99.718953
2861.000000	99.718165
2860.000000	99.718487
2859.000000	99.717219
2858.000000	99.711324
2857.000000	99.700131
2856.000000	99.686287
2855.000000	99.673852
2854.000000	99.665393
2853.000000	99.660589
2852.000000	99.657054
2851.000000	99.652559
2850.000000	99.647314
2849.000000	99.644635
2848.000000	99.648574
2847.000000	99.660064
2846.000000	99.675604
2845.000000	99.690357
2844.000000	99.702175
2843.000000	99.712037
2842.000000	99.721167
2841.000000	99.729085
2840.000000	99.734789
2839.000000	99.738579
2838.000000	99.741878
2837.000000	99.745829
2836.000000	99.750773
2835.000000	99.756609
2834.000000	99.762758
2833.000000	99.767854
2832.000000	99.770373
2831.000000	99.769997
2830.000000	99.768001
2829.000000	99.766081
2828.000000	99.765039
2827.000000	99.764785
2826.000000	99.765283
2825.000000	99.766977
2824.000000	99.770201
2823.000000	99.774557
2822.000000	99.779100
2821.000000	99.782928
2820.000000	99.785374
2819.000000	99.785994
2818.000000	99.784947
2817.000000	99.783383
2816.000000	99.782810
2815.000000	99.783846
2814.000000	99.785951
2813.000000	99.788463
2812.000000	99.791184
2811.000000	99.793640
2810.000000	99.794673
2809.000000	99.793664
2808.000000	99.791677
2807.000000	99.790368
2806.000000	99.789965
2805.000000	99.789397
2804.000000	99.788410
2803.000000	99.788335
2802.000000	99.790141
2801.000000	99.792586
2800.000000	99.793085
2799.000000	99.790185
2798.000000	99.784951
2797.000000	99.780382
2796.000000	99.779718
2795.000000	99.784345
2794.000000	99.792349
2793.000000	99.799398
2792.000000	99.802055
2791.000000	99.800656
2790.000000	99.798645
2789.000000	99.799032
2788.000000	99.801761
2787.000000	99.804436
2786.000000	99.805040
2785.000000	99.803681
2784.000000	99.801995
2783.000000	99.801354
2782.000000	99.801869
2781.000000	99.802918
2780.000000	99.804146
2779.000000	99.805626
2778.000000	99.807287
2777.000000	99.808643
2776.000000	99.809058
2775.000000	99.807973
2774.000000	99.805109
2773.000000	99.801086
2772.000000	99.797798
2771.000000	99.797250
2770.000000	99.799526
2769.000000	99.802393
2768.000000	99.803378
2767.000000	99.801906
2766.000000	99.799225
2765.000000	99.796776
2764.000000	99.795134
2763.000000	99.794037
2762.000000	99.792881
2761.000000	99.791445
2760.000000	99.790584
2759.000000	99.791720
2758.000000	99.795010
2757.000000	99.798475
2756.000000	99.799810
2755.000000	99.798897
2754.000000	99.797664
2753.000000	99.797624
2752.000000	99.798586
2751.000000	99.799942
2750.000000	99.802002
2749.000000	99.805292
2748.000000	99.809204
2747.000000	99.812202
2746.000000	99.813151
2745.000000	99.811939
2744.000000	99.809180
2743.000000	99.806015
2742.000000	99.803987
2741.000000	99.804126
2740.000000	99.805677
2739.000000	99.806284
2738.000000	99.804114
2737.000000	99.799913
2736.000000	99.796584
2735.000000	99.796508
2734.000000	99.799277
2733.000000	99.802113
2732.000000	99.802536
2731.000000	99.800546
2730.000000	99.798299
2729.000000	99.797874
2728.000000	99.799546
2727.000000	99.802096
2726.000000	99.804358
2725.000000	99.806199
2724.000000	99.808166
2723.000000	99.810518
2722.000000	99.812801
2721.000000	99.814258
2720.000000	99.814489
2719.000000	99.813697
2718.000000	99.812422
2717.000000	99.811099
2716.000000	99.809758
2715.000000	99.808003
2714.000000	99.805404
2713.000000	99.802244
2712.000000	99.799915
2711.000000	99.800197
2710.000000	99.803710
2709.000000	99.809065
2708.000000	99.813706
2707.000000	99.815666
2706.000000	99.814694
2705.000000	99.812107
2704.000000	99.809792
2703.000000	99.808985
2702.000000	99.809432
2701.000000	99.809745
2700.000000	99.808989
2699.000000	99.807886
2698.000000	99.808016
2697.000000	99.809849
2696.000000	99.812115
2695.000000	99.813203
2694.000000	99.812615
2693.000000	99.810848
2692.000000	99.808739
2691.000000	99.807521
2690.000000	99.808695
2689.000000	99.812658
2688.000000	99.817537
2687.000000	99.820476
2686.000000	99.820348
2685.000000	99.818489
2684.000000	99.816663
2683.000000	99.815170
2682.000000	99.813368
2681.000000	99.811136
2680.000000	99.809070
2679.000000	99.807744
2678.000000	99.807401
2677.000000	99.808020
2676.000000	99.809104
2675.000000	99.809868
2674.000000	99.810241
2673.000000	99.811167
2672.000000	99.813087
2671.000000	99.814621
2670.000000	99.813941
2669.000000	99.811408
2668.000000	99.809607
2667.000000	99.810356
2666.000000	99.812477
2665.000000	99.812938
2664.000000	99.809617
2663.000000	99.802757
2662.000000	99.794588
2661.000000	99.788000
2660.000000	99.784896
2659.000000	99.785090
2658.000000	99.786880
2657.000000	99.788808
2656.000000	99.790547
2655.000000	99.792247
2654.000000	99.793923
2653.000000	99.795733
2652.000000	99.797821
2651.000000	99.799530
2650.000000	99.799845
2649.000000	99.799244
2648.000000	99.799967
2647.000000	99.803471
2646.000000	99.808537
2645.000000	99.812943
2644.000000	99.816028
2643.000000	99.818355
2642.000000	99.819935
2641.000000	99.820569
2640.000000	99.821194
2639.000000	99.822731
2638.000000	99.823787
2637.000000	99.821826
2636.000000	99.817092
2635.000000	99.813274
2634.000000	99.813337
2633.000000	99.816331
2632.000000	99.819407
2631.000000	99.821571
2630.000000	99.823946
2629.000000	99.827093
2628.000000	99.829577
2627.000000	99.829314
2626.000000	99.825872
2625.000000	99.821533
2624.000000	99.819970
2623.000000	99.823169
2622.000000	99.829516
2621.000000	99.835607
2620.000000	99.839726
2619.000000	99.842328
2618.000000	99.843326
2617.000000	99.841035
2616.000000	99.834809
2615.000000	99.826885
2614.000000	99.820265
2613.000000	99.815935
2612.000000	99.813388
2611.000000	99.812416
2610.000000	99.812564
2609.000000	99.812136
2608.000000	99.810313
2607.000000	99.810017
2606.000000	99.816043
2605.000000	99.829466
2604.000000	99.845362
2603.000000	99.856986
2602.000000	99.861495
2601.000000	99.861092
2600.000000	99.859632
2599.000000	99.859003
2598.000000	99.858138
2597.000000	99.854613
2596.000000	99.847055
2595.000000	99.836278
2594.000000	99.824578
2593.000000	99.814432
2592.000000	99.808057
2591.000000	99.807382
2590.000000	99.813122
2589.000000	99.823449
2588.000000	99.834300
2587.000000	99.841845
2586.000000	99.844808
2585.000000	99.844556
2584.000000	99.843338
2583.000000	99.842706
2582.000000	99.843269
2581.000000	99.845118
2580.000000	99.847961
2579.000000	99.851108
2578.000000	99.854079
2577.000000	99.857505
2576.000000	99.862772
2575.000000	99.870084
2574.000000	99.877173
2573.000000	99.880743
2572.000000	99.879397
2571.000000	99.874912
2570.000000	99.870759
2569.000000	99.869598
2568.000000	99.871489
2567.000000	99.873622
2566.000000	99.872259
2565.000000	99.866283
2564.000000	99.859110
2563.000000	99.856060
2562.000000	99.859518
2561.000000	99.867036
2560.000000	99.873724
2559.000000	99.875543
2558.000000	99.870878
2557.000000	99.861053
2556.000000	99.849968
2555.000000	99.841663
2554.000000	99.837223
2553.000000	99.834918
2552.000000	99.833615
2551.000000	99.834570
2550.000000	99.839144
2549.000000	99.846186
2548.000000	99.852891
2547.000000	99.857314
2546.000000	99.859018
2545.000000	99.858128
2544.000000	99.855129
2543.000000	99.851300
2542.000000	99.848520
2541.000000	99.848641
2540.000000	99.852758
2539.000000	99.859930
2538.000000	99.866427
2537.000000	99.867933
2536.000000	99.863548
2535.000000	99.856571
2534.000000	99.850756
2533.000000	99.847313
2532.000000	99.846106
2531.000000	99.847388
2530.000000	99.850441
2529.000000	99.852524
2528.000000	99.851858
2527.000000	99.850683
2526.000000	99.852709
2525.000000	99.857959
2524.000000	99.862621
2523.000000	99.863689
2522.000000	99.861358
2521.000000	99.856739
2520.000000	99.849908
2519.000000	99.841066
2518.000000	99.831628
2517.000000	99.823225
2516.000000	99.817032
2515.000000	99.814559
2514.000000	99.817212
2513.000000	99.823829
2512.000000	99.830195
2511.000000	99.832632
2510.000000	99.831420
2509.000000	99.829903
2508.000000	99.830878
2507.000000	99.834447
2506.000000	99.838343
2505.000000	99.839420
2504.000000	99.835857
2503.000000	99.829186
2502.000000	99.823532
2501.000000	99.821776
2500.000000	99.822981
2499.000000	99.824401
2498.000000	99.825145
2497.000000	99.826352
2496.000000	99.828439
2495.000000	99.830288
2494.000000	99.831359
2493.000000	99.832762
2492.000000	99.835461
2491.000000	99.838962
2490.000000	99.842783
2489.000000	99.847762
2488.000000	99.854226
2487.000000	99.859774
2486.000000	99.861080
2485.000000	99.858020
2484.000000	99.854106
2483.000000	99.851867
2482.000000	99.849444
2481.000000	99.843357
2480.000000	99.834103
2479.000000	99.827163
2478.000000	99.827737
2477.000000	99.835188
2476.000000	99.843398
2475.000000	99.846744
2474.000000	99.845454
2473.000000	99.844885
2472.000000	99.849703
2471.000000	99.859216
2470.000000	99.868536
2469.000000	99.873452
2468.000000	99.873184
2467.000000	99.869228
2466.000000	99.863548
2465.000000	99.858391
2464.000000	99.855840
2463.000000	99.856155
2462.000000	99.857755
2461.000000	99.859940
2460.000000	99.864149
2459.000000	99.870799
2458.000000	99.876392
2457.000000	99.876503
2456.000000	99.871388
2455.000000	99.866104
2454.000000	99.864651
2453.000000	99.866220
2452.000000	99.867614
2451.000000	99.867090
2450.000000	99.865023
2449.000000	99.862910
2448.000000	99.863074
2447.000000	99.867483
2446.000000	99.875003
2445.000000	99.880909
2444.000000	99.880987
2443.000000	99.875764
2442.000000	99.869626
2441.000000	99.866290
2440.000000	99.865992
2439.000000	99.866504
2438.000000	99.865682
2437.000000	99.863128
2436.000000	99.860152
2435.000000	99.858440
2434.000000	99.858818
2433.000000	99.861347
2432.000000	99.865693
2431.000000	99.870418
2430.000000	99.872909
2429.000000	99.872133
2428.000000	99.871088
2427.000000	99.873709
2426.000000	99.878927
2425.000000	99.881084
2424.000000	99.877815
2423.000000	99.874232
2422.000000	99.876232
2421.000000	99.881959
2420.000000	99.883933
2419.000000	99.879134
2418.000000	99.873401
2417.000000	99.874982
2416.000000	99.885994
2415.000000	99.900950
2414.000000	99.911593
2413.000000	99.912479
2412.000000	99.903924
2411.000000	99.891372
2410.000000	99.881595
2409.000000	99.878325
2408.000000	99.880588
2407.000000	99.884414
2406.000000	99.886009
2405.000000	99.884553
2404.000000	99.883185
2403.000000	99.886346
2402.000000	99.894655
2401.000000	99.903062
2400.000000	99.905727
2399.000000	99.902256
2398.000000	99.897146
2397.000000	99.893509
2396.000000	99.890246
2395.000000	99.886053
2394.000000	99.883360
2393.000000	99.886053
2392.000000	99.894483
2391.000000	99.904672
2390.000000	99.911909
2389.000000	99.913882
2388.000000	99.911107
2387.000000	99.906236
2386.000000	99.903075
2385.000000	99.904449
2384.000000	99.909885
2383.000000	99.916083
2382.000000	99.920608
2381.000000	99.924801
2380.000000	99.932018
2379.000000	99.942655
2378.000000	99.952002
2377.000000	99.954400
2376.000000	99.949610
2375.000000	99.943551
2374.000000	99.941599
2373.000000	99.942451
2372.000000	99.940452
2371.000000	99.933370
2370.000000	99.925378
2369.000000	99.922029
2368.000000	99.924593
2367.000000	99.930040
2366.000000	99.934286
2365.000000	99.934428
2364.000000	99.930114
2363.000000	99.924407
2362.000000	99.921714
2361.000000	99.923170
2360.000000	99.924245
2359.000000	99.920069
2358.000000	99.911754
2357.000000	99.905501
2356.000000	99.906167
2355.000000	99.911590
2354.000000	99.915289
2353.000000	99.913494
2352.000000	99.909229
2351.000000	99.907310
2350.000000	99.907119
2349.000000	99.904858
2348.000000	99.898985
2347.000000	99.892834
2346.000000	99.891633
2345.000000	99.896083
2344.000000	99.901233
2343.000000	99.902959
2342.000000	99.902128
2341.000000	99.900580
2340.000000	99.899396
2339.000000	99.899562
2338.000000	99.901075
2337.000000	99.901501
2336.000000	99.897237
2335.000000	99.886786
2334.000000	99.872148
2333.000000	99.856985
2332.000000	99.845172
2331.000000	99.840914
2330.000000	99.846804
2329.000000	99.860168
2328.000000	99.870534
2327.000000	99.866465
2326.000000	99.845471
2325.000000	99.817236
2324.000000	99.796719
2323.000000	99.792349
2322.000000	99.802259
2321.000000	99.819297
2320.000000	99.837675
2319.000000	99.853128
2318.000000	99.861338
2317.000000	99.861214
2316.000000	99.857708
2315.000000	99.857694
2314.000000	99.861741
2313.000000	99.864030
2312.000000	99.861483
2311.000000	99.859760
2310.000000	99.866324
2309.000000	99.879743
2308.000000	99.889991
2307.000000	99.889615
2306.000000	99.881211
2305.000000	99.872458
2304.000000	99.867173
2303.000000	99.863215
2302.000000	99.857842
2301.000000	99.851751
2300.000000	99.847694
2299.000000	99.847374
2298.000000	99.850369
2297.000000	99.854861
2296.000000	99.857880
2295.000000	99.856102
2294.000000	99.847896
2293.000000	99.835677
2292.000000	99.825694
2291.000000	99.824387
2290.000000	99.833452
2289.000000	99.847436
2288.000000	99.856845
2287.000000	99.855023
2286.000000	99.842986
2285.000000	99.827590
2284.000000	99.815687
2283.000000	99.810403
2282.000000	99.811887
2281.000000	99.818676
2280.000000	99.827697
2279.000000	99.835518
2278.000000	99.841716
2277.000000	99.849537
2276.000000	99.861034
2275.000000	99.872639
2274.000000	99.877905
2273.000000	99.874487
2272.000000	99.866155
2271.000000	99.857996
2270.000000	99.852018
2269.000000	99.847819
2268.000000	99.844918
2267.000000	99.843023
2266.000000	99.841831
2265.000000	99.842363
2264.000000	99.847400
2263.000000	99.858892
2262.000000	99.874497
2261.000000	99.887178
2260.000000	99.889115
2259.000000	99.877666
2258.000000	99.859304
2257.000000	99.847097
2256.000000	99.851677
2255.000000	99.872562
2254.000000	99.898234
2253.000000	99.914569
2252.000000	99.913622
2251.000000	99.896951
2250.000000	99.873671
2249.000000	99.855262
2248.000000	99.848716
2247.000000	99.852526
2246.000000	99.859740
2245.000000	99.864532
2244.000000	99.865236
2243.000000	99.863402
2242.000000	99.862689
2241.000000	99.866710
2240.000000	99.873704
2239.000000	99.874713
2238.000000	99.862439
2237.000000	99.842161
2236.000000	99.828768
2235.000000	99.832302
2234.000000	99.851208
2233.000000	99.878820
2232.000000	99.907913
2231.000000	99.927409
2230.000000	99.924874
2229.000000	99.900092
2228.000000	99.870171
2227.000000	99.853446
2226.000000	99.851900
2225.000000	99.854739
2224.000000	99.854039
2223.000000	99.849866
2222.000000	99.845099
2221.000000	99.844118
2220.000000	99.853623
2219.000000	99.874868
2218.000000	99.895983
2217.000000	99.901414
2216.000000	99.890930
2215.000000	99.881682
2214.000000	99.888521
2213.000000	99.908043
2212.000000	99.924248
2211.000000	99.925865
2210.000000	99.915624
2209.000000	99.905384
2208.000000	99.903498
2207.000000	99.905342
2206.000000	99.898124
2205.000000	99.877675
2204.000000	99.856785
2203.000000	99.851632
2202.000000	99.863316
2201.000000	99.879439
2200.000000	99.891021
2199.000000	99.898832
2198.000000	99.903588
2197.000000	99.900826
2196.000000	99.889900
2195.000000	99.879885
2194.000000	99.880421
2193.000000	99.890501
2192.000000	99.900168
2191.000000	99.901308
2190.000000	99.893963
2189.000000	99.883987
2188.000000	99.876363
2187.000000	99.869463
2186.000000	99.856341
2185.000000	99.833854
2184.000000	99.809522
2183.000000	99.796294
2182.000000	99.801815
2181.000000	99.825626
2180.000000	99.863882
2179.000000	99.912019
2178.000000	99.963991
2177.000000	100.012716
2176.000000	100.050099
2175.000000	100.064904
2174.000000	100.046527
2173.000000	99.998655
2172.000000	99.943997
2171.000000	99.904909
2170.000000	99.882875
2169.000000	99.865696
2168.000000	99.851391
2167.000000	99.852060
2166.000000	99.871778
2165.000000	99.892024
2164.000000	99.886190
2163.000000	99.845082
2162.000000	99.786194
2161.000000	99.747131
2160.000000	99.769656
2159.000000	99.869859
2158.000000	100.012527
2157.000000	100.131635
2156.000000	100.186664
2155.000000	100.185497
2154.000000	100.157238
2153.000000	100.123114
2152.000000	100.089881
2151.000000	100.054829
2150.000000	100.013698
2149.000000	99.969463
2148.000000	99.934459
2147.000000	99.919814
2146.000000	99.923659
2145.000000	99.933548
2144.000000	99.939221
2143.000000	99.939403
2142.000000	99.938664
2141.000000	99.943115
2140.000000	99.957392
2139.000000	99.980302
2138.000000	100.003673
2137.000000	100.019236
2136.000000	100.025245
2135.000000	100.023091
2134.000000	100.011782
2133.000000	99.992418
2132.000000	99.973944
2131.000000	99.966007
2130.000000	99.967383
2129.000000	99.967849
2128.000000	99.961027
2127.000000	99.950256
2126.000000	99.942139
2125.000000	99.939094
2124.000000	99.938874
2123.000000	99.937690
2122.000000	99.933761
2121.000000	99.930792
2120.000000	99.936256
2119.000000	99.951889
2118.000000	99.967356
2117.000000	99.968816
2116.000000	99.953976
2115.000000	99.933683
2114.000000	99.919058
2113.000000	99.912939
2112.000000	99.913501
2111.000000	99.918887
2110.000000	99.925469
2109.000000	99.927507
2108.000000	99.922785
2107.000000	99.915237
2106.000000	99.909583
2105.000000	99.906688
2104.000000	99.905071
2103.000000	99.902428
2102.000000	99.894893
2101.000000	99.880900
2100.000000	99.868186
2099.000000	99.870781
2098.000000	99.894607
2097.000000	99.928802
2096.000000	99.954462
2095.000000	99.959685
2094.000000	99.944905
2093.000000	99.919378
2092.000000	99.896677
2091.000000	99.888895
2090.000000	99.898969
2089.000000	99.917920
2088.000000	99.931424
2087.000000	99.929027
2086.000000	99.907913
2085.000000	99.873683
2084.000000	99.840334
2083.000000	99.824229
2082.000000	99.832398
2081.000000	99.856731
2080.000000	99.881872
2079.000000	99.898580
2078.000000	99.908318
2077.000000	99.916528
2076.000000	99.924268
2075.000000	99.926510
2074.000000	99.918436
2073.000000	99.904074
2072.000000	99.896318
2071.000000	99.904791
2070.000000	99.924856
2069.000000	99.942330
2068.000000	99.948368
2067.000000	99.945267
2066.000000	99.938886
2065.000000	99.932206
2064.000000	99.926755
2063.000000	99.923427
2062.000000	99.920038
2061.000000	99.913664
2060.000000	99.906670
2059.000000	99.905216
2058.000000	99.911704
2057.000000	99.924603
2056.000000	99.944070
2055.000000	99.968043
2054.000000	99.982011
2053.000000	99.966546
2052.000000	99.922440
2051.000000	99.877943
2050.000000	99.863264
2049.000000	99.881229
2048.000000	99.908590
2047.000000	99.924898
2046.000000	99.929703
2045.000000	99.931790
2044.000000	99.935108
2043.000000	99.938027
2042.000000	99.937589
2041.000000	99.931498
2040.000000	99.920199
2039.000000	99.908127
2038.000000	99.901084
2037.000000	99.903232
2036.000000	99.915729
2035.000000	99.934721
2034.000000	99.952111
2033.000000	99.965204
2032.000000	99.985555
2031.000000	100.026652
2030.000000	100.078197
2029.000000	100.103018
2028.000000	100.070983
2027.000000	99.994240
2026.000000	99.921904
2025.000000	99.900667
2024.000000	99.937427
2023.000000	99.995059
2022.000000	100.024004
2021.000000	100.000724
2020.000000	99.940574
2019.000000	99.877596
2018.000000	99.840310
2017.000000	99.846067
2016.000000	99.899135
2015.000000	99.983327
2014.000000	100.064773
2013.000000	100.111695
2012.000000	100.113372
2011.000000	100.078056
2010.000000	100.021629
2009.000000	99.970501
2008.000000	99.959456
2007.000000	100.000438
2006.000000	100.061035
2005.000000	100.097287
2004.000000	100.103091
2003.000000	100.104813
2002.000000	100.114303
2001.000000	100.114077
2000.000000	100.088028
1999.000000	100.043539
1998.000000	99.999256
1997.000000	99.970947
1996.000000	99.971755
1995.000000	100.004567
1994.000000	100.046297
1993.000000	100.057122
1992.000000	100.023707
1991.000000	99.979589
1990.000000	99.962086
1989.000000	99.968547
1988.000000	99.971940
1987.000000	99.960127
1986.000000	99.943224
1985.000000	99.933303
1984.000000	99.933144
1983.000000	99.940047
1982.000000	99.949036
1981.000000	99.957097
1980.000000	99.972658
1979.000000	100.012014
1978.000000	100.072678
1977.000000	100.118536
1976.000000	100.113841
1975.000000	100.065898
1974.000000	100.014560
1973.000000	99.990682
1972.000000	99.996434
1971.000000	100.013573
1970.000000	100.019709
1969.000000	100.005286
1968.000000	99.987419
1967.000000	99.998276
1966.000000	100.046674
1965.000000	100.101349
1964.000000	100.123702
1963.000000	100.105103
1962.000000	100.065700
1961.000000	100.030696
1960.000000	100.014472
1959.000000	100.018421
1958.000000	100.033443
1957.000000	100.045620
1956.000000	100.046738
1955.000000	100.039031
1954.000000	100.028480
1953.000000	100.018644
1952.000000	100.012505
1951.000000	100.013444
1950.000000	100.020958
1949.000000	100.030614
1948.000000	100.040305
1947.000000	100.050135
1946.000000	100.054348
1945.000000	100.043226
1944.000000	100.018621
1943.000000	100.000702
1942.000000	100.009243
1941.000000	100.040656
1940.000000	100.075574
1939.000000	100.101784
1938.000000	100.117810
1937.000000	100.123793
1936.000000	100.118793
1935.000000	100.104402
1934.000000	100.086368
1933.000000	100.072715
1932.000000	100.070079
1931.000000	100.078500
1930.000000	100.089323
1929.000000	100.092160
1928.000000	100.085272
1927.000000	100.075162
1926.000000	100.066011
1925.000000	100.055923
1924.000000	100.044465
1923.000000	100.036402
1922.000000	100.032953
1921.000000	100.026480
1920.000000	100.010715
1919.000000	99.991095
1918.000000	99.981099
1917.000000	99.988000
1916.000000	100.005769
1915.000000	100.023973
1914.000000	100.035951
1913.000000	100.040553
1912.000000	100.043587
1911.000000	100.053728
1910.000000	100.071772
1909.000000	100.086586
1908.000000	100.086885
1907.000000	100.072898
1906.000000	100.051535
1905.000000	100.027828
1904.000000	100.007047
1903.000000	99.998985
1902.000000	100.012082
1901.000000	100.042478
1900.000000	100.073910
1899.000000	100.090341
1898.000000	100.085881
1897.000000	100.065256
1896.000000	100.040490
1895.000000	100.025180
1894.000000	100.025571
1893.000000	100.035848
1892.000000	100.045022
1891.000000	100.047081
1890.000000	100.043437
1889.000000	100.038575
1888.000000	100.035341
1887.000000	100.035121
1886.000000	100.040071
1885.000000	100.051249
1884.000000	100.064373
1883.000000	100.070469
1882.000000	100.063460
1881.000000	100.047757
1880.000000	100.036385
1879.000000	100.038818
1878.000000	100.051234
1877.000000	100.060855
1876.000000	100.059549
1875.000000	100.050489
1874.000000	100.041948
1873.000000	100.039040
1872.000000	100.042006
1871.000000	100.048243
1870.000000	100.053144
1869.000000	100.052024
1868.000000	100.046268
1867.000000	100.043314
1866.000000	100.047783
1865.000000	100.058362
1864.000000	100.071660
1863.000000	100.084420
1862.000000	100.093426
1861.000000	100.097198
1860.000000	100.098544
1859.000000	100.101459
1858.000000	100.104737
1857.000000	100.102943
1856.000000	100.094871
1855.000000	100.086212
1854.000000	100.081907
1853.000000	100.080480
1852.000000	100.078319
1851.000000	100.076043
1850.000000	100.077420
1849.000000	100.084150
1848.000000	100.094301
1847.000000	100.104004
1846.000000	100.108652
1845.000000	100.104634
1844.000000	100.095209
1843.000000	100.089551
1842.000000	100.089998
1841.000000	100.089865
1840.000000	100.084164
1839.000000	100.075719
1838.000000	100.071429
1837.000000	100.073021
1836.000000	100.074536
1835.000000	100.070497
1834.000000	100.063229
1833.000000	100.060296
1832.000000	100.066405
1831.000000	100.078095
1830.000000	100.084978
1829.000000	100.081709
1828.000000	100.075603
1827.000000	100.075179
1826.000000	100.080013
1825.000000	100.083651
1824.000000	100.082947
1823.000000	100.081546
1822.000000	100.082712
1821.000000	100.085551
1820.000000	100.088840
1819.000000	100.093828
1818.000000	100.101321
1817.000000	100.108107
1816.000000	100.109196
1815.000000	100.102624
1814.000000	100.090829
1813.000000	100.079403
1812.000000	100.075120
1811.000000	100.080414
1810.000000	100.088420
1809.000000	100.088804
1808.000000	100.079076
1807.000000	100.066046
1806.000000	100.057130
1805.000000	100.053670
1804.000000	100.051744
1803.000000	100.045986
1802.000000	100.032540
1801.000000	100.012368
1800.000000	99.992612
1799.000000	99.979849
1798.000000	99.972791
1797.000000	99.965702
1796.000000	99.956756
1795.000000	99.950669
1794.000000	99.954457
1793.000000	99.971780
1792.000000	99.997074
1791.000000	100.017710
1790.000000	100.026473
1789.000000	100.025955
1788.000000	100.022793
1787.000000	100.022760
1786.000000	100.027867
1785.000000	100.035737
1784.000000	100.042854
1783.000000	100.048170
1782.000000	100.052757
1781.000000	100.057951
1780.000000	100.065143
1779.000000	100.074753
1778.000000	100.084652
1777.000000	100.092116
1776.000000	100.097238
1775.000000	100.102128
1774.000000	100.106551
1773.000000	100.105889
1772.000000	100.097681
1771.000000	100.088150
1770.000000	100.083395
1769.000000	100.082126
1768.000000	100.081693
1767.000000	100.082257
1766.000000	100.084357
1765.000000	100.087000
1764.000000	100.089616
1763.000000	100.093248
1762.000000	100.097733
1761.000000	100.099632
1760.000000	100.096837
1759.000000	100.091930
1758.000000	100.088545
1757.000000	100.088337
1756.000000	100.091207
1755.000000	100.096161
1754.000000	100.101245
1753.000000	100.103630
1752.000000	100.101693
1751.000000	100.097659
1750.000000	100.094592
1749.000000	100.091741
1748.000000	100.087769
1747.000000	100.083666
1746.000000	100.079569
1745.000000	100.073682
1744.000000	100.066206
1743.000000	100.060748
1742.000000	100.059416
1741.000000	100.059976
1740.000000	100.060110
1739.000000	100.060834
1738.000000	100.062942
1737.000000	100.064124
1736.000000	100.061151
1735.000000	100.054047
1734.000000	100.048279
1733.000000	100.046192
1732.000000	100.043531
1731.000000	100.039266
1730.000000	100.035012
1729.000000	100.031116
1728.000000	100.029415
1727.000000	100.032661
1726.000000	100.040516
1725.000000	100.048155
1724.000000	100.051230
1723.000000	100.050315
1722.000000	100.047779
1721.000000	100.043417
1720.000000	100.037127
1719.000000	100.033568
1718.000000	100.040612
1717.000000	100.054967
1716.000000	100.061596
1715.000000	100.057430
1714.000000	100.051354
1713.000000	100.047469
1712.000000	100.044256
1711.000000	100.040602
1710.000000	100.037180
1709.000000	100.033782
1708.000000	100.029717
1707.000000	100.026363
1706.000000	100.025501
1705.000000	100.024822
1704.000000	100.019742
1703.000000	100.008448
1702.000000	99.990481
1701.000000	99.969022
1700.000000	99.954297
1699.000000	99.949598
1698.000000	99.946299
1697.000000	99.937648
1696.000000	99.926268
1695.000000	99.919033
1694.000000	99.914667
1693.000000	99.907729
1692.000000	99.897954
1691.000000	99.888114
1690.000000	99.881417
1689.000000	99.878303
1688.000000	99.876148
1687.000000	99.872027
1686.000000	99.863591
1685.000000	99.850050
1684.000000	99.833606
1683.000000	99.816576
1682.000000	99.797951
1681.000000	99.777759
1680.000000	99.759774
1679.000000	99.747345
1678.000000	99.739199
1677.000000	99.729637
1676.000000	99.715021
1675.000000	99.697757
1674.000000	99.681158
1673.000000	99.663649
1672.000000	99.643691
1671.000000	99.623978
1670.000000	99.608606
1669.000000	99.597600
1668.000000	99.587264
1667.000000	99.576028
1666.000000	99.563851
1665.000000	99.549876
1664.000000	99.534564
1663.000000	99.521390
1662.000000	99.512478
1661.000000	99.504885
1660.000000	99.495945
1659.000000	99.486435
1658.000000	99.477283
1657.000000	99.467945
1656.000000	99.458480
1655.000000	99.449735
1654.000000	99.444737
1653.000000	99.443517
1652.000000	99.437573
1651.000000	99.423861
1650.000000	99.408843
1649.000000	99.396661
1648.000000	99.387793
1647.000000	99.388525
1646.000000	99.402835
1645.000000	99.418825
1644.000000	99.426047
1643.000000	99.426928
1642.000000	99.425299
1641.000000	99.421424
1640.000000	99.414785
1639.000000	99.407333
1638.000000	99.401430
1637.000000	99.397975
1636.000000	99.400388
1635.000000	99.412476
1634.000000	99.428163
1633.000000	99.438926
1632.000000	99.443660
1631.000000	99.444013
1630.000000	99.442077
1629.000000	99.441197
1628.000000	99.446114
1627.000000	99.458701
1626.000000	99.474242
1625.000000	99.485730
1624.000000	99.491033
1623.000000	99.494872
1622.000000	99.501849
1621.000000	99.510506
1620.000000	99.519030
1619.000000	99.529431
1618.000000	99.544850
1617.000000	99.565495
1616.000000	99.585283
1615.000000	99.598568
1614.000000	99.606795
1613.000000	99.612977
1612.000000	99.617425
1611.000000	99.619400
1610.000000	99.618730
1609.000000	99.616324
1608.000000	99.614477
1607.000000	99.615970
1606.000000	99.621240
1605.000000	99.627898
1604.000000	99.633776
1603.000000	99.638810
1602.000000	99.643475
1601.000000	99.647174
1600.000000	99.648931
1599.000000	99.648109
1598.000000	99.644063
1597.000000	99.637089
1596.000000	99.630191
1595.000000	99.627800
1594.000000	99.631231
1593.000000	99.636958
1592.000000	99.640461
1591.000000	99.639664
1590.000000	99.634813
1589.000000	99.627991
1588.000000	99.622467
1587.000000	99.619815
1586.000000	99.617446
1585.000000	99.611551
1584.000000	99.602536
1583.000000	99.594447
1582.000000	99.588649
1581.000000	99.582143
1580.000000	99.572778
1579.000000	99.562046
1578.000000	99.552393
1577.000000	99.547591
1576.000000	99.554717
1575.000000	99.572187
1574.000000	99.587002
1573.000000	99.592053
1572.000000	99.588798
1571.000000	99.581905
1570.000000	99.578446
1569.000000	99.581968
1568.000000	99.588435
1567.000000	99.592250
1566.000000	99.591168
1565.000000	99.585402
1564.000000	99.578579
1563.000000	99.574974
1562.000000	99.574658
1561.000000	99.573233
1560.000000	99.570586
1559.000000	99.565618
1558.000000	99.552479
1557.000000	99.533157
1556.000000	99.516393
1555.000000	99.508524
1554.000000	99.505300
1553.000000	99.498112
1552.000000	99.484738
1551.000000	99.470483
1550.000000	99.457791
1549.000000	99.443367
1548.000000	99.424034
1547.000000	99.399580
1546.000000	99.368483
1545.000000	99.327534
1544.000000	99.279149
1543.000000	99.232051
1542.000000	99.191331
1541.000000	99.157184
1540.000000	99.140909
1539.000000	99.147825
1538.000000	99.154614
1537.000000	99.145810
1536.000000	99.127079
1535.000000	99.106345
1534.000000	99.088599
1533.000000	99.072496
1532.000000	99.054979
1531.000000	99.035906
1530.000000	99.015027
1529.000000	98.989376
1528.000000	98.956462
1527.000000	98.918192
1526.000000	98.879711
1525.000000	98.844003
1524.000000	98.810799
1523.000000	98.779046
1522.000000	98.747613
1521.000000	98.716754
1520.000000	98.687068
1519.000000	98.657043
1518.000000	98.623780
1517.000000	98.585338
1516.000000	98.546395
1515.000000	98.513576
1514.000000	98.485511
1513.000000	98.456560
1512.000000	98.423671
1511.000000	98.387188
1510.000000	98.345886
1509.000000	98.296271
1508.000000	98.238725
1507.000000	98.194302
1506.000000	98.177434
1505.000000	98.160546
1504.000000	98.125675
1503.000000	98.081342
1502.000000	98.034307
1501.000000	97.988287
1500.000000	97.946549
1499.000000	97.912938
1498.000000	97.885732
1497.000000	97.858087
1496.000000	97.825029
1495.000000	97.786072
1494.000000	97.741731
1493.000000	97.693616
1492.000000	97.646692
1491.000000	97.608379
1490.000000	97.580461
1489.000000	97.554131
1488.000000	97.522602
1487.000000	97.488941
1486.000000	97.456375
1485.000000	97.423818
1484.000000	97.390578
1483.000000	97.357855
1482.000000	97.325090
1481.000000	97.288506
1480.000000	97.246004
1479.000000	97.199918
1478.000000	97.153643
1477.000000	97.109195
1476.000000	97.067360
1475.000000	97.027700
1474.000000	96.989574
1473.000000	96.956204
1472.000000	96.932053
1471.000000	96.912194
1470.000000	96.886743
1469.000000	96.852276
1468.000000	96.811139
1467.000000	96.767868
1466.000000	96.727733
1465.000000	96.695834
1464.000000	96.671946
1463.000000	96.646832
1462.000000	96.610963
1461.000000	96.562730
1460.000000	96.509351
1459.000000	96.463306
1458.000000	96.437329
1457.000000	96.429677
1456.000000	96.417845
1455.000000	96.388572
1454.000000	96.347944
1453.000000	96.302248
1452.000000	96.253909
1451.000000	96.205848
1450.000000	96.162140
1449.000000	96.126915
1448.000000	96.101565
1447.000000	96.080543
1446.000000	96.054767
1445.000000	96.021985
1444.000000	95.987918
1443.000000	95.958403
1442.000000	95.932967
1441.000000	95.906824
1440.000000	95.877298
1439.000000	95.845860
1438.000000	95.816364
1437.000000	95.793354
1436.000000	95.774856
1435.000000	95.750075
1434.000000	95.713174
1433.000000	95.668820
1432.000000	95.625366
1431.000000	95.588479
1430.000000	95.556658
1429.000000	95.524283
1428.000000	95.488257
1427.000000	95.448143
1426.000000	95.404107
1425.000000	95.358300
1424.000000	95.314394
1423.000000	95.270770
1422.000000	95.220014
1421.000000	95.159292
1420.000000	95.098281
1419.000000	95.051257
1418.000000	95.013941
1417.000000	94.970666
1416.000000	94.920669
1415.000000	94.870698
1414.000000	94.819775
1413.000000	94.762757
1412.000000	94.699972
1411.000000	94.636258
1410.000000	94.571751
1409.000000	94.503181
1408.000000	94.432938
1407.000000	94.368340
1406.000000	94.313176
1405.000000	94.266229
1404.000000	94.225429
1403.000000	94.186621
1402.000000	94.143902
1401.000000	94.097702
1400.000000	94.058164
1399.000000	94.031345
1398.000000	94.006433
1397.000000	93.974475
1396.000000	93.949514
1395.000000	93.951463
1394.000000	93.974163
1393.000000	93.994936
1392.000000	94.008884
1391.000000	94.026343
1390.000000	94.054174
1389.000000	94.098536
1388.000000	94.173199
1387.000000	94.282094
1386.000000	94.400355
1385.000000	94.503718
1384.000000	94.597884
1383.000000	94.699526
1382.000000	94.811765
1381.000000	94.928213
1380.000000	95.047341
1379.000000	95.167827
1378.000000	95.279484
1377.000000	95.376756
1376.000000	95.473643
1375.000000	95.590468
1374.000000	95.725441
1373.000000	95.854933
1372.000000	95.965541
1371.000000	96.064501
1370.000000	96.163016
1369.000000	96.266383
1368.000000	96.372086
1367.000000	96.470523
1366.000000	96.554357
1365.000000	96.630057
1364.000000	96.715511
1363.000000	96.820875
1362.000000	96.933528
1361.000000	97.034561
1360.000000	97.121173
1359.000000	97.198606
1358.000000	97.267127
1357.000000	97.326502
1356.000000	97.381822
1355.000000	97.437735
1354.000000	97.492549
1353.000000	97.543565
1352.000000	97.592382
1351.000000	97.640097
1350.000000	97.683587
1349.000000	97.720973
1348.000000	97.755598
1347.000000	97.790998
1346.000000	97.826582
1345.000000	97.860867
1344.000000	97.893458
1343.000000	97.922116
1342.000000	97.943911
1341.000000	97.961639
1340.000000	97.983655
1339.000000	98.012764
1338.000000	98.041682
1337.000000	98.065550
1336.000000	98.088988
1335.000000	98.117027
1334.000000	98.148393
1333.000000	98.180285
1332.000000	98.213261
1331.000000	98.247455
1330.000000	98.278807
1329.000000	98.303440
1328.000000	98.322573
1327.000000	98.339989
1326.000000	98.357705
1325.000000	98.376432
1324.000000	98.397030
1323.000000	98.418949
1322.000000	98.439721
1321.000000	98.457664
1320.000000	98.473005
1319.000000	98.486047
1318.000000	98.497406
1317.000000	98.510247
1316.000000	98.528340
1315.000000	98.551455
1314.000000	98.575976
1313.000000	98.600181
1312.000000	98.624937
1311.000000	98.648865
1310.000000	98.667716
1309.000000	98.680251
1308.000000	98.690967
1307.000000	98.705238
1306.000000	98.724162
1305.000000	98.745151
1304.000000	98.765157
1303.000000	98.782272
1302.000000	98.796611
1301.000000	98.810236
1300.000000	98.824251
1299.000000	98.836666
1298.000000	98.845508
1297.000000	98.852745
1296.000000	98.861716
1295.000000	98.871707
1294.000000	98.879341
1293.000000	98.884681
1292.000000	98.891432
1291.000000	98.901191
1290.000000	98.911745
1289.000000	98.921445
1288.000000	98.930730
1287.000000	98.938536
1286.000000	98.941795
1285.000000	98.940121
1284.000000	98.937335
1283.000000	98.936802
1282.000000	98.938244
1281.000000	98.940389
1280.000000	98.943886
1279.000000	98.949771
1278.000000	98.957269
1277.000000	98.964809
1276.000000	98.971775
1275.000000	98.978341
1274.000000	98.984840
1273.000000	98.991771
1272.000000	98.999148
1271.000000	99.005844
1270.000000	99.010937
1269.000000	99.015237
1268.000000	99.019987
1267.000000	99.024917
1266.000000	99.029439
1265.000000	99.034533
1264.000000	99.040934
1263.000000	99.046432
1262.000000	99.047930
1261.000000	99.045894
1260.000000	99.043929
1259.000000	99.044238
1258.000000	99.046011
1257.000000	99.047762
1256.000000	99.048650
1255.000000	99.047913
1254.000000	99.045421
1253.000000	99.042173
1252.000000	99.038175
1251.000000	99.031261
1250.000000	99.020670
1249.000000	99.010417
1248.000000	99.005644
1247.000000	99.006019
1246.000000	99.006083
1245.000000	99.001955
1244.000000	98.994617
1243.000000	98.986669
1242.000000	98.979208
1241.000000	98.972610
1240.000000	98.967427
1239.000000	98.963308
1238.000000	98.959053
1237.000000	98.954690
1236.000000	98.952045
1235.000000	98.952849
1234.000000	98.957386
1233.000000	98.964489
1232.000000	98.971609
1231.000000	98.975880
1230.000000	98.977458
1229.000000	98.981211
1228.000000	98.992490
1227.000000	99.011937
1226.000000	99.036475
1225.000000	99.063893
1224.000000	99.092935
1223.000000	99.119588
1222.000000	99.138250
1221.000000	99.147948
1220.000000	99.154210
1219.000000	99.163473
1218.000000	99.177709
1217.000000	99.195075
1216.000000	99.213119
1215.000000	99.229980
1214.000000	99.244209
1213.000000	99.254825
1212.000000	99.260828
1211.000000	99.260896
1210.000000	99.255119
1209.000000	99.246523
1208.000000	99.239219
1207.000000	99.234998
1206.000000	99.232917
1205.000000	99.231727
1204.000000	99.231016
1203.000000	99.230595
1202.000000	99.230990
1201.000000	99.234562
1200.000000	99.243949
1199.000000	99.258894
1198.000000	99.275717
1197.000000	99.290138
1196.000000	99.300044
1195.000000	99.306273
1194.000000	99.311882
1193.000000	99.319447
1192.000000	99.327663
1191.000000	99.331962
1190.000000	99.330501
1189.000000	99.328018
1188.000000	99.331303
1187.000000	99.341754
1186.000000	99.354600
1185.000000	99.364673
1184.000000	99.370269
1183.000000	99.372125
1182.000000	99.371804
1181.000000	99.371125
1180.000000	99.370771
1179.000000	99.369372
1178.000000	99.365875
1177.000000	99.362178
1176.000000	99.361045
1175.000000	99.362087
1174.000000	99.362411
1173.000000	99.361190
1172.000000	99.360893
1171.000000	99.363265
1170.000000	99.366208
1169.000000	99.365575
1168.000000	99.358998
1167.000000	99.347856
1166.000000	99.336561
1165.000000	99.329669
1164.000000	99.328222
1163.000000	99.328791
1162.000000	99.327141
1161.000000	99.322817
1160.000000	99.319260
1159.000000	99.319996
1158.000000	99.325715
1157.000000	99.334393
1156.000000	99.343380
1155.000000	99.351784
1154.000000	99.361377
1153.000000	99.373963
1152.000000	99.387355
1151.000000	99.396159
1150.000000	99.398031
1149.000000	99.396927
1148.000000	99.398097
1147.000000	99.402262
1146.000000	99.407191
1145.000000	99.412412
1144.000000	99.418570
1143.000000	99.423707
1142.000000	99.424736
1141.000000	99.422812
1140.000000	99.423637
1139.000000	99.431334
1138.000000	99.444212
1137.000000	99.457124
1136.000000	99.466188
1135.000000	99.470712
1134.000000	99.472031
1133.000000	99.470994
1132.000000	99.466451
1131.000000	99.456966
1130.000000	99.444471
1129.000000	99.434559
1128.000000	99.431802
1127.000000	99.435821
1126.000000	99.442784
1125.000000	99.449044
1124.000000	99.452238
1123.000000	99.451424
1122.000000	99.448490
1121.000000	99.447546
1120.000000	99.450434
1119.000000	99.454207
1118.000000	99.454909
1117.000000	99.452145
1116.000000	99.448070
1115.000000	99.444235
1114.000000	99.441801
1113.000000	99.442350
1112.000000	99.445477
1111.000000	99.447735
1110.000000	99.447029
1109.000000	99.445708
1108.000000	99.446035
1107.000000	99.445305
1106.000000	99.439838
1105.000000	99.431462
1104.000000	99.425116
1103.000000	99.421811
1102.000000	99.419329
1101.000000	99.418759
1100.000000	99.424058
1099.000000	99.434349
1098.000000	99.442335
1097.000000	99.442336
1096.000000	99.435813
1095.000000	99.427260
1094.000000	99.418568
1093.000000	99.409498
1092.000000	99.400402
1091.000000	99.391713
1090.000000	99.382316
1089.000000	99.370732
1088.000000	99.357382
1087.000000	99.344610
1086.000000	99.334509
1085.000000	99.326539
1084.000000	99.317222
1083.000000	99.303486
1082.000000	99.287391
1081.000000	99.275674
1080.000000	99.272745
1079.000000	99.275711
1078.000000	99.278705
1077.000000	99.280146
1076.000000	99.282498
1075.000000	99.286933
1074.000000	99.292398
1073.000000	99.298977
1072.000000	99.307856
1071.000000	99.317973
1070.000000	99.326542
1069.000000	99.333152
1068.000000	99.339789
1067.000000	99.346522
1066.000000	99.350646
1065.000000	99.350493
1064.000000	99.347167
1063.000000	99.342416
1062.000000	99.337710
1061.000000	99.335312
1060.000000	99.337128
1059.000000	99.342474
1058.000000	99.349698
1057.000000	99.359217
1056.000000	99.371315
1055.000000	99.381838
1054.000000	99.385324
1053.000000	99.383140
1052.000000	99.383670
1051.000000	99.392249
1050.000000	99.404822
1049.000000	99.413796
1048.000000	99.416241
1047.000000	99.414046
1046.000000	99.409947
1045.000000	99.406264
1044.000000	99.404784
1043.000000	99.405324
1042.000000	99.405989
1041.000000	99.406451
1040.000000	99.408869
1039.000000	99.413959
1038.000000	99.418284
1037.000000	99.417377
1036.000000	99.410282
1035.000000	99.399781
1034.000000	99.389730
1033.000000	99.383276
1032.000000	99.382066
1031.000000	99.385511
1030.000000	99.391417
1029.000000	99.398349
1028.000000	99.406698
1027.000000	99.417319
1026.000000	99.430092
1025.000000	99.443646
1024.000000	99.455220
1023.000000	99.461575
1022.000000	99.462369
1021.000000	99.462180
1020.000000	99.466462
1019.000000	99.475590
1018.000000	99.485636
1017.000000	99.495084
1016.000000	99.506728
1015.000000	99.521551
1014.000000	99.534445
1013.000000	99.539064
1012.000000	99.535534
1011.000000	99.531277
1010.000000	99.534776
1009.000000	99.548822
1008.000000	99.568308
1007.000000	99.584351
1006.000000	99.592514
1005.000000	99.597525
1004.000000	99.607940
1003.000000	99.625674
1002.000000	99.643817
1001.000000	99.655564
1000.000000	99.661840
999.000000	99.667977
998.000000	99.676011
997.000000	99.684000
996.000000	99.691155
995.000000	99.699607
994.000000	99.710842
993.000000	99.723270
992.000000	99.734190
991.000000	99.742242
990.000000	99.747660
989.000000	99.751919
988.000000	99.757901
987.000000	99.768702
986.000000	99.784376
985.000000	99.800170
984.000000	99.809437
983.000000	99.808943
982.000000	99.801189
981.000000	99.791593
980.000000	99.783942
979.000000	99.779046
978.000000	99.776714
977.000000	99.777095
976.000000	99.779435
975.000000	99.781098
974.000000	99.779790
973.000000	99.776687
972.000000	99.775553
971.000000	99.778137
970.000000	99.781854
969.000000	99.783676
968.000000	99.785488
967.000000	99.793203
966.000000	99.809643
965.000000	99.829757
964.000000	99.844909
963.000000	99.851139
962.000000	99.851482
961.000000	99.850462
960.000000	99.849383
959.000000	99.848460
958.000000	99.850071
957.000000	99.856450
956.000000	99.865525
955.000000	99.872876
954.000000	99.877563
953.000000	99.882673
952.000000	99.889965
951.000000	99.897554
950.000000	99.903728
949.000000	99.909254
948.000000	99.914296
947.000000	99.916588
946.000000	99.915067
945.000000	99.912129
944.000000	99.909579
943.000000	99.905124
942.000000	99.896482
941.000000	99.887251
940.000000	99.884689
939.000000	99.891864
938.000000	99.904443
937.000000	99.915231
936.000000	99.920071
935.000000	99.919580
934.000000	99.917225
933.000000	99.915923
932.000000	99.915853
931.000000	99.916240
930.000000	99.919009
929.000000	99.928030
928.000000	99.943273
927.000000	99.958475
926.000000	99.967415
925.000000	99.970554
924.000000	99.972934
923.000000	99.977349
922.000000	99.982697
921.000000	99.987532
920.000000	99.991395
919.000000	99.993394
918.000000	99.992812
917.000000	99.991165
916.000000	99.991232
915.000000	99.994507
914.000000	100.001413
913.000000	100.012371
912.000000	100.025468
911.000000	100.034715
910.000000	100.034940
909.000000	100.028335
908.000000	100.022224
907.000000	100.020310
906.000000	100.020276
905.000000	100.020409
904.000000	100.024146
903.000000	100.035558
902.000000	100.053105
901.000000	100.070186
900.000000	100.080798
899.000000	100.084016
898.000000	100.084109
897.000000	100.086711
896.000000	100.093790
895.000000	100.102182
894.000000	100.107616
893.000000	100.108896
892.000000	100.107328
891.000000	100.105035
890.000000	100.105913
889.000000	100.113712
888.000000	100.124041
887.000000	100.120105
886.000000	100.082467
885.000000	100.001411
884.000000	99.873700
883.000000	99.690738
882.000000	99.437229
881.000000	99.103212
880.000000	98.689171
879.000000	98.199475
878.000000	97.640594
877.000000	97.026249
876.000000	96.378687
875.000000	95.729018
874.000000	95.142023
873.000000	94.748071
872.000000	94.720604
871.000000	95.160737
870.000000	95.981976
869.000000	96.937243
868.000000	97.776251
867.000000	98.382094
866.000000	98.776328
865.000000	99.032755
864.000000	99.209542
863.000000	99.340631
862.000000	99.446109
861.000000	99.532085
860.000000	99.592798
859.000000	99.625745
858.000000	99.643990
857.000000	99.667330
856.000000	99.704581
855.000000	99.748953
854.000000	99.787007
853.000000	99.808014
852.000000	99.807383
851.000000	99.788206
850.000000	99.762035
849.000000	99.745022
848.000000	99.749312
847.000000	99.775779
846.000000	99.814334
845.000000	99.851922
844.000000	99.881997
843.000000	99.907547
842.000000	99.934959
841.000000	99.964996
840.000000	99.990927
839.000000	100.005503
838.000000	100.008329
837.000000	100.005343
836.000000	100.002606
835.000000	100.002757
834.000000	100.006360
833.000000	100.013696
832.000000	100.024110
831.000000	100.035438
830.000000	100.045641
829.000000	100.054036
828.000000	100.059910
827.000000	100.061415
826.000000	100.058189
825.000000	100.054259
824.000000	100.054638
823.000000	100.058373
822.000000	100.059155
821.000000	100.055353
820.000000	100.055522
819.000000	100.069068
818.000000	100.092567
817.000000	100.110736
816.000000	100.112360
815.000000	100.101679
814.000000	100.092010
813.000000	100.091124
812.000000	100.096169
811.000000	100.100214
810.000000	100.099523
809.000000	100.095083
808.000000	100.090668
807.000000	100.089968
806.000000	100.093034
805.000000	100.095271
804.000000	100.092298
803.000000	100.085865
802.000000	100.082224
801.000000	100.084352
800.000000	100.088479
799.000000	100.089087
798.000000	100.084862
797.000000	100.078628
796.000000	100.073681
795.000000	100.071606
794.000000	100.072148
793.000000	100.073999
792.000000	100.076728
791.000000	100.082045
790.000000	100.091116
789.000000	100.100497
788.000000	100.103682
787.000000	100.098176
786.000000	100.089043
785.000000	100.083894
784.000000	100.085704
783.000000	100.091437
782.000000	100.095781
781.000000	100.094612
780.000000	100.086706
779.000000	100.074424
778.000000	100.062442
777.000000	100.054417
776.000000	100.051135
775.000000	100.051852
774.000000	100.055384
773.000000	100.059267
772.000000	100.060260
771.000000	100.057364
770.000000	100.052950
769.000000	100.049724
768.000000	100.048508
767.000000	100.050167
766.000000	100.056478
765.000000	100.066217
764.000000	100.073250
763.000000	100.072835
762.000000	100.068707
761.000000	100.069410
760.000000	100.077339
759.000000	100.085290
758.000000	100.084845
757.000000	100.075234
756.000000	100.062807
755.000000	100.054779
754.000000	100.055236
753.000000	100.064564
752.000000	100.079577
751.000000	100.094417
750.000000	100.103376
749.000000	100.104195
748.000000	100.099261
747.000000	100.094097
746.000000	100.093881
745.000000	100.099433
744.000000	100.105958
743.000000	100.106978
742.000000	100.100445
741.000000	100.090676
740.000000	100.084094
739.000000	100.083318
738.000000	100.085145
737.000000	100.083400
736.000000	100.073770
735.000000	100.056924
734.000000	100.037676
733.000000	100.020993
732.000000	100.008941
731.000000	100.001499
730.000000	99.998852
729.000000	100.001100
728.000000	100.006074
727.000000	100.009052
726.000000	100.005278
725.000000	99.993135
724.000000	99.975623
723.000000	99.959022
722.000000	99.948343
721.000000	99.941129
720.000000	99.924539
719.000000	99.879728
718.000000	99.789605
717.000000	99.644715
716.000000	99.449802
715.000000	99.232012
714.000000	99.040751
713.000000	98.929259
712.000000	98.925620
711.000000	99.016358
710.000000	99.157475
709.000000	99.301744
708.000000	99.419643
707.000000	99.503534
706.000000	99.559911
705.000000	99.600069
704.000000	99.633642
703.000000	99.665027
702.000000	99.693244
701.000000	99.715667
700.000000	99.732216
699.000000	99.745269
698.000000	99.755527
697.000000	99.759884
696.000000	99.755600
695.000000	99.746136
694.000000	99.740582
693.000000	99.746186
692.000000	99.762000
691.000000	99.780719
690.000000	99.795823
689.000000	99.805903
688.000000	99.813235
687.000000	99.819773
686.000000	99.824523
685.000000	99.824153
684.000000	99.816313
683.000000	99.802473
682.000000	99.786867
681.000000	99.772318
680.000000	99.758198
679.000000	99.743746
678.000000	99.732286
677.000000	99.729829
676.000000	99.738065
675.000000	99.749859
674.000000	99.755982
673.000000	99.754358
672.000000	99.751232
671.000000	99.754983
670.000000	99.772853
669.000000	99.802416
668.000000	99.816363
667.000000	99.803791
666.000000	99.781191
665.000000	99.755917
664.000000	99.734197
663.000000	99.719979
662.000000	99.710630
661.000000	99.699350
660.000000	99.683366
659.000000	99.669303
658.000000	99.667697
657.000000	99.683015
656.000000	99.709145
655.000000	99.733212
654.000000	99.745768
653.000000	99.747351
652.000000	99.742830
651.000000	99.732965
650.000000	99.716563
649.000000	99.698892
648.000000	99.690629
647.000000	99.696525
646.000000	99.709472
645.000000	99.718714
644.000000	99.719747
643.000000	99.713133
642.000000	99.700277
641.000000	99.685611
640.000000	99.678208
639.000000	99.683383
638.000000	99.694344
637.000000	99.699401
636.000000	99.697241
635.000000	99.698414
634.000000	99.710324
633.000000	99.727217
632.000000	99.736605
631.000000	99.729536
630.000000	99.704041
629.000000	99.666552
628.000000	99.633454
627.000000	99.624415
626.000000	99.645471
625.000000	99.679536
624.000000	99.700253
623.000000	99.694611
622.000000	99.670664
621.000000	99.647192
620.000000	99.639031
619.000000	99.648698
618.000000	99.665967
617.000000	99.676398
616.000000	99.673948
615.000000	99.663352
614.000000	99.650827
613.000000	99.638900
612.000000	99.631030
611.000000	99.632695
610.000000	99.642201
609.000000	99.647432
608.000000	99.639927
607.000000	99.627737
606.000000	99.625135
605.000000	99.633705
604.000000	99.644061
603.000000	99.652797
602.000000	99.664986
601.000000	99.678023
600.000000	99.675854
599.000000	99.646482
598.000000	99.598603
597.000000	99.554359
596.000000	99.531028
595.000000	99.534066
594.000000	99.559613
593.000000	99.597149
592.000000	99.632717
591.000000	99.655567
590.000000	99.664361
589.000000	99.665684
588.000000	99.667502
587.000000	99.674924
586.000000	99.688040
585.000000	99.702039
584.000000	99.712052
583.000000	99.718117
582.000000	99.721593
581.000000	99.717985
580.000000	99.699963
579.000000	99.669107
578.000000	99.637987
577.000000	99.617841
576.000000	99.610560
575.000000	99.613633
574.000000	99.625989
573.000000	99.643942
572.000000	99.656150
571.000000	99.650047
570.000000	99.624637
569.000000	99.594732
568.000000	99.580429
567.000000	99.591748
566.000000	99.620097
565.000000	99.643923
564.000000	99.646596
563.000000	99.630035
562.000000	99.609409
561.000000	99.594431
560.000000	99.581110
559.000000	99.565393
558.000000	99.556316
557.000000	99.567380
556.000000	99.599693
555.000000	99.639770
554.000000	99.672507
553.000000	99.691878
552.000000	99.699095
551.000000	99.695578
550.000000	99.679999
549.000000	99.649964
548.000000	99.607877
547.000000	99.568508
546.000000	99.555621
545.000000	99.581870
544.000000	99.633893
543.000000	99.683851
542.000000	99.713865
541.000000	99.724623
540.000000	99.720887
539.000000	99.699096
538.000000	99.655287
537.000000	99.598780
536.000000	99.549791
535.000000	99.523724
534.000000	99.522696
533.000000	99.540192
532.000000	99.566568
531.000000	99.588333
530.000000	99.592262
529.000000	99.578445
528.000000	99.563639
527.000000	99.566909
526.000000	99.591674
525.000000	99.624029
524.000000	99.649518
523.000000	99.662205
522.000000	99.660526
521.000000	99.649785
520.000000	99.647315
519.000000	99.668985
518.000000	99.704374
517.000000	99.722508
516.000000	99.712289
515.000000	99.695500
514.000000	99.692797
513.000000	99.699661
512.000000	99.704648
511.000000	99.713043
510.000000	99.735881
509.000000	99.764305
508.000000	99.773887
507.000000	99.756375
506.000000	99.732500
505.000000	99.726936
504.000000	99.744961
503.000000	99.775569
502.000000	99.801772
501.000000	99.809571
500.000000	99.800618
499.000000	99.794473
498.000000	99.811223
497.000000	99.850166
496.000000	99.889561
495.000000	99.910700
494.000000	99.915040
493.000000	99.913215
492.000000	99.905032
491.000000	99.878408
490.000000	99.825812
489.000000	99.757883
488.000000	99.700942
487.000000	99.682280
486.000000	99.712322
485.000000	99.775512
484.000000	99.843411
483.000000	99.899120
482.000000	99.941330
481.000000	99.969933
480.000000	99.983152
479.000000	99.987292
478.000000	99.995844
477.000000	100.011773
476.000000	100.019637
475.000000	100.003324
474.000000	99.965102
473.000000	99.925117
472.000000	99.901122
471.000000	99.888622
470.000000	99.870381
469.000000	99.842251
468.000000	99.827333
467.000000	99.857225
466.000000	99.927384
465.000000	99.991614
464.000000	100.010589
463.000000	99.989736
462.000000	99.967170
461.000000	99.970747
460.000000	100.003384
459.000000	100.062622
458.000000	100.136554
457.000000	100.183374
456.000000	100.170674
455.000000	100.123562
454.000000	100.089401
453.000000	100.084039
452.000000	100.085267
451.000000	100.076103
450.000000	100.069371
