PE IR       SUBTECH     SPECTRUM    ASCII       PEDS        4.00        
   -1
AD10-F005_1.ASC
23/09/08
10:50:47.00
23/09/08
11:14:38.00
uco
Sample 005 By uco Date Friday, September 08 2023
450.000000
#HDR
-1
-1
#GR
cm-1
%T
1.0
0.0
4000.000000
-1.000000
3551
8
99.675598
82.031488
#DATA
4000.000000	99.579923
3999.000000	99.579492
3998.000000	99.580502
3997.000000	99.581416
3996.000000	99.590353
3995.000000	99.589608
3994.000000	99.587445
3993.000000	99.585307
3992.000000	99.584044
3991.000000	99.583458
3990.000000	99.582971
3989.000000	99.582275
3988.000000	99.581424
3987.000000	99.580576
3986.000000	99.579845
3985.000000	99.579255
3984.000000	99.578587
3983.000000	99.577268
3982.000000	99.574895
3981.000000	99.572121
3980.000000	99.570625
3979.000000	99.571721
3978.000000	99.574917
3977.000000	99.578059
3976.000000	99.579096
3975.000000	99.577788
3974.000000	99.575586
3973.000000	99.574050
3972.000000	99.573421
3971.000000	99.572700
3970.000000	99.570893
3969.000000	99.568131
3968.000000	99.565715
3967.000000	99.564911
3966.000000	99.565724
3965.000000	99.566844
3964.000000	99.566857
3963.000000	99.565523
3962.000000	99.563877
3961.000000	99.563235
3960.000000	99.564023
3959.000000	99.565727
3958.000000	99.567382
3957.000000	99.567858
3956.000000	99.566312
3955.000000	99.562835
3954.000000	99.558970
3953.000000	99.557024
3952.000000	99.558274
3951.000000	99.561803
3950.000000	99.564955
3949.000000	99.565591
3948.000000	99.564071
3947.000000	99.562861
3946.000000	99.564335
3945.000000	99.568313
3944.000000	99.571383
3943.000000	99.569360
3942.000000	99.561102
3941.000000	99.549966
3940.000000	99.541078
3939.000000	99.537807
3938.000000	99.540327
3937.000000	99.546412
3936.000000	99.553304
3935.000000	99.558623
3934.000000	99.560763
3933.000000	99.559528
3932.000000	99.556312
3931.000000	99.553150
3930.000000	99.551006
3929.000000	99.549937
3928.000000	99.550172
3927.000000	99.551668
3926.000000	99.553706
3925.000000	99.555671
3924.000000	99.557974
3923.000000	99.560851
3922.000000	99.562847
3921.000000	99.561621
3920.000000	99.556770
3919.000000	99.551469
3918.000000	99.550423
3917.000000	99.554953
3916.000000	99.560904
3915.000000	99.562864
3914.000000	99.558958
3913.000000	99.551740
3912.000000	99.545447
3911.000000	99.543227
3910.000000	99.545496
3909.000000	99.550420
3908.000000	99.555741
3907.000000	99.559305
3906.000000	99.558813
3905.000000	99.552585
3904.000000	99.542479
3903.000000	99.534605
3902.000000	99.534477
3901.000000	99.542245
3900.000000	99.553118
3899.000000	99.560806
3898.000000	99.561652
3897.000000	99.556040
3896.000000	99.546484
3895.000000	99.536292
3894.000000	99.528593
3893.000000	99.525687
3892.000000	99.528031
3891.000000	99.533903
3890.000000	99.540447
3889.000000	99.546533
3888.000000	99.552434
3887.000000	99.556372
3886.000000	99.555395
3885.000000	99.550294
3884.000000	99.545775
3883.000000	99.545113
3882.000000	99.546947
3881.000000	99.547035
3880.000000	99.543358
3879.000000	99.538252
3878.000000	99.535854
3877.000000	99.538743
3876.000000	99.545583
3875.000000	99.551209
3874.000000	99.551347
3873.000000	99.547313
3872.000000	99.543704
3871.000000	99.542609
3870.000000	99.542606
3869.000000	99.542614
3868.000000	99.543660
3867.000000	99.546900
3866.000000	99.550630
3865.000000	99.550626
3864.000000	99.544807
3863.000000	99.535837
3862.000000	99.527767
3861.000000	99.522959
3860.000000	99.521754
3859.000000	99.522566
3858.000000	99.523649
3857.000000	99.524803
3856.000000	99.527366
3855.000000	99.531119
3854.000000	99.531400
3853.000000	99.530776
3852.000000	99.534098
3851.000000	99.537821
3850.000000	99.538824
3849.000000	99.538286
3848.000000	99.538513
3847.000000	99.541829
3846.000000	99.548884
3845.000000	99.558125
3844.000000	99.566219
3843.000000	99.569936
3842.000000	99.568414
3841.000000	99.563957
3840.000000	99.559371
3839.000000	99.555683
3838.000000	99.552790
3837.000000	99.550392
3836.000000	99.549059
3835.000000	99.549961
3834.000000	99.553661
3833.000000	99.559429
3832.000000	99.565625
3831.000000	99.570442
3830.000000	99.573021
3829.000000	99.573374
3828.000000	99.571433
3827.000000	99.566867
3826.000000	99.560302
3825.000000	99.554650
3824.000000	99.553517
3823.000000	99.557705
3822.000000	99.561759
3821.000000	99.559551
3820.000000	99.552315
3819.000000	99.544483
3818.000000	99.538622
3817.000000	99.534021
3816.000000	99.530337
3815.000000	99.529951
3814.000000	99.534259
3813.000000	99.541438
3812.000000	99.548534
3811.000000	99.554440
3810.000000	99.560088
3809.000000	99.566159
3808.000000	99.570548
3807.000000	99.570893
3806.000000	99.568524
3805.000000	99.567332
3804.000000	99.569414
3803.000000	99.573165
3802.000000	99.574258
3801.000000	99.571658
3800.000000	99.567450
3799.000000	99.562945
3798.000000	99.557635
3797.000000	99.550915
3796.000000	99.544425
3795.000000	99.541438
3794.000000	99.543171
3793.000000	99.547537
3792.000000	99.551543
3791.000000	99.553865
3790.000000	99.554956
3789.000000	99.555622
3788.000000	99.556457
3787.000000	99.558140
3786.000000	99.561558
3785.000000	99.566979
3784.000000	99.573172
3783.000000	99.577933
3782.000000	99.579275
3781.000000	99.575898
3780.000000	99.568144
3779.000000	99.559761
3778.000000	99.555348
3777.000000	99.556169
3776.000000	99.559869
3775.000000	99.562981
3774.000000	99.563029
3773.000000	99.559551
3772.000000	99.553737
3771.000000	99.547800
3770.000000	99.544744
3769.000000	99.546379
3768.000000	99.551571
3767.000000	99.557401
3766.000000	99.561419
3765.000000	99.562386
3764.000000	99.560483
3763.000000	99.557278
3762.000000	99.554349
3761.000000	99.551866
3760.000000	99.548901
3759.000000	99.545339
3758.000000	99.541672
3757.000000	99.538467
3756.000000	99.537218
3755.000000	99.539867
3754.000000	99.546120
3753.000000	99.551885
3752.000000	99.552011
3751.000000	99.546615
3750.000000	99.541330
3749.000000	99.538669
3748.000000	99.538460
3747.000000	99.541946
3746.000000	99.549520
3745.000000	99.557739
3744.000000	99.564018
3743.000000	99.568697
3742.000000	99.572403
3741.000000	99.575557
3740.000000	99.579031
3739.000000	99.583202
3738.000000	99.586216
3737.000000	99.583372
3736.000000	99.574963
3735.000000	99.569952
3734.000000	99.572544
3733.000000	99.575517
3732.000000	99.572116
3731.000000	99.563574
3730.000000	99.555027
3729.000000	99.550271
3728.000000	99.550955
3727.000000	99.556864
3726.000000	99.565562
3725.000000	99.572043
3724.000000	99.571351
3723.000000	99.563160
3722.000000	99.552752
3721.000000	99.547190
3720.000000	99.549212
3719.000000	99.555356
3718.000000	99.559895
3717.000000	99.560134
3716.000000	99.558746
3715.000000	99.560088
3714.000000	99.563962
3713.000000	99.564152
3712.000000	99.555316
3711.000000	99.542755
3710.000000	99.537392
3709.000000	99.543028
3708.000000	99.555645
3707.000000	99.569098
3706.000000	99.579370
3705.000000	99.586153
3704.000000	99.590833
3703.000000	99.593337
3702.000000	99.591891
3701.000000	99.586069
3700.000000	99.578721
3699.000000	99.573861
3698.000000	99.573220
3697.000000	99.574617
3696.000000	99.573931
3695.000000	99.568796
3694.000000	99.560645
3693.000000	99.554244
3692.000000	99.554555
3691.000000	99.563229
3690.000000	99.576115
3689.000000	99.585771
3688.000000	99.587334
3687.000000	99.581890
3686.000000	99.574847
3685.000000	99.570292
3684.000000	99.568830
3683.000000	99.569319
3682.000000	99.570690
3681.000000	99.571497
3680.000000	99.570251
3679.000000	99.567407
3678.000000	99.565350
3677.000000	99.565575
3676.000000	99.566288
3675.000000	99.566182
3674.000000	99.563188
3673.000000	99.556978
3672.000000	99.549650
3671.000000	99.543127
3670.000000	99.539743
3669.000000	99.542233
3668.000000	99.548801
3667.000000	99.555794
3666.000000	99.561487
3665.000000	99.565373
3664.000000	99.567144
3663.000000	99.566930
3662.000000	99.565232
3661.000000	99.562778
3660.000000	99.560983
3659.000000	99.561277
3658.000000	99.563597
3657.000000	99.565545
3656.000000	99.564664
3655.000000	99.560997
3654.000000	99.556574
3653.000000	99.553660
3652.000000	99.552240
3651.000000	99.548995
3650.000000	99.541316
3649.000000	99.533320
3648.000000	99.529318
3647.000000	99.527117
3646.000000	99.524328
3645.000000	99.521810
3644.000000	99.520682
3643.000000	99.520835
3642.000000	99.521771
3641.000000	99.523367
3640.000000	99.525670
3639.000000	99.527856
3638.000000	99.528588
3637.000000	99.527605
3636.000000	99.525888
3635.000000	99.524032
3634.000000	99.521220
3633.000000	99.516627
3632.000000	99.510943
3631.000000	99.506046
3630.000000	99.503433
3629.000000	99.505614
3628.000000	99.513754
3627.000000	99.521596
3626.000000	99.524889
3625.000000	99.525398
3624.000000	99.526837
3623.000000	99.531808
3622.000000	99.540526
3621.000000	99.549999
3620.000000	99.554947
3619.000000	99.551704
3618.000000	99.541324
3617.000000	99.527735
3616.000000	99.515061
3615.000000	99.505342
3614.000000	99.497530
3613.000000	99.489188
3612.000000	99.479310
3611.000000	99.469083
3610.000000	99.460171
3609.000000	99.454330
3608.000000	99.453367
3607.000000	99.457020
3606.000000	99.462231
3605.000000	99.466062
3604.000000	99.468592
3603.000000	99.471615
3602.000000	99.476242
3601.000000	99.481495
3600.000000	99.484976
3599.000000	99.484825
3598.000000	99.480746
3597.000000	99.473287
3596.000000	99.463487
3595.000000	99.454079
3594.000000	99.449259
3593.000000	99.451544
3592.000000	99.458582
3591.000000	99.465244
3590.000000	99.467161
3589.000000	99.463300
3588.000000	99.457090
3587.000000	99.453791
3586.000000	99.452786
3585.000000	99.449219
3584.000000	99.441560
3583.000000	99.431713
3582.000000	99.421962
3581.000000	99.413628
3580.000000	99.407025
3579.000000	99.401938
3578.000000	99.397842
3577.000000	99.394435
3576.000000	99.391767
3575.000000	99.390534
3574.000000	99.391728
3573.000000	99.396018
3572.000000	99.403129
3571.000000	99.411563
3570.000000	99.418645
3569.000000	99.420696
3568.000000	99.415767
3567.000000	99.407362
3566.000000	99.401094
3565.000000	99.397861
3564.000000	99.396213
3563.000000	99.395582
3562.000000	99.395643
3561.000000	99.396039
3560.000000	99.396866
3559.000000	99.398076
3558.000000	99.398605
3557.000000	99.396679
3556.000000	99.391204
3555.000000	99.382514
3554.000000	99.372055
3553.000000	99.361778
3552.000000	99.353579
3551.000000	99.348002
3550.000000	99.343530
3549.000000	99.337774
3548.000000	99.329536
3547.000000	99.320479
3546.000000	99.314464
3545.000000	99.313971
3544.000000	99.317432
3543.000000	99.320955
3542.000000	99.321415
3541.000000	99.318378
3540.000000	99.314155
3539.000000	99.311803
3538.000000	99.312394
3537.000000	99.313844
3536.000000	99.313197
3535.000000	99.309795
3534.000000	99.305838
3533.000000	99.304108
3532.000000	99.305549
3531.000000	99.308751
3530.000000	99.311019
3529.000000	99.310344
3528.000000	99.307000
3527.000000	99.303321
3526.000000	99.301460
3525.000000	99.301484
3524.000000	99.301390
3523.000000	99.298889
3522.000000	99.293450
3521.000000	99.286835
3520.000000	99.281497
3519.000000	99.277983
3518.000000	99.274336
3517.000000	99.268474
3516.000000	99.261129
3515.000000	99.255659
3514.000000	99.254841
3513.000000	99.258544
3512.000000	99.264506
3511.000000	99.270376
3510.000000	99.274539
3509.000000	99.275805
3508.000000	99.273618
3507.000000	99.268686
3506.000000	99.262741
3505.000000	99.257340
3504.000000	99.253422
3503.000000	99.251342
3502.000000	99.250407
3501.000000	99.248920
3500.000000	99.245633
3499.000000	99.241091
3498.000000	99.237175
3497.000000	99.235412
3496.000000	99.235316
3495.000000	99.234489
3494.000000	99.230642
3493.000000	99.223753
3492.000000	99.216049
3491.000000	99.209783
3490.000000	99.205315
3489.000000	99.201677
3488.000000	99.198692
3487.000000	99.197551
3486.000000	99.198881
3485.000000	99.200950
3484.000000	99.200648
3483.000000	99.196390
3482.000000	99.189970
3481.000000	99.185016
3480.000000	99.183416
3479.000000	99.183548
3478.000000	99.182194
3477.000000	99.177721
3476.000000	99.171147
3475.000000	99.164513
3474.000000	99.158926
3473.000000	99.154774
3472.000000	99.153058
3471.000000	99.154993
3470.000000	99.159807
3469.000000	99.163993
3468.000000	99.163722
3467.000000	99.158336
3466.000000	99.151410
3465.000000	99.148212
3464.000000	99.151797
3463.000000	99.160725
3462.000000	99.170205
3461.000000	99.175729
3460.000000	99.175957
3459.000000	99.172386
3458.000000	99.167036
3457.000000	99.161145
3456.000000	99.155690
3455.000000	99.151582
3454.000000	99.148742
3453.000000	99.145714
3452.000000	99.140836
3451.000000	99.133697
3450.000000	99.125143
3449.000000	99.116657
3448.000000	99.110267
3447.000000	99.107897
3446.000000	99.109213
3445.000000	99.111007
3444.000000	99.110140
3443.000000	99.106787
3442.000000	99.103931
3441.000000	99.103725
3440.000000	99.105318
3439.000000	99.106326
3438.000000	99.105496
3437.000000	99.103487
3436.000000	99.101935
3435.000000	99.102152
3434.000000	99.104088
3433.000000	99.105899
3432.000000	99.104765
3431.000000	99.098949
3430.000000	99.089233
3429.000000	99.078613
3428.000000	99.070678
3427.000000	99.067728
3426.000000	99.069420
3425.000000	99.072712
3424.000000	99.073681
3423.000000	99.070126
3422.000000	99.062869
3421.000000	99.054902
3420.000000	99.049221
3419.000000	99.046959
3418.000000	99.046976
3417.000000	99.047109
3416.000000	99.045980
3415.000000	99.043748
3414.000000	99.041109
3413.000000	99.037985
3412.000000	99.033804
3411.000000	99.028850
3410.000000	99.024601
3409.000000	99.022597
3408.000000	99.023350
3407.000000	99.026169
3406.000000	99.029425
3405.000000	99.030950
3404.000000	99.029136
3403.000000	99.024177
3402.000000	99.017999
3401.000000	99.012680
3400.000000	99.009063
3399.000000	99.006866
3398.000000	99.005530
3397.000000	99.004507
3396.000000	99.003064
3395.000000	99.000543
3394.000000	98.997090
3393.000000	98.993866
3392.000000	98.992194
3391.000000	98.992361
3390.000000	98.993314
3389.000000	98.993346
3388.000000	98.990915
3387.000000	98.985206
3386.000000	98.976661
3385.000000	98.967201
3384.000000	98.959338
3383.000000	98.954445
3382.000000	98.952025
3381.000000	98.950916
3380.000000	98.950750
3379.000000	98.951703
3378.000000	98.953151
3377.000000	98.953591
3376.000000	98.952064
3375.000000	98.949054
3374.000000	98.945758
3373.000000	98.942916
3372.000000	98.940478
3371.000000	98.937842
3370.000000	98.934176
3369.000000	98.929050
3368.000000	98.923291
3367.000000	98.918819
3366.000000	98.916967
3365.000000	98.917023
3364.000000	98.916886
3363.000000	98.915086
3362.000000	98.911870
3361.000000	98.908456
3360.000000	98.905646
3359.000000	98.903226
3358.000000	98.900416
3357.000000	98.896637
3356.000000	98.891806
3355.000000	98.886010
3354.000000	98.879216
3353.000000	98.871653
3352.000000	98.864393
3351.000000	98.858960
3350.000000	98.856034
3349.000000	98.854810
3348.000000	98.853908
3347.000000	98.852676
3346.000000	98.851415
3345.000000	98.850555
3344.000000	98.849989
3343.000000	98.849188
3342.000000	98.847652
3341.000000	98.845271
3340.000000	98.842421
3339.000000	98.839758
3338.000000	98.837786
3337.000000	98.836441
3336.000000	98.834877
3335.000000	98.831622
3334.000000	98.825454
3333.000000	98.816744
3332.000000	98.807926
3331.000000	98.801850
3330.000000	98.799230
3329.000000	98.798016
3328.000000	98.795637
3327.000000	98.791502
3326.000000	98.787049
3325.000000	98.783790
3324.000000	98.781963
3323.000000	98.781030
3322.000000	98.780782
3321.000000	98.781761
3320.000000	98.784741
3319.000000	98.789661
3318.000000	98.794792
3317.000000	98.797208
3316.000000	98.794729
3315.000000	98.787797
3314.000000	98.779266
3313.000000	98.772108
3312.000000	98.767329
3311.000000	98.764047
3310.000000	98.761355
3309.000000	98.759703
3308.000000	98.760112
3307.000000	98.762128
3306.000000	98.763198
3305.000000	98.760559
3304.000000	98.753648
3303.000000	98.744311
3302.000000	98.734898
3301.000000	98.726855
3300.000000	98.721272
3299.000000	98.719561
3298.000000	98.722446
3297.000000	98.728513
3296.000000	98.734672
3295.000000	98.738430
3294.000000	98.739488
3293.000000	98.739118
3292.000000	98.738455
3291.000000	98.737530
3290.000000	98.735662
3289.000000	98.732558
3288.000000	98.728976
3287.000000	98.726334
3286.000000	98.725628
3285.000000	98.726736
3284.000000	98.728579
3283.000000	98.729759
3282.000000	98.729219
3281.000000	98.726829
3280.000000	98.723636
3279.000000	98.721197
3278.000000	98.720328
3277.000000	98.720532
3276.000000	98.720688
3275.000000	98.720015
3274.000000	98.718256
3273.000000	98.715565
3272.000000	98.712752
3271.000000	98.711217
3270.000000	98.711770
3269.000000	98.713394
3268.000000	98.713806
3267.000000	98.711690
3266.000000	98.708319
3265.000000	98.706792
3264.000000	98.709437
3263.000000	98.715880
3262.000000	98.723492
3261.000000	98.729699
3260.000000	98.733912
3259.000000	98.737146
3258.000000	98.740085
3257.000000	98.741958
3256.000000	98.741498
3255.000000	98.738702
3254.000000	98.735405
3253.000000	98.734134
3252.000000	98.736411
3251.000000	98.741771
3250.000000	98.747960
3249.000000	98.752354
3248.000000	98.753801
3247.000000	98.753380
3246.000000	98.753205
3245.000000	98.754176
3244.000000	98.754852
3243.000000	98.752791
3242.000000	98.747195
3241.000000	98.740442
3240.000000	98.736785
3239.000000	98.738959
3238.000000	98.745809
3237.000000	98.753357
3236.000000	98.758416
3235.000000	98.760929
3234.000000	98.762648
3233.000000	98.764226
3232.000000	98.764510
3231.000000	98.762925
3230.000000	98.761521
3229.000000	98.763416
3228.000000	98.768937
3227.000000	98.774019
3226.000000	98.773640
3225.000000	98.766966
3224.000000	98.758594
3223.000000	98.754390
3222.000000	98.756305
3221.000000	98.761483
3220.000000	98.765540
3219.000000	98.766007
3218.000000	98.763217
3217.000000	98.759470
3216.000000	98.758049
3215.000000	98.761688
3214.000000	98.770257
3213.000000	98.779853
3212.000000	98.785253
3211.000000	98.783974
3210.000000	98.777955
3209.000000	98.771435
3208.000000	98.767793
3207.000000	98.768185
3206.000000	98.772110
3205.000000	98.778199
3204.000000	98.784571
3203.000000	98.789465
3202.000000	98.792097
3201.000000	98.792801
3200.000000	98.792320
3199.000000	98.791116
3198.000000	98.789293
3197.000000	98.786581
3196.000000	98.782196
3195.000000	98.775430
3194.000000	98.767149
3193.000000	98.760455
3192.000000	98.758886
3191.000000	98.763430
3190.000000	98.771674
3189.000000	98.780084
3188.000000	98.786691
3187.000000	98.791339
3186.000000	98.794184
3185.000000	98.795012
3184.000000	98.794118
3183.000000	98.792989
3182.000000	98.793478
3181.000000	98.796280
3180.000000	98.800392
3179.000000	98.804052
3178.000000	98.806273
3177.000000	98.807597
3176.000000	98.809459
3175.000000	98.812787
3174.000000	98.817167
3173.000000	98.821103
3172.000000	98.822880
3171.000000	98.821511
3170.000000	98.817519
3169.000000	98.813141
3168.000000	98.811185
3167.000000	98.812985
3166.000000	98.817536
3165.000000	98.822856
3164.000000	98.828022
3163.000000	98.833436
3162.000000	98.839448
3161.000000	98.845326
3160.000000	98.849580
3159.000000	98.850809
3158.000000	98.848472
3157.000000	98.843715
3156.000000	98.839594
3155.000000	98.839324
3154.000000	98.843495
3153.000000	98.849469
3152.000000	98.854253
3151.000000	98.857479
3150.000000	98.860725
3149.000000	98.864292
3148.000000	98.866037
3147.000000	98.863921
3146.000000	98.858961
3145.000000	98.854942
3144.000000	98.855367
3143.000000	98.860747
3142.000000	98.868487
3141.000000	98.874972
3140.000000	98.878138
3139.000000	98.878731
3138.000000	98.879390
3137.000000	98.882201
3136.000000	98.886840
3135.000000	98.890873
3134.000000	98.891854
3133.000000	98.889202
3132.000000	98.884469
3131.000000	98.880271
3130.000000	98.878959
3129.000000	98.881522
3128.000000	98.886974
3127.000000	98.892769
3126.000000	98.896469
3125.000000	98.897563
3124.000000	98.897840
3123.000000	98.899822
3122.000000	98.904474
3121.000000	98.910025
3120.000000	98.913089
3119.000000	98.911342
3118.000000	98.905533
3117.000000	98.899081
3116.000000	98.895694
3115.000000	98.897072
3114.000000	98.902365
3113.000000	98.908960
3112.000000	98.913631
3111.000000	98.913937
3110.000000	98.909826
3109.000000	98.904127
3108.000000	98.900790
3107.000000	98.901970
3106.000000	98.906480
3105.000000	98.910882
3104.000000	98.912126
3103.000000	98.909591
3102.000000	98.905228
3101.000000	98.901797
3100.000000	98.900524
3099.000000	98.900215
3098.000000	98.898724
3097.000000	98.895355
3096.000000	98.891700
3095.000000	98.890235
3094.000000	98.892204
3093.000000	98.896701
3092.000000	98.901351
3091.000000	98.903844
3090.000000	98.903482
3089.000000	98.901551
3088.000000	98.899880
3087.000000	98.898859
3086.000000	98.897298
3085.000000	98.894333
3084.000000	98.890821
3083.000000	98.888285
3082.000000	98.887091
3081.000000	98.886439
3080.000000	98.885928
3079.000000	98.886235
3078.000000	98.888108
3077.000000	98.891237
3076.000000	98.894310
3075.000000	98.895786
3074.000000	98.894692
3073.000000	98.891378
3072.000000	98.887871
3071.000000	98.886924
3070.000000	98.889850
3069.000000	98.894930
3068.000000	98.898235
3067.000000	98.896521
3066.000000	98.889911
3065.000000	98.882053
3064.000000	98.877366
3063.000000	98.877737
3062.000000	98.881509
3061.000000	98.885346
3060.000000	98.886938
3059.000000	98.886266
3058.000000	98.885208
3057.000000	98.886217
3056.000000	98.890604
3055.000000	98.897363
3054.000000	98.903758
3053.000000	98.907649
3052.000000	98.909127
3051.000000	98.909820
3050.000000	98.911147
3049.000000	98.913643
3048.000000	98.917263
3047.000000	98.921234
3046.000000	98.923892
3045.000000	98.923839
3044.000000	98.921550
3043.000000	98.919153
3042.000000	98.918454
3041.000000	98.919718
3040.000000	98.922414
3039.000000	98.926153
3038.000000	98.930436
3037.000000	98.934070
3036.000000	98.935543
3035.000000	98.934079
3034.000000	98.930336
3033.000000	98.926232
3032.000000	98.923894
3031.000000	98.924123
3030.000000	98.925821
3029.000000	98.927420
3028.000000	98.928688
3027.000000	98.930491
3026.000000	98.932799
3025.000000	98.933846
3024.000000	98.931781
3023.000000	98.926804
3022.000000	98.921384
3021.000000	98.918783
3020.000000	98.921336
3019.000000	98.929090
3018.000000	98.939124
3017.000000	98.946574
3016.000000	98.947629
3015.000000	98.942358
3014.000000	98.934663
3013.000000	98.929101
3012.000000	98.927333
3011.000000	98.927143
3010.000000	98.924852
3009.000000	98.918896
3008.000000	98.911148
3007.000000	98.904761
3006.000000	98.900979
3005.000000	98.898390
3004.000000	98.895114
3003.000000	98.891094
3002.000000	98.888062
3001.000000	98.887759
3000.000000	98.890454
2999.000000	98.894794
2998.000000	98.898732
2997.000000	98.900765
2996.000000	98.900558
2995.000000	98.898357
2994.000000	98.893871
2993.000000	98.886061
2992.000000	98.874306
2991.000000	98.859744
2990.000000	98.845387
2989.000000	98.834622
2988.000000	98.829046
2987.000000	98.827226
2986.000000	98.825544
2985.000000	98.820538
2984.000000	98.810539
2983.000000	98.795697
2982.000000	98.777500
2981.000000	98.758617
2980.000000	98.741902
2979.000000	98.728098
2978.000000	98.714780
2977.000000	98.698742
2976.000000	98.679334
2975.000000	98.658450
2974.000000	98.637410
2973.000000	98.615412
2972.000000	98.591489
2971.000000	98.566412
2970.000000	98.541527
2969.000000	98.516662
2968.000000	98.490584
2967.000000	98.463105
2966.000000	98.435336
2965.000000	98.407746
2964.000000	98.379203
2963.000000	98.348721
2962.000000	98.317429
2961.000000	98.287805
2960.000000	98.261023
2959.000000	98.236015
2958.000000	98.211803
2957.000000	98.190010
2956.000000	98.173981
2955.000000	98.165228
2954.000000	98.161733
2953.000000	98.160308
2952.000000	98.159655
2951.000000	98.160338
2950.000000	98.162169
2949.000000	98.162867
2948.000000	98.159326
2947.000000	98.149461
2946.000000	98.132818
2945.000000	98.110154
2944.000000	98.082880
2943.000000	98.052153
2942.000000	98.017869
2941.000000	97.978465
2940.000000	97.931984
2939.000000	97.877569
2938.000000	97.816232
2937.000000	97.750578
2936.000000	97.683349
2935.000000	97.615683
2934.000000	97.546612
2933.000000	97.474296
2932.000000	97.397646
2931.000000	97.316733
2930.000000	97.232515
2929.000000	97.146791
2928.000000	97.062067
2927.000000	96.980729
2926.000000	96.904388
2925.000000	96.834425
2924.000000	96.772402
2923.000000	96.719376
2922.000000	96.675623
2921.000000	96.642496
2920.000000	96.624736
2919.000000	96.629334
2918.000000	96.661585
2917.000000	96.722413
2916.000000	96.808904
2915.000000	96.915960
2914.000000	97.036692
2913.000000	97.162806
2912.000000	97.286105
2911.000000	97.400357
2910.000000	97.501598
2909.000000	97.587583
2908.000000	97.658075
2907.000000	97.715505
2906.000000	97.764485
2905.000000	97.809649
2904.000000	97.853517
2903.000000	97.895605
2902.000000	97.933957
2901.000000	97.967195
2900.000000	97.996222
2899.000000	98.023761
2898.000000	98.052028
2897.000000	98.081198
2896.000000	98.109716
2895.000000	98.135740
2894.000000	98.158324
2893.000000	98.177798
2892.000000	98.195434
2891.000000	98.212746
2890.000000	98.230925
2889.000000	98.250645
2888.000000	98.271576
2887.000000	98.291593
2886.000000	98.307392
2885.000000	98.317231
2884.000000	98.323186
2883.000000	98.329517
2882.000000	98.338430
2881.000000	98.348224
2880.000000	98.355627
2879.000000	98.358802
2878.000000	98.357565
2877.000000	98.352043
2876.000000	98.342523
2875.000000	98.330304
2874.000000	98.317506
2873.000000	98.305681
2872.000000	98.295099
2871.000000	98.285520
2870.000000	98.277202
2869.000000	98.270712
2868.000000	98.265604
2867.000000	98.259396
2866.000000	98.248337
2865.000000	98.229812
2864.000000	98.203753
2863.000000	98.171321
2862.000000	98.132560
2861.000000	98.086334
2860.000000	98.032291
2859.000000	97.971178
2858.000000	97.902871
2857.000000	97.826042
2856.000000	97.741462
2855.000000	97.654702
2854.000000	97.574265
2853.000000	97.507227
2852.000000	97.458327
2851.000000	97.433395
2850.000000	97.441054
2849.000000	97.488745
2848.000000	97.576076
2847.000000	97.692588
2846.000000	97.822518
2845.000000	97.952173
2844.000000	98.073292
2843.000000	98.181608
2842.000000	98.274557
2841.000000	98.351283
2840.000000	98.413918
2839.000000	98.466499
2838.000000	98.512128
2837.000000	98.551921
2836.000000	98.586518
2835.000000	98.617203
2834.000000	98.644879
2833.000000	98.669162
2832.000000	98.689556
2831.000000	98.706875
2830.000000	98.722421
2829.000000	98.736345
2828.000000	98.747797
2827.000000	98.756463
2826.000000	98.763090
2825.000000	98.768600
2824.000000	98.773676
2823.000000	98.779368
2822.000000	98.787268
2821.000000	98.798394
2820.000000	98.811912
2819.000000	98.825200
2818.000000	98.835422
2817.000000	98.841436
2816.000000	98.844426
2815.000000	98.846599
2814.000000	98.849187
2813.000000	98.851963
2812.000000	98.854518
2811.000000	98.857295
2810.000000	98.860928
2809.000000	98.865102
2808.000000	98.868765
2807.000000	98.871369
2806.000000	98.873472
2805.000000	98.876168
2804.000000	98.880153
2803.000000	98.885123
2802.000000	98.889845
2801.000000	98.893046
2800.000000	98.894551
2799.000000	98.895389
2798.000000	98.896639
2797.000000	98.898520
2796.000000	98.900717
2795.000000	98.903007
2794.000000	98.905082
2793.000000	98.906448
2792.000000	98.907298
2791.000000	98.909114
2790.000000	98.913373
2789.000000	98.919552
2788.000000	98.925189
2787.000000	98.928218
2786.000000	98.928748
2785.000000	98.928388
2784.000000	98.928456
2783.000000	98.929307
2782.000000	98.930907
2781.000000	98.933219
2780.000000	98.935895
2779.000000	98.938130
2778.000000	98.939270
2777.000000	98.939440
2776.000000	98.939357
2775.000000	98.939671
2774.000000	98.940817
2773.000000	98.943409
2772.000000	98.948043
2771.000000	98.954264
2770.000000	98.960248
2769.000000	98.964251
2768.000000	98.966265
2767.000000	98.967698
2766.000000	98.969570
2765.000000	98.971691
2764.000000	98.973596
2763.000000	98.975432
2762.000000	98.977543
2761.000000	98.979699
2760.000000	98.981166
2759.000000	98.981390
2758.000000	98.980549
2757.000000	98.979697
2756.000000	98.980262
2755.000000	98.982886
2754.000000	98.986596
2753.000000	98.989494
2752.000000	98.990350
2751.000000	98.989216
2750.000000	98.986742
2749.000000	98.983743
2748.000000	98.981496
2747.000000	98.981353
2746.000000	98.983279
2745.000000	98.985249
2744.000000	98.984854
2743.000000	98.981542
2742.000000	98.977035
2741.000000	98.973795
2740.000000	98.973229
2739.000000	98.975024
2738.000000	98.977873
2737.000000	98.980977
2736.000000	98.984842
2735.000000	98.990214
2734.000000	98.996321
2733.000000	99.000977
2732.000000	99.002874
2731.000000	99.003074
2730.000000	99.003565
2729.000000	99.004799
2728.000000	99.005464
2727.000000	99.004611
2726.000000	99.003225
2725.000000	99.003379
2724.000000	99.006115
2723.000000	99.010359
2722.000000	99.013883
2721.000000	99.015236
2720.000000	99.014716
2719.000000	99.013511
2718.000000	99.012328
2717.000000	99.011331
2716.000000	99.011016
2715.000000	99.012218
2714.000000	99.015067
2713.000000	99.018648
2712.000000	99.021942
2711.000000	99.024449
2710.000000	99.025701
2709.000000	99.025181
2708.000000	99.023460
2707.000000	99.022783
2706.000000	99.025417
2705.000000	99.031295
2704.000000	99.037782
2703.000000	99.041837
2702.000000	99.042317
2701.000000	99.040578
2700.000000	99.039244
2699.000000	99.040069
2698.000000	99.042482
2697.000000	99.044180
2696.000000	99.043423
2695.000000	99.040698
2694.000000	99.038063
2693.000000	99.037218
2692.000000	99.038323
2691.000000	99.040080
2690.000000	99.040539
2689.000000	99.038345
2688.000000	99.033988
2687.000000	99.029829
2686.000000	99.028338
2685.000000	99.030117
2684.000000	99.033619
2683.000000	99.036489
2682.000000	99.036967
2681.000000	99.034572
2680.000000	99.030317
2679.000000	99.026321
2678.000000	99.024568
2677.000000	99.025580
2676.000000	99.028326
2675.000000	99.031379
2674.000000	99.034023
2673.000000	99.036358
2672.000000	99.038698
2671.000000	99.041001
2670.000000	99.042758
2669.000000	99.043378
2668.000000	99.042676
2667.000000	99.040916
2666.000000	99.038326
2665.000000	99.034845
2664.000000	99.030542
2663.000000	99.026183
2662.000000	99.023045
2661.000000	99.021963
2660.000000	99.022502
2659.000000	99.023222
2658.000000	99.023180
2657.000000	99.023326
2656.000000	99.026040
2655.000000	99.032671
2654.000000	99.041641
2653.000000	99.049568
2652.000000	99.054248
2651.000000	99.055931
2650.000000	99.055841
2649.000000	99.054614
2648.000000	99.052668
2647.000000	99.050987
2646.000000	99.050401
2645.000000	99.050614
2644.000000	99.051213
2643.000000	99.053377
2642.000000	99.059111
2641.000000	99.068286
2640.000000	99.077439
2639.000000	99.082495
2638.000000	99.082451
2637.000000	99.079822
2636.000000	99.077789
2635.000000	99.077621
2634.000000	99.078812
2633.000000	99.080701
2632.000000	99.083239
2631.000000	99.086468
2630.000000	99.090044
2629.000000	99.093563
2628.000000	99.097002
2627.000000	99.100591
2626.000000	99.104336
2625.000000	99.107759
2624.000000	99.110008
2623.000000	99.110362
2622.000000	99.108970
2621.000000	99.106949
2620.000000	99.105273
2619.000000	99.103681
2618.000000	99.101351
2617.000000	99.098610
2616.000000	99.097042
2615.000000	99.097815
2614.000000	99.100988
2613.000000	99.106533
2612.000000	99.114208
2611.000000	99.121388
2610.000000	99.123148
2609.000000	99.116967
2608.000000	99.106725
2607.000000	99.099740
2606.000000	99.099721
2605.000000	99.104542
2604.000000	99.110584
2603.000000	99.116709
2602.000000	99.123208
2601.000000	99.129215
2600.000000	99.133167
2599.000000	99.134734
2598.000000	99.134815
2597.000000	99.134148
2596.000000	99.133071
2595.000000	99.132234
2594.000000	99.132418
2593.000000	99.133532
2592.000000	99.134407
2591.000000	99.133831
2590.000000	99.131704
2589.000000	99.129306
2588.000000	99.128494
2587.000000	99.130382
2586.000000	99.134474
2585.000000	99.138813
2584.000000	99.140897
2583.000000	99.139237
2582.000000	99.135306
2581.000000	99.133763
2580.000000	99.138664
2579.000000	99.148338
2578.000000	99.155947
2577.000000	99.156900
2576.000000	99.154205
2575.000000	99.154317
2574.000000	99.158965
2573.000000	99.163922
2572.000000	99.164919
2571.000000	99.161538
2570.000000	99.155576
2569.000000	99.149390
2568.000000	99.146799
2567.000000	99.151928
2566.000000	99.164823
2565.000000	99.180000
2564.000000	99.190908
2563.000000	99.194298
2562.000000	99.189673
2561.000000	99.177773
2560.000000	99.162067
2559.000000	99.149195
2558.000000	99.144208
2557.000000	99.145559
2556.000000	99.147263
2555.000000	99.146058
2554.000000	99.144555
2553.000000	99.147110
2552.000000	99.154294
2551.000000	99.162103
2550.000000	99.165824
2549.000000	99.164000
2548.000000	99.158610
2547.000000	99.151938
2546.000000	99.144429
2545.000000	99.136623
2544.000000	99.131852
2543.000000	99.134151
2542.000000	99.142846
2541.000000	99.151528
2540.000000	99.154023
2539.000000	99.149874
2538.000000	99.142716
2537.000000	99.135121
2536.000000	99.127240
2535.000000	99.119326
2534.000000	99.112750
2533.000000	99.108312
2532.000000	99.105354
2531.000000	99.102974
2530.000000	99.100765
2529.000000	99.097856
2528.000000	99.092365
2527.000000	99.082715
2526.000000	99.069452
2525.000000	99.055704
2524.000000	99.045876
2523.000000	99.043111
2522.000000	99.046702
2521.000000	99.051548
2520.000000	99.050861
2519.000000	99.040594
2518.000000	99.022236
2517.000000	99.002202
2516.000000	98.988506
2515.000000	98.986644
2514.000000	98.996612
2513.000000	99.012602
2512.000000	99.026093
2511.000000	99.030985
2510.000000	99.026987
2509.000000	99.018449
2508.000000	99.009892
2507.000000	99.003159
2506.000000	98.998969
2505.000000	98.999329
2504.000000	99.006071
2503.000000	99.017152
2502.000000	99.027331
2501.000000	99.034010
2500.000000	99.040218
2499.000000	99.049701
2498.000000	99.060562
2497.000000	99.066754
2496.000000	99.065772
2495.000000	99.062118
2494.000000	99.062569
2493.000000	99.069764
2492.000000	99.081098
2491.000000	99.092227
2490.000000	99.100612
2489.000000	99.107031
2488.000000	99.114558
2487.000000	99.125121
2486.000000	99.136291
2485.000000	99.142311
2484.000000	99.139438
2483.000000	99.130017
2482.000000	99.120872
2481.000000	99.118196
2480.000000	99.123858
2479.000000	99.135396
2478.000000	99.148471
2477.000000	99.159728
2476.000000	99.168518
2475.000000	99.176349
2474.000000	99.184511
2473.000000	99.192226
2472.000000	99.197366
2471.000000	99.198913
2470.000000	99.198218
2469.000000	99.197313
2468.000000	99.196283
2467.000000	99.193518
2466.000000	99.188865
2465.000000	99.184960
2464.000000	99.183884
2463.000000	99.183894
2462.000000	99.182165
2461.000000	99.180216
2460.000000	99.182966
2459.000000	99.191270
2458.000000	99.198923
2457.000000	99.199698
2456.000000	99.195278
2455.000000	99.193122
2454.000000	99.197326
2453.000000	99.204389
2452.000000	99.207639
2451.000000	99.203689
2450.000000	99.194909
2449.000000	99.187422
2448.000000	99.186495
2447.000000	99.192133
2446.000000	99.199129
2445.000000	99.202396
2444.000000	99.201741
2443.000000	99.200771
2442.000000	99.202645
2441.000000	99.208321
2440.000000	99.216936
2439.000000	99.225231
2438.000000	99.228005
2437.000000	99.222616
2436.000000	99.213301
2435.000000	99.208349
2434.000000	99.212270
2433.000000	99.222052
2432.000000	99.230965
2431.000000	99.234732
2430.000000	99.234179
2429.000000	99.233468
2428.000000	99.235825
2427.000000	99.239888
2426.000000	99.240866
2425.000000	99.236290
2424.000000	99.229611
2423.000000	99.226570
2422.000000	99.228811
2421.000000	99.232719
2420.000000	99.233653
2419.000000	99.229649
2418.000000	99.221956
2417.000000	99.214031
2416.000000	99.209718
2415.000000	99.210775
2414.000000	99.215946
2413.000000	99.222669
2412.000000	99.228545
2411.000000	99.231011
2410.000000	99.228383
2409.000000	99.222971
2408.000000	99.220824
2407.000000	99.225728
2406.000000	99.234773
2405.000000	99.241702
2404.000000	99.243026
2403.000000	99.239497
2402.000000	99.234217
2401.000000	99.231547
2400.000000	99.234931
2399.000000	99.242478
2398.000000	99.247119
2397.000000	99.244533
2396.000000	99.238713
2395.000000	99.236240
2394.000000	99.237515
2393.000000	99.238319
2392.000000	99.237833
2391.000000	99.239775
2390.000000	99.245726
2389.000000	99.252341
2388.000000	99.256192
2387.000000	99.256783
2386.000000	99.255176
2385.000000	99.252539
2384.000000	99.250923
2383.000000	99.253006
2382.000000	99.259171
2381.000000	99.268223
2380.000000	99.279051
2379.000000	99.288720
2378.000000	99.291022
2377.000000	99.281546
2376.000000	99.264775
2375.000000	99.251349
2374.000000	99.248798
2373.000000	99.257809
2372.000000	99.275900
2371.000000	99.297611
2370.000000	99.313004
2369.000000	99.313685
2368.000000	99.298744
2367.000000	99.273621
2366.000000	99.245437
2365.000000	99.222797
2364.000000	99.214341
2363.000000	99.218416
2362.000000	99.223182
2361.000000	99.223193
2360.000000	99.224306
2359.000000	99.234206
2358.000000	99.250370
2357.000000	99.263058
2356.000000	99.262951
2355.000000	99.245602
2354.000000	99.224266
2353.000000	99.217946
2352.000000	99.226537
2351.000000	99.231952
2350.000000	99.222631
2349.000000	99.204787
2348.000000	99.191852
2347.000000	99.195828
2346.000000	99.213028
2345.000000	99.221252
2344.000000	99.206253
2343.000000	99.179446
2342.000000	99.165174
2341.000000	99.172845
2340.000000	99.189015
2339.000000	99.195704
2338.000000	99.191370
2337.000000	99.186696
2336.000000	99.188677
2335.000000	99.196700
2334.000000	99.211152
2333.000000	99.231441
2332.000000	99.247817
2331.000000	99.248881
2330.000000	99.233216
2329.000000	99.211151
2328.000000	99.189421
2327.000000	99.169744
2326.000000	99.154184
2325.000000	99.145892
2324.000000	99.146626
2323.000000	99.152058
2322.000000	99.154886
2321.000000	99.147267
2320.000000	99.128120
2319.000000	99.104523
2318.000000	99.084742
2317.000000	99.072860
2316.000000	99.070123
2315.000000	99.079977
2314.000000	99.102924
2313.000000	99.131210
2312.000000	99.152377
2311.000000	99.161450
2310.000000	99.163755
2309.000000	99.166722
2308.000000	99.172929
2307.000000	99.180997
2306.000000	99.189220
2305.000000	99.196010
2304.000000	99.201273
2303.000000	99.206533
2302.000000	99.213500
2301.000000	99.221582
2300.000000	99.228712
2299.000000	99.233322
2298.000000	99.233042
2297.000000	99.225730
2296.000000	99.212544
2295.000000	99.200097
2294.000000	99.194641
2293.000000	99.196092
2292.000000	99.199705
2291.000000	99.202341
2290.000000	99.203999
2289.000000	99.204066
2288.000000	99.200797
2287.000000	99.194088
2286.000000	99.186426
2285.000000	99.180301
2284.000000	99.177743
2283.000000	99.180669
2282.000000	99.189559
2281.000000	99.201637
2280.000000	99.213486
2279.000000	99.224443
2278.000000	99.235169
2277.000000	99.244149
2276.000000	99.248355
2275.000000	99.247477
2274.000000	99.244740
2273.000000	99.243891
2272.000000	99.246454
2271.000000	99.251574
2270.000000	99.256964
2269.000000	99.260785
2268.000000	99.263624
2267.000000	99.267585
2266.000000	99.272795
2265.000000	99.276779
2264.000000	99.277886
2263.000000	99.277108
2262.000000	99.275778
2261.000000	99.274131
2260.000000	99.272865
2259.000000	99.272577
2258.000000	99.271354
2257.000000	99.266542
2256.000000	99.259976
2255.000000	99.256659
2254.000000	99.257196
2253.000000	99.257172
2252.000000	99.255619
2251.000000	99.257923
2250.000000	99.267433
2249.000000	99.280236
2248.000000	99.291941
2247.000000	99.303887
2246.000000	99.318341
2245.000000	99.332966
2244.000000	99.344402
2243.000000	99.352641
2242.000000	99.357623
2241.000000	99.356405
2240.000000	99.348138
2239.000000	99.337276
2238.000000	99.327754
2237.000000	99.318429
2236.000000	99.307621
2235.000000	99.297104
2234.000000	99.288610
2233.000000	99.282369
2232.000000	99.282196
2231.000000	99.294360
2230.000000	99.316680
2229.000000	99.336081
2228.000000	99.343022
2227.000000	99.341983
2226.000000	99.342562
2225.000000	99.347831
2224.000000	99.356779
2223.000000	99.368764
2222.000000	99.377659
2221.000000	99.370640
2220.000000	99.343278
2219.000000	99.309083
2218.000000	99.284424
2217.000000	99.271209
2216.000000	99.264287
2215.000000	99.268195
2214.000000	99.292256
2213.000000	99.331659
2212.000000	99.366220
2211.000000	99.378548
2210.000000	99.364883
2209.000000	99.331201
2208.000000	99.290159
2207.000000	99.260448
2206.000000	99.257193
2205.000000	99.278736
2204.000000	99.307839
2203.000000	99.327107
2202.000000	99.329907
2201.000000	99.320374
2200.000000	99.310603
2199.000000	99.314622
2198.000000	99.335851
2197.000000	99.359971
2196.000000	99.367775
2195.000000	99.356131
2194.000000	99.340430
2193.000000	99.336876
2192.000000	99.347452
2191.000000	99.360998
2190.000000	99.362421
2189.000000	99.341337
2188.000000	99.300286
2187.000000	99.257592
2186.000000	99.237617
2185.000000	99.253348
2184.000000	99.295842
2183.000000	99.340545
2182.000000	99.365740
2181.000000	99.369029
2180.000000	99.367949
2179.000000	99.381534
2178.000000	99.410433
2177.000000	99.437585
2176.000000	99.447851
2175.000000	99.442789
2174.000000	99.434991
2173.000000	99.433033
2172.000000	99.435057
2171.000000	99.433793
2170.000000	99.425744
2169.000000	99.416388
2168.000000	99.412836
2167.000000	99.408127
2166.000000	99.381189
2165.000000	99.323251
2164.000000	99.259819
2163.000000	99.230439
2162.000000	99.249730
2161.000000	99.304854
2160.000000	99.385076
2159.000000	99.488352
2158.000000	99.592583
2157.000000	99.655996
2156.000000	99.662481
2155.000000	99.635192
2154.000000	99.600649
2153.000000	99.567224
2152.000000	99.539395
2151.000000	99.528412
2150.000000	99.538447
2149.000000	99.554564
2148.000000	99.555944
2147.000000	99.535993
2146.000000	99.504389
2145.000000	99.475956
2144.000000	99.460597
2143.000000	99.457629
2142.000000	99.457750
2141.000000	99.454969
2140.000000	99.454924
2139.000000	99.464405
2138.000000	99.476167
2137.000000	99.474970
2136.000000	99.457536
2135.000000	99.435610
2134.000000	99.419462
2133.000000	99.410819
2132.000000	99.411194
2131.000000	99.423018
2130.000000	99.440246
2129.000000	99.449716
2128.000000	99.445767
2127.000000	99.434591
2126.000000	99.421898
2125.000000	99.406232
2124.000000	99.387695
2123.000000	99.372561
2122.000000	99.363405
2121.000000	99.352723
2120.000000	99.333162
2119.000000	99.308437
2118.000000	99.288801
2117.000000	99.280999
2116.000000	99.286631
2115.000000	99.304430
2114.000000	99.328575
2113.000000	99.349321
2112.000000	99.361146
2111.000000	99.366897
2110.000000	99.369956
2109.000000	99.367578
2108.000000	99.356723
2107.000000	99.341538
2106.000000	99.329642
2105.000000	99.324892
2104.000000	99.327726
2103.000000	99.337757
2102.000000	99.351361
2101.000000	99.361095
2100.000000	99.362996
2099.000000	99.361520
2098.000000	99.363867
2097.000000	99.372991
2096.000000	99.388150
2095.000000	99.406334
2094.000000	99.419620
2093.000000	99.418355
2092.000000	99.403097
2091.000000	99.387590
2090.000000	99.383653
2089.000000	99.386612
2088.000000	99.381397
2087.000000	99.361754
2086.000000	99.337928
2085.000000	99.325978
2084.000000	99.332581
2083.000000	99.349634
2082.000000	99.362255
2081.000000	99.361991
2080.000000	99.352770
2079.000000	99.343810
2078.000000	99.339467
2077.000000	99.339201
2076.000000	99.343083
2075.000000	99.350451
2074.000000	99.355155
2073.000000	99.350625
2072.000000	99.339284
2071.000000	99.329058
2070.000000	99.322336
2069.000000	99.317087
2068.000000	99.316170
2067.000000	99.323362
2066.000000	99.330999
2065.000000	99.325970
2064.000000	99.311380
2063.000000	99.307693
2062.000000	99.327319
2061.000000	99.360164
2060.000000	99.386631
2059.000000	99.393700
2058.000000	99.376344
2057.000000	99.338811
2056.000000	99.300857
2055.000000	99.287132
2054.000000	99.301356
2053.000000	99.322865
2052.000000	99.335279
2051.000000	99.344283
2050.000000	99.359358
2049.000000	99.373688
2048.000000	99.377385
2047.000000	99.379589
2046.000000	99.398199
2045.000000	99.433567
2044.000000	99.467014
2043.000000	99.479823
2042.000000	99.464840
2041.000000	99.430068
2040.000000	99.398388
2039.000000	99.390230
2038.000000	99.400898
2037.000000	99.408364
2036.000000	99.408799
2035.000000	99.426336
2034.000000	99.476196
2033.000000	99.537988
2032.000000	99.580531
2031.000000	99.594376
2030.000000	99.585084
2029.000000	99.558798
2028.000000	99.531368
2027.000000	99.527123
2026.000000	99.549307
2025.000000	99.568649
2024.000000	99.558518
2023.000000	99.526879
2022.000000	99.500026
2021.000000	99.491606
2020.000000	99.499365
2019.000000	99.515913
2018.000000	99.530538
2017.000000	99.534779
2016.000000	99.536485
2015.000000	99.550859
2014.000000	99.570988
2013.000000	99.568933
2012.000000	99.535360
2011.000000	99.497318
2010.000000	99.484396
2009.000000	99.495906
2008.000000	99.512789
2007.000000	99.524150
2006.000000	99.526456
2005.000000	99.512817
2004.000000	99.481343
2003.000000	99.442663
2002.000000	99.410536
2001.000000	99.394364
2000.000000	99.401643
1999.000000	99.433101
1998.000000	99.471516
1997.000000	99.491721
1996.000000	99.488362
1995.000000	99.478127
1994.000000	99.471747
1993.000000	99.464090
1992.000000	99.455950
1991.000000	99.460107
1990.000000	99.475057
1989.000000	99.479358
1988.000000	99.463981
1987.000000	99.445209
1986.000000	99.433007
1985.000000	99.412172
1984.000000	99.373882
1983.000000	99.342628
1982.000000	99.348074
1981.000000	99.386038
1980.000000	99.430936
1979.000000	99.474516
1978.000000	99.525523
1977.000000	99.578780
1976.000000	99.614615
1975.000000	99.625604
1974.000000	99.618258
1973.000000	99.597625
1972.000000	99.570831
1971.000000	99.553277
1970.000000	99.554381
1969.000000	99.566064
1968.000000	99.575759
1967.000000	99.581842
1966.000000	99.587762
1965.000000	99.592931
1964.000000	99.598076
1963.000000	99.605220
1962.000000	99.604962
1961.000000	99.580406
1960.000000	99.533327
1959.000000	99.490059
1958.000000	99.471950
1957.000000	99.475143
1956.000000	99.486042
1955.000000	99.500929
1954.000000	99.520613
1953.000000	99.537739
1952.000000	99.539308
1951.000000	99.517132
1950.000000	99.474596
1949.000000	99.430517
1948.000000	99.414633
1947.000000	99.444274
1946.000000	99.501454
1945.000000	99.546408
1944.000000	99.557389
1943.000000	99.546205
1942.000000	99.531795
1941.000000	99.515353
1940.000000	99.494286
1939.000000	99.480382
1938.000000	99.486708
1937.000000	99.508432
1936.000000	99.528049
1935.000000	99.535234
1934.000000	99.533135
1933.000000	99.529974
1932.000000	99.530244
1931.000000	99.530506
1930.000000	99.521818
1929.000000	99.499200
1928.000000	99.472378
1927.000000	99.459896
1926.000000	99.470792
1925.000000	99.497768
1924.000000	99.526427
1923.000000	99.545805
1922.000000	99.549196
1921.000000	99.534783
1920.000000	99.510736
1919.000000	99.492499
1918.000000	99.490032
1917.000000	99.496721
1916.000000	99.496555
1915.000000	99.482581
1914.000000	99.460247
1913.000000	99.441154
1912.000000	99.436632
1911.000000	99.448774
1910.000000	99.466648
1909.000000	99.476347
1908.000000	99.477751
1907.000000	99.481935
1906.000000	99.492772
1905.000000	99.502232
1904.000000	99.503163
1903.000000	99.498239
1902.000000	99.492273
1901.000000	99.485161
1900.000000	99.478789
1899.000000	99.479827
1898.000000	99.489614
1897.000000	99.499619
1896.000000	99.501984
1895.000000	99.499789
1894.000000	99.500451
1893.000000	99.505142
1892.000000	99.511704
1891.000000	99.519665
1890.000000	99.526013
1889.000000	99.524043
1888.000000	99.512804
1887.000000	99.501473
1886.000000	99.498529
1885.000000	99.502493
1884.000000	99.506908
1883.000000	99.509559
1882.000000	99.512504
1881.000000	99.516643
1880.000000	99.522106
1879.000000	99.529255
1878.000000	99.535751
1877.000000	99.538466
1876.000000	99.539046
1875.000000	99.540929
1874.000000	99.540636
1873.000000	99.530301
1872.000000	99.511506
1871.000000	99.498099
1870.000000	99.501069
1869.000000	99.515764
1868.000000	99.529229
1867.000000	99.537650
1866.000000	99.546942
1865.000000	99.560149
1864.000000	99.574226
1863.000000	99.583979
1862.000000	99.583494
1861.000000	99.569352
1860.000000	99.547446
1859.000000	99.531194
1858.000000	99.528165
1857.000000	99.533005
1856.000000	99.537524
1855.000000	99.541024
1854.000000	99.545449
1853.000000	99.546511
1852.000000	99.539939
1851.000000	99.531022
1850.000000	99.528143
1849.000000	99.532640
1848.000000	99.539715
1847.000000	99.546860
1846.000000	99.554787
1845.000000	99.561771
1844.000000	99.565916
1843.000000	99.569972
1842.000000	99.575559
1841.000000	99.580288
1840.000000	99.582466
1839.000000	99.581183
1838.000000	99.575681
1837.000000	99.567796
1836.000000	99.562825
1835.000000	99.564736
1834.000000	99.570489
1833.000000	99.574402
1832.000000	99.577337
1831.000000	99.582681
1830.000000	99.586433
1829.000000	99.582345
1828.000000	99.572979
1827.000000	99.567539
1826.000000	99.568993
1825.000000	99.571773
1824.000000	99.572400
1823.000000	99.572231
1822.000000	99.571369
1821.000000	99.567940
1820.000000	99.564210
1819.000000	99.565854
1818.000000	99.574193
1817.000000	99.584860
1816.000000	99.593946
1815.000000	99.601385
1814.000000	99.604985
1813.000000	99.598761
1812.000000	99.580957
1811.000000	99.558017
1810.000000	99.538703
1809.000000	99.525679
1808.000000	99.516395
1807.000000	99.508761
1806.000000	99.500494
1805.000000	99.487058
1804.000000	99.464175
1803.000000	99.431034
1802.000000	99.388182
1801.000000	99.339197
1800.000000	99.294009
1799.000000	99.261348
1798.000000	99.240655
1797.000000	99.223545
1796.000000	99.203462
1795.000000	99.183493
1794.000000	99.172175
1793.000000	99.176799
1792.000000	99.201488
1791.000000	99.242118
1790.000000	99.286600
1789.000000	99.325572
1788.000000	99.357539
1787.000000	99.385386
1786.000000	99.411937
1785.000000	99.437073
1784.000000	99.459175
1783.000000	99.479000
1782.000000	99.495608
1781.000000	99.504302
1780.000000	99.505853
1779.000000	99.508347
1778.000000	99.516903
1777.000000	99.526464
1776.000000	99.530480
1775.000000	99.530868
1774.000000	99.532769
1773.000000	99.535537
1772.000000	99.541556
1771.000000	99.556900
1770.000000	99.576439
1769.000000	99.589405
1768.000000	99.590306
1767.000000	99.582383
1766.000000	99.572993
1765.000000	99.566188
1764.000000	99.563326
1763.000000	99.563728
1762.000000	99.563517
1761.000000	99.559590
1760.000000	99.553110
1759.000000	99.547130
1758.000000	99.541070
1757.000000	99.528083
1756.000000	99.508378
1755.000000	99.490258
1754.000000	99.476299
1753.000000	99.460198
1752.000000	99.434856
1751.000000	99.402518
1750.000000	99.371336
1749.000000	99.341777
1748.000000	99.312910
1747.000000	99.291679
1746.000000	99.279589
1745.000000	99.268891
1744.000000	99.254234
1743.000000	99.237512
1742.000000	99.221054
1741.000000	99.202672
1740.000000	99.180690
1739.000000	99.160284
1738.000000	99.144763
1737.000000	99.132354
1736.000000	99.125838
1735.000000	99.130348
1734.000000	99.149368
1733.000000	99.178845
1732.000000	99.207349
1731.000000	99.234928
1730.000000	99.264841
1729.000000	99.289725
1728.000000	99.306462
1727.000000	99.320554
1726.000000	99.335375
1725.000000	99.346465
1724.000000	99.351485
1723.000000	99.354186
1722.000000	99.358198
1721.000000	99.361944
1720.000000	99.365704
1719.000000	99.369678
1718.000000	99.370299
1717.000000	99.371845
1716.000000	99.377497
1715.000000	99.383012
1714.000000	99.386251
1713.000000	99.384082
1712.000000	99.376366
1711.000000	99.369326
1710.000000	99.366900
1709.000000	99.364621
1708.000000	99.357526
1707.000000	99.346410
1706.000000	99.333903
1705.000000	99.322410
1704.000000	99.311676
1703.000000	99.301392
1702.000000	99.293019
1701.000000	99.273837
1700.000000	99.236753
1699.000000	99.208023
1698.000000	99.199770
1697.000000	99.195786
1696.000000	99.181261
1695.000000	99.158977
1694.000000	99.140394
1693.000000	99.124945
1692.000000	99.108763
1691.000000	99.088289
1690.000000	99.059728
1689.000000	99.020291
1688.000000	98.975973
1687.000000	98.937819
1686.000000	98.911631
1685.000000	98.880052
1684.000000	98.833527
1683.000000	98.803262
1682.000000	98.791452
1681.000000	98.775342
1680.000000	98.750413
1679.000000	98.721148
1678.000000	98.694780
1677.000000	98.667825
1676.000000	98.633301
1675.000000	98.595376
1674.000000	98.566324
1673.000000	98.543506
1672.000000	98.517679
1671.000000	98.485090
1670.000000	98.448246
1669.000000	98.415983
1668.000000	98.394563
1667.000000	98.381218
1666.000000	98.367843
1665.000000	98.347596
1664.000000	98.316964
1663.000000	98.280679
1662.000000	98.250999
1661.000000	98.229696
1660.000000	98.210919
1659.000000	98.192400
1658.000000	98.172519
1657.000000	98.147044
1656.000000	98.120269
1655.000000	98.105108
1654.000000	98.096709
1653.000000	98.081576
1652.000000	98.070645
1651.000000	98.065329
1650.000000	98.058733
1649.000000	98.051219
1648.000000	98.035067
1647.000000	98.024554
1646.000000	98.041552
1645.000000	98.074882
1644.000000	98.099274
1643.000000	98.113936
1642.000000	98.123307
1641.000000	98.127915
1640.000000	98.126899
1639.000000	98.122596
1638.000000	98.121059
1637.000000	98.126421
1636.000000	98.144771
1635.000000	98.180238
1634.000000	98.214735
1633.000000	98.233992
1632.000000	98.244165
1631.000000	98.253864
1630.000000	98.265994
1629.000000	98.275970
1628.000000	98.282051
1627.000000	98.290118
1626.000000	98.302710
1625.000000	98.316028
1624.000000	98.329701
1623.000000	98.350441
1622.000000	98.377505
1621.000000	98.396510
1620.000000	98.402262
1619.000000	98.403447
1618.000000	98.406931
1617.000000	98.412461
1616.000000	98.423858
1615.000000	98.445553
1614.000000	98.469901
1613.000000	98.488329
1612.000000	98.500156
1611.000000	98.511326
1610.000000	98.523996
1609.000000	98.531124
1608.000000	98.528640
1607.000000	98.523635
1606.000000	98.522455
1605.000000	98.521847
1604.000000	98.519201
1603.000000	98.517279
1602.000000	98.515848
1601.000000	98.508968
1600.000000	98.495379
1599.000000	98.481732
1598.000000	98.471061
1597.000000	98.458749
1596.000000	98.442344
1595.000000	98.426545
1594.000000	98.413795
1593.000000	98.398419
1592.000000	98.376801
1591.000000	98.353844
1590.000000	98.333573
1589.000000	98.312154
1588.000000	98.285926
1587.000000	98.257059
1586.000000	98.226748
1585.000000	98.190659
1584.000000	98.148589
1583.000000	98.108914
1582.000000	98.075174
1581.000000	98.040373
1580.000000	98.000729
1579.000000	97.965087
1578.000000	97.944908
1577.000000	97.944069
1576.000000	97.964768
1575.000000	98.005544
1574.000000	98.047802
1573.000000	98.076786
1572.000000	98.097430
1571.000000	98.120248
1570.000000	98.150400
1569.000000	98.182258
1568.000000	98.210725
1567.000000	98.237274
1566.000000	98.260983
1565.000000	98.273665
1564.000000	98.270517
1563.000000	98.261954
1562.000000	98.254420
1561.000000	98.252345
1560.000000	98.228956
1559.000000	98.162660
1558.000000	98.127451
1557.000000	98.127735
1556.000000	98.118993
1555.000000	98.107767
1554.000000	98.085323
1553.000000	98.051347
1552.000000	98.003970
1551.000000	97.942869
1550.000000	97.862309
1549.000000	97.768677
1548.000000	97.675526
1547.000000	97.583809
1546.000000	97.475256
1545.000000	97.331083
1544.000000	97.165473
1543.000000	97.012164
1542.000000	96.878924
1541.000000	96.744865
1540.000000	96.630550
1539.000000	96.587882
1538.000000	96.588637
1537.000000	96.583756
1536.000000	96.569127
1535.000000	96.547781
1534.000000	96.513451
1533.000000	96.462671
1532.000000	96.411935
1531.000000	96.367380
1530.000000	96.320151
1529.000000	96.259891
1528.000000	96.182832
1527.000000	96.093118
1526.000000	95.994799
1525.000000	95.893722
1524.000000	95.799127
1523.000000	95.709746
1522.000000	95.602541
1521.000000	95.475468
1520.000000	95.366444
1519.000000	95.287486
1518.000000	95.207878
1517.000000	95.099444
1516.000000	94.976670
1515.000000	94.871982
1514.000000	94.782863
1513.000000	94.691131
1512.000000	94.593969
1511.000000	94.503114
1510.000000	94.419527
1509.000000	94.325599
1508.000000	94.189725
1507.000000	94.012880
1506.000000	93.865390
1505.000000	93.771308
1504.000000	93.699243
1503.000000	93.632763
1502.000000	93.554711
1501.000000	93.455431
1500.000000	93.339653
1499.000000	93.221804
1498.000000	93.099206
1497.000000	92.962514
1496.000000	92.830342
1495.000000	92.727770
1494.000000	92.646850
1493.000000	92.565242
1492.000000	92.472392
1491.000000	92.365119
1490.000000	92.242622
1489.000000	92.116292
1488.000000	92.002884
1487.000000	91.905694
1486.000000	91.816795
1485.000000	91.725960
1484.000000	91.630898
1483.000000	91.532895
1482.000000	91.426834
1481.000000	91.312686
1480.000000	91.203723
1479.000000	91.108722
1478.000000	91.014526
1477.000000	90.900768
1476.000000	90.766467
1475.000000	90.627762
1474.000000	90.484392
1473.000000	90.324182
1472.000000	90.171446
1471.000000	90.057215
1470.000000	89.967011
1469.000000	89.876314
1468.000000	89.780580
1467.000000	89.683567
1466.000000	89.581842
1465.000000	89.469480
1464.000000	89.362138
1463.000000	89.277474
1462.000000	89.206609
1461.000000	89.131914
1460.000000	89.044792
1459.000000	88.942801
1458.000000	88.811138
1457.000000	88.658579
1456.000000	88.543741
1455.000000	88.479896
1454.000000	88.426041
1453.000000	88.358533
1452.000000	88.278965
1451.000000	88.199433
1450.000000	88.119371
1449.000000	88.029178
1448.000000	87.930615
1447.000000	87.838993
1446.000000	87.758183
1445.000000	87.677979
1444.000000	87.596093
1443.000000	87.517502
1442.000000	87.441733
1441.000000	87.364084
1440.000000	87.286721
1439.000000	87.213802
1438.000000	87.136456
1437.000000	87.039968
1436.000000	86.939085
1435.000000	86.860195
1434.000000	86.793540
1433.000000	86.716940
1432.000000	86.624915
1431.000000	86.523674
1430.000000	86.415857
1429.000000	86.301895
1428.000000	86.192537
1427.000000	86.097339
1426.000000	86.005831
1425.000000	85.896090
1424.000000	85.768752
1423.000000	85.649253
1422.000000	85.544760
1421.000000	85.432625
1420.000000	85.288157
1419.000000	85.116956
1418.000000	84.954560
1417.000000	84.816708
1416.000000	84.692789
1415.000000	84.572461
1414.000000	84.444659
1413.000000	84.303017
1412.000000	84.157345
1411.000000	84.023639
1410.000000	83.900545
1409.000000	83.776464
1408.000000	83.653744
1407.000000	83.543352
1406.000000	83.442045
1405.000000	83.338286
1404.000000	83.241775
1403.000000	83.170336
1402.000000	83.115488
1401.000000	83.052309
1400.000000	82.970053
1399.000000	82.880539
1398.000000	82.794049
1397.000000	82.704112
1396.000000	82.606560
1395.000000	82.509223
1394.000000	82.415771
1393.000000	82.324960
1392.000000	82.245541
1391.000000	82.186342
1390.000000	82.139652
1389.000000	82.091805
1388.000000	82.048275
1387.000000	82.031488
1386.000000	82.046152
1385.000000	82.078145
1384.000000	82.127685
1383.000000	82.204550
1382.000000	82.304242
1381.000000	82.416138
1380.000000	82.544540
1379.000000	82.698902
1378.000000	82.870617
1377.000000	83.046662
1376.000000	83.236797
1375.000000	83.460772
1374.000000	83.711599
1373.000000	83.961886
1372.000000	84.204696
1371.000000	84.453464
1370.000000	84.713030
1369.000000	84.977967
1368.000000	85.247060
1367.000000	85.517815
1366.000000	85.780697
1365.000000	86.036051
1364.000000	86.302864
1363.000000	86.594502
1362.000000	86.892930
1361.000000	87.172161
1360.000000	87.433942
1359.000000	87.691946
1358.000000	87.946781
1357.000000	88.194926
1356.000000	88.440553
1355.000000	88.683584
1354.000000	88.911631
1353.000000	89.119133
1352.000000	89.317875
1351.000000	89.517639
1350.000000	89.712879
1349.000000	89.896753
1348.000000	90.074577
1347.000000	90.250857
1346.000000	90.418717
1345.000000	90.573378
1344.000000	90.722162
1343.000000	90.871064
1342.000000	91.015264
1341.000000	91.150877
1340.000000	91.284548
1339.000000	91.420641
1338.000000	91.550465
1337.000000	91.669234
1336.000000	91.786142
1335.000000	91.907328
1334.000000	92.027246
1333.000000	92.142205
1332.000000	92.257936
1331.000000	92.377222
1330.000000	92.492513
1329.000000	92.598251
1328.000000	92.699138
1327.000000	92.799792
1326.000000	92.896806
1325.000000	92.986600
1324.000000	93.072038
1323.000000	93.154764
1322.000000	93.231540
1321.000000	93.302860
1320.000000	93.375473
1319.000000	93.451841
1318.000000	93.526730
1317.000000	93.598656
1316.000000	93.673068
1315.000000	93.750739
1314.000000	93.825057
1313.000000	93.894672
1312.000000	93.967092
1311.000000	94.045657
1310.000000	94.124220
1309.000000	94.198488
1308.000000	94.271235
1307.000000	94.343451
1306.000000	94.410967
1305.000000	94.473086
1304.000000	94.535297
1303.000000	94.599025
1302.000000	94.658648
1301.000000	94.711938
1300.000000	94.764598
1299.000000	94.821069
1298.000000	94.879131
1297.000000	94.935857
1296.000000	94.990639
1295.000000	95.040821
1294.000000	95.083116
1293.000000	95.120640
1292.000000	95.159676
1291.000000	95.198456
1290.000000	95.228256
1289.000000	95.247430
1288.000000	95.264827
1287.000000	95.287321
1286.000000	95.312856
1285.000000	95.338124
1284.000000	95.364252
1283.000000	95.391845
1282.000000	95.418333
1281.000000	95.442723
1280.000000	95.466853
1279.000000	95.491191
1278.000000	95.515574
1277.000000	95.543635
1276.000000	95.578786
1275.000000	95.616233
1274.000000	95.646900
1273.000000	95.669199
1272.000000	95.689181
1271.000000	95.709515
1270.000000	95.726970
1269.000000	95.740912
1268.000000	95.754831
1267.000000	95.768446
1266.000000	95.777502
1265.000000	95.783123
1264.000000	95.792776
1263.000000	95.809941
1262.000000	95.830374
1261.000000	95.850051
1260.000000	95.869202
1259.000000	95.887381
1258.000000	95.902247
1257.000000	95.914521
1256.000000	95.926871
1255.000000	95.937644
1254.000000	95.942849
1253.000000	95.944135
1252.000000	95.947220
1251.000000	95.952584
1250.000000	95.955230
1249.000000	95.953819
1248.000000	95.952441
1247.000000	95.952555
1246.000000	95.950983
1245.000000	95.947398
1244.000000	95.946413
1243.000000	95.950408
1242.000000	95.956841
1241.000000	95.964054
1240.000000	95.973139
1239.000000	95.982898
1238.000000	95.989610
1237.000000	95.993501
1236.000000	95.999274
1235.000000	96.009168
1234.000000	96.021572
1233.000000	96.037202
1232.000000	96.060147
1231.000000	96.090956
1230.000000	96.124792
1229.000000	96.158364
1228.000000	96.192999
1227.000000	96.229727
1226.000000	96.266949
1225.000000	96.304155
1224.000000	96.342571
1223.000000	96.380812
1222.000000	96.415013
1221.000000	96.444211
1220.000000	96.471366
1219.000000	96.499128
1218.000000	96.528838
1217.000000	96.562411
1216.000000	96.599602
1215.000000	96.634329
1214.000000	96.659712
1213.000000	96.676641
1212.000000	96.691687
1211.000000	96.707329
1210.000000	96.720307
1209.000000	96.728574
1208.000000	96.733540
1207.000000	96.735697
1206.000000	96.734308
1205.000000	96.731380
1204.000000	96.730168
1203.000000	96.730475
1202.000000	96.731029
1201.000000	96.735305
1200.000000	96.748248
1199.000000	96.767730
1198.000000	96.785934
1197.000000	96.799554
1196.000000	96.812213
1195.000000	96.826623
1194.000000	96.841288
1193.000000	96.855518
1192.000000	96.871043
1191.000000	96.887218
1190.000000	96.900561
1189.000000	96.910275
1188.000000	96.918791
1187.000000	96.925795
1186.000000	96.927050
1185.000000	96.920842
1184.000000	96.910628
1183.000000	96.900260
1182.000000	96.891042
1181.000000	96.884115
1180.000000	96.881147
1179.000000	96.881072
1178.000000	96.880060
1177.000000	96.875978
1176.000000	96.869835
1175.000000	96.862888
1174.000000	96.855739
1173.000000	96.849876
1172.000000	96.846689
1171.000000	96.845146
1170.000000	96.843440
1169.000000	96.842126
1168.000000	96.842335
1167.000000	96.842044
1166.000000	96.838070
1165.000000	96.831043
1164.000000	96.824857
1163.000000	96.822199
1162.000000	96.823827
1161.000000	96.830575
1160.000000	96.842044
1159.000000	96.855003
1158.000000	96.867232
1157.000000	96.880959
1156.000000	96.898501
1155.000000	96.916939
1154.000000	96.932230
1153.000000	96.946321
1152.000000	96.964345
1151.000000	96.986537
1150.000000	97.008708
1149.000000	97.029167
1148.000000	97.049124
1147.000000	97.067744
1146.000000	97.083382
1145.000000	97.098805
1144.000000	97.118653
1143.000000	97.141944
1142.000000	97.162979
1141.000000	97.179646
1140.000000	97.195295
1139.000000	97.212429
1138.000000	97.229883
1137.000000	97.246495
1136.000000	97.262805
1135.000000	97.278816
1134.000000	97.293898
1133.000000	97.308253
1132.000000	97.321053
1131.000000	97.328551
1130.000000	97.328129
1129.000000	97.322841
1128.000000	97.318062
1127.000000	97.315697
1126.000000	97.315315
1125.000000	97.317798
1124.000000	97.323122
1123.000000	97.327445
1122.000000	97.327816
1121.000000	97.327116
1120.000000	97.328751
1119.000000	97.329473
1118.000000	97.323742
1117.000000	97.312799
1116.000000	97.302852
1115.000000	97.296415
1114.000000	97.291860
1113.000000	97.289165
1112.000000	97.288853
1111.000000	97.287101
1110.000000	97.279863
1109.000000	97.271103
1108.000000	97.269567
1107.000000	97.276953
1106.000000	97.286325
1105.000000	97.292361
1104.000000	97.296162
1103.000000	97.299316
1102.000000	97.299649
1101.000000	97.295046
1100.000000	97.286434
1099.000000	97.275764
1098.000000	97.265739
1097.000000	97.259527
1096.000000	97.257092
1095.000000	97.252786
1094.000000	97.241907
1093.000000	97.227912
1092.000000	97.217085
1091.000000	97.207639
1090.000000	97.190669
1089.000000	97.161926
1088.000000	97.126483
1087.000000	97.091682
1086.000000	97.061393
1085.000000	97.037467
1084.000000	97.020977
1083.000000	97.010196
1082.000000	97.001421
1081.000000	96.993024
1080.000000	96.986449
1079.000000	96.983836
1078.000000	96.987776
1077.000000	97.001667
1076.000000	97.025685
1075.000000	97.054224
1074.000000	97.081546
1073.000000	97.107514
1072.000000	97.132839
1071.000000	97.152341
1070.000000	97.160417
1069.000000	97.161030
1068.000000	97.164076
1067.000000	97.172448
1066.000000	97.180311
1065.000000	97.184385
1064.000000	97.189308
1063.000000	97.199937
1062.000000	97.214391
1061.000000	97.226924
1060.000000	97.233972
1059.000000	97.236755
1058.000000	97.241305
1057.000000	97.254962
1056.000000	97.278187
1055.000000	97.300806
1054.000000	97.311596
1053.000000	97.311070
1052.000000	97.309854
1051.000000	97.315187
1050.000000	97.324889
1049.000000	97.334310
1048.000000	97.342387
1047.000000	97.349758
1046.000000	97.356580
1045.000000	97.363425
1044.000000	97.370428
1043.000000	97.375520
1042.000000	97.376748
1041.000000	97.375482
1040.000000	97.374070
1039.000000	97.372285
1038.000000	97.369764
1037.000000	97.369187
1036.000000	97.372109
1035.000000	97.374319
1034.000000	97.371461
1033.000000	97.367299
1032.000000	97.370098
1031.000000	97.381735
1030.000000	97.396605
1029.000000	97.410531
1028.000000	97.424349
1027.000000	97.438832
1026.000000	97.452442
1025.000000	97.464916
1024.000000	97.477883
1023.000000	97.491212
1022.000000	97.503249
1021.000000	97.514776
1020.000000	97.528367
1019.000000	97.544183
1018.000000	97.560306
1017.000000	97.576330
1016.000000	97.592496
1015.000000	97.607062
1014.000000	97.619844
1013.000000	97.636650
1012.000000	97.663988
1011.000000	97.699941
1010.000000	97.735841
1009.000000	97.766655
1008.000000	97.794205
1007.000000	97.820246
1006.000000	97.842592
1005.000000	97.859310
1004.000000	97.872454
1003.000000	97.886619
1002.000000	97.906494
1001.000000	97.934903
1000.000000	97.969618
999.000000	98.003173
998.000000	98.029910
997.000000	98.052030
996.000000	98.075054
995.000000	98.099506
994.000000	98.121947
993.000000	98.142422
992.000000	98.164976
991.000000	98.191609
990.000000	98.220812
989.000000	98.251433
988.000000	98.282972
987.000000	98.312801
986.000000	98.338263
985.000000	98.361026
984.000000	98.384298
983.000000	98.406398
982.000000	98.422658
981.000000	98.433205
980.000000	98.443327
979.000000	98.455318
978.000000	98.465059
977.000000	98.468072
976.000000	98.465160
975.000000	98.461314
974.000000	98.461722
973.000000	98.468807
972.000000	98.480099
971.000000	98.488942
970.000000	98.490271
969.000000	98.485653
968.000000	98.481031
967.000000	98.481145
966.000000	98.488318
965.000000	98.503903
964.000000	98.526844
963.000000	98.552484
962.000000	98.576495
961.000000	98.599115
960.000000	98.622733
959.000000	98.647705
958.000000	98.673626
957.000000	98.701211
956.000000	98.728878
955.000000	98.751212
954.000000	98.766132
953.000000	98.780178
952.000000	98.800786
951.000000	98.825797
950.000000	98.846935
949.000000	98.861295
948.000000	98.872768
947.000000	98.884045
946.000000	98.894034
945.000000	98.902380
944.000000	98.910077
943.000000	98.915965
942.000000	98.918481
941.000000	98.920606
940.000000	98.927587
939.000000	98.940265
938.000000	98.955591
937.000000	98.972757
936.000000	98.993238
935.000000	99.015250
934.000000	99.033564
933.000000	99.044885
932.000000	99.049499
931.000000	99.048938
930.000000	99.046663
929.000000	99.049042
928.000000	99.060298
927.000000	99.077827
926.000000	99.096940
925.000000	99.117155
924.000000	99.138482
923.000000	99.155350
922.000000	99.162334
921.000000	99.163529
920.000000	99.168367
919.000000	99.179864
918.000000	99.194532
917.000000	99.211611
916.000000	99.232812
915.000000	99.254317
914.000000	99.269441
913.000000	99.279893
912.000000	99.294068
911.000000	99.312863
910.000000	99.327002
909.000000	99.331066
908.000000	99.330997
907.000000	99.334241
906.000000	99.341452
905.000000	99.351422
904.000000	99.365798
903.000000	99.384219
902.000000	99.402092
901.000000	99.417662
900.000000	99.435311
899.000000	99.458346
898.000000	99.484659
897.000000	99.511906
896.000000	99.539801
895.000000	99.564892
894.000000	99.581599
893.000000	99.592312
892.000000	99.607738
891.000000	99.632933
890.000000	99.659777
889.000000	99.675598
888.000000	99.668603
887.000000	99.617163
886.000000	99.485908
885.000000	99.239744
884.000000	98.853880
883.000000	98.306798
882.000000	97.570541
881.000000	96.622559
880.000000	95.459748
879.000000	94.097083
878.000000	92.565173
877.000000	90.909048
876.000000	89.173062
875.000000	87.378730
874.000000	85.582275
873.000000	84.022127
872.000000	83.191388
871.000000	83.603812
870.000000	85.359065
869.000000	87.965526
868.000000	90.642934
867.000000	92.815007
866.000000	94.341704
865.000000	95.374891
864.000000	96.101707
863.000000	96.633919
862.000000	97.033758
861.000000	97.345373
860.000000	97.592105
859.000000	97.780226
858.000000	97.922252
857.000000	98.038037
856.000000	98.137434
855.000000	98.220872
854.000000	98.293701
853.000000	98.360758
852.000000	98.403901
851.000000	98.389275
850.000000	98.311771
849.000000	98.221188
848.000000	98.190326
847.000000	98.255885
846.000000	98.393809
845.000000	98.547442
844.000000	98.671854
843.000000	98.755063
842.000000	98.809382
841.000000	98.851353
840.000000	98.889847
839.000000	98.926457
838.000000	98.960362
837.000000	98.990733
836.000000	99.017650
835.000000	99.043634
834.000000	99.072329
833.000000	99.103415
832.000000	99.131028
831.000000	99.150102
830.000000	99.162486
829.000000	99.173641
828.000000	99.185167
827.000000	99.194720
826.000000	99.202102
825.000000	99.210674
824.000000	99.222300
823.000000	99.234235
822.000000	99.242089
821.000000	99.245293
820.000000	99.250142
819.000000	99.266504
818.000000	99.297257
817.000000	99.330329
816.000000	99.347143
815.000000	99.342515
814.000000	99.331370
813.000000	99.330931
812.000000	99.341295
811.000000	99.349211
810.000000	99.346171
809.000000	99.335803
808.000000	99.327150
807.000000	99.328632
806.000000	99.345728
805.000000	99.375623
804.000000	99.404878
803.000000	99.419964
802.000000	99.419861
801.000000	99.412463
800.000000	99.401290
799.000000	99.384633
798.000000	99.366317
797.000000	99.356254
796.000000	99.357919
795.000000	99.363831
794.000000	99.366046
793.000000	99.364106
792.000000	99.360611
791.000000	99.356531
790.000000	99.354436
789.000000	99.359939
788.000000	99.374810
787.000000	99.391815
786.000000	99.400048
785.000000	99.394301
784.000000	99.378416
783.000000	99.361688
782.000000	99.351881
781.000000	99.349046
780.000000	99.346671
779.000000	99.341026
778.000000	99.336563
777.000000	99.338139
776.000000	99.341776
775.000000	99.340200
774.000000	99.335266
773.000000	99.336393
772.000000	99.346381
771.000000	99.356927
770.000000	99.359967
769.000000	99.356401
768.000000	99.351479
767.000000	99.348404
766.000000	99.349346
765.000000	99.356760
764.000000	99.370197
763.000000	99.385707
762.000000	99.400583
761.000000	99.415072
760.000000	99.428681
759.000000	99.439593
758.000000	99.448911
757.000000	99.460325
756.000000	99.474309
755.000000	99.487738
754.000000	99.499908
753.000000	99.513061
752.000000	99.525795
751.000000	99.532170
750.000000	99.529679
749.000000	99.522994
748.000000	99.517583
747.000000	99.514398
746.000000	99.512847
745.000000	99.513846
744.000000	99.517206
743.000000	99.520385
742.000000	99.522040
741.000000	99.522949
740.000000	99.522809
739.000000	99.520458
738.000000	99.516795
737.000000	99.512074
736.000000	99.501133
735.000000	99.478709
734.000000	99.450331
733.000000	99.429219
732.000000	99.419527
731.000000	99.409981
730.000000	99.387873
729.000000	99.352785
728.000000	99.316010
727.000000	99.289905
726.000000	99.275733
725.000000	99.261295
724.000000	99.231146
723.000000	99.179107
722.000000	99.107048
721.000000	99.010854
720.000000	98.873328
719.000000	98.672266
718.000000	98.386372
717.000000	97.989880
716.000000	97.464080
715.000000	96.846519
714.000000	96.269422
713.000000	95.913911
712.000000	95.895123
711.000000	96.184007
710.000000	96.640969
709.000000	97.114364
708.000000	97.510983
707.000000	97.805774
706.000000	98.012766
705.000000	98.157195
704.000000	98.262702
703.000000	98.345562
702.000000	98.415746
701.000000	98.480215
700.000000	98.541114
699.000000	98.597333
698.000000	98.645918
697.000000	98.683643
696.000000	98.711162
695.000000	98.733648
694.000000	98.761022
693.000000	98.799515
692.000000	98.840676
691.000000	98.871246
690.000000	98.887803
689.000000	98.897769
688.000000	98.908458
687.000000	98.920351
686.000000	98.935328
685.000000	98.954906
684.000000	98.968463
683.000000	98.963623
682.000000	98.947366
681.000000	98.938790
680.000000	98.939096
679.000000	98.931795
678.000000	98.914109
677.000000	98.898043
676.000000	98.891780
675.000000	98.893891
674.000000	98.904542
673.000000	98.928813
672.000000	98.971468
671.000000	99.045486
670.000000	99.170951
669.000000	99.343159
668.000000	99.445499
667.000000	99.361633
666.000000	99.201922
665.000000	99.057735
664.000000	98.949862
663.000000	98.888464
662.000000	98.863983
661.000000	98.857978
660.000000	98.857733
659.000000	98.864422
658.000000	98.877139
657.000000	98.879169
656.000000	98.864721
655.000000	98.854479
654.000000	98.864076
653.000000	98.879842
652.000000	98.886306
651.000000	98.891114
650.000000	98.907970
649.000000	98.929686
648.000000	98.938770
647.000000	98.930118
646.000000	98.908287
645.000000	98.881007
644.000000	98.859125
643.000000	98.849578
642.000000	98.846514
641.000000	98.836193
640.000000	98.817690
639.000000	98.808145
638.000000	98.817707
637.000000	98.834646
636.000000	98.845737
635.000000	98.853335
634.000000	98.863949
633.000000	98.872518
632.000000	98.868540
631.000000	98.852302
630.000000	98.835428
629.000000	98.827527
628.000000	98.830931
627.000000	98.843547
626.000000	98.857132
625.000000	98.861763
624.000000	98.853264
623.000000	98.834086
622.000000	98.809077
621.000000	98.783511
620.000000	98.763202
619.000000	98.750096
618.000000	98.739390
617.000000	98.727744
616.000000	98.721598
615.000000	98.728815
614.000000	98.743726
613.000000	98.751446
612.000000	98.748650
611.000000	98.747819
610.000000	98.757522
609.000000	98.770281
608.000000	98.777148
607.000000	98.783497
606.000000	98.796542
605.000000	98.809442
604.000000	98.808055
603.000000	98.790950
602.000000	98.775531
601.000000	98.781408
600.000000	98.811924
599.000000	98.852149
598.000000	98.880015
597.000000	98.880404
596.000000	98.853283
595.000000	98.812622
594.000000	98.775810
593.000000	98.750697
592.000000	98.734424
591.000000	98.724034
590.000000	98.723695
589.000000	98.739336
588.000000	98.768553
587.000000	98.797225
586.000000	98.807047
585.000000	98.790518
584.000000	98.760186
583.000000	98.740734
582.000000	98.749394
581.000000	98.783671
580.000000	98.825683
579.000000	98.856600
578.000000	98.866214
577.000000	98.854419
576.000000	98.830095
575.000000	98.807066
574.000000	98.795180
573.000000	98.794831
572.000000	98.800852
571.000000	98.805705
570.000000	98.800264
569.000000	98.779657
568.000000	98.752423
567.000000	98.736379
566.000000	98.739914
565.000000	98.752842
564.000000	98.760153
563.000000	98.757709
562.000000	98.748892
561.000000	98.734671
560.000000	98.716151
559.000000	98.702123
558.000000	98.701830
557.000000	98.711775
556.000000	98.718878
555.000000	98.717470
554.000000	98.715472
553.000000	98.721339
552.000000	98.732575
551.000000	98.740792
550.000000	98.743530
549.000000	98.748834
548.000000	98.769937
547.000000	98.813219
546.000000	98.866121
545.000000	98.899864
544.000000	98.893703
543.000000	98.856596
542.000000	98.820347
541.000000	98.809067
540.000000	98.817050
539.000000	98.818570
538.000000	98.795602
537.000000	98.753556
536.000000	98.713042
535.000000	98.691752
534.000000	98.693322
533.000000	98.709608
532.000000	98.727915
531.000000	98.737279
530.000000	98.733809
529.000000	98.723867
528.000000	98.718184
527.000000	98.721511
526.000000	98.729235
525.000000	98.737187
524.000000	98.750789
523.000000	98.774083
522.000000	98.795916
521.000000	98.799370
520.000000	98.784933
519.000000	98.774579
518.000000	98.787945
517.000000	98.823090
516.000000	98.868728
515.000000	98.918768
514.000000	98.965951
513.000000	98.997526
512.000000	99.008665
511.000000	99.011934
510.000000	99.020862
509.000000	99.029732
508.000000	99.022588
507.000000	99.002128
506.000000	98.989889
505.000000	98.993164
504.000000	98.992284
503.000000	98.968531
502.000000	98.935548
501.000000	98.927555
500.000000	98.956260
499.000000	99.001830
498.000000	99.040162
497.000000	99.064454
496.000000	99.080408
495.000000	99.087477
494.000000	99.077589
493.000000	99.053387
492.000000	99.037333
491.000000	99.051385
490.000000	99.089517
489.000000	99.126667
488.000000	99.148090
487.000000	99.155445
486.000000	99.149581
485.000000	99.128879
484.000000	99.111406
483.000000	99.131831
482.000000	99.193901
481.000000	99.248252
480.000000	99.242818
479.000000	99.182159
478.000000	99.119979
477.000000	99.099381
476.000000	99.113734
475.000000	99.127531
474.000000	99.114818
473.000000	99.078140
472.000000	99.049277
471.000000	99.060059
470.000000	99.103917
469.000000	99.148854
468.000000	99.178649
467.000000	99.207904
466.000000	99.252301
465.000000	99.298528
464.000000	99.321246
463.000000	99.310857
462.000000	99.271742
461.000000	99.207515
460.000000	99.135426
459.000000	99.110002
458.000000	99.192887
457.000000	99.363498
456.000000	99.521217
455.000000	99.609910
454.000000	99.645581
453.000000	99.652470
452.000000	99.633454
451.000000	99.590106
450.000000	99.535271
