PE IR       SUBTECH     SPECTRUM    ASCII       PEDS        4.00        
   -1
AD10-F012_1.ASC
23/09/08
10:56:04.00
23/09/08
11:14:38.00
uco
Sample 012 By uco Date Friday, September 08 2023
450.000000
#HDR
-1
-1
#GR
cm-1
%T
1.0
0.0
4000.000000
-1.000000
3551
8
99.968318
87.923431
#DATA
4000.000000	99.897103
3999.000000	99.896952
3998.000000	99.896361
3997.000000	99.895787
3996.000000	99.895452
3995.000000	99.895600
3994.000000	99.896600
3993.000000	99.898328
3992.000000	99.899798
3991.000000	99.899822
3990.000000	99.898177
3989.000000	99.895846
3988.000000	99.894052
3987.000000	99.893188
3986.000000	99.892826
3985.000000	99.892553
3984.000000	99.892401
3983.000000	99.892452
3982.000000	99.892380
3981.000000	99.891716
3980.000000	99.890447
3979.000000	99.889060
3978.000000	99.887981
3977.000000	99.887124
3976.000000	99.886080
3975.000000	99.884705
3974.000000	99.883347
3973.000000	99.882614
3972.000000	99.882870
3971.000000	99.883833
3970.000000	99.884568
3969.000000	99.883905
3968.000000	99.881472
3967.000000	99.878353
3966.000000	99.876485
3965.000000	99.877026
3964.000000	99.879033
3963.000000	99.879950
3962.000000	99.877802
3961.000000	99.873136
3960.000000	99.868597
3959.000000	99.866732
3958.000000	99.868226
3957.000000	99.871716
3956.000000	99.875116
3955.000000	99.876727
3954.000000	99.875728
3953.000000	99.872053
3952.000000	99.866121
3951.000000	99.859116
3950.000000	99.852942
3949.000000	99.849461
3948.000000	99.849270
3947.000000	99.851694
3946.000000	99.856429
3945.000000	99.863777
3944.000000	99.872824
3943.000000	99.880232
3942.000000	99.881791
3941.000000	99.876441
3940.000000	99.867644
3939.000000	99.860332
3938.000000	99.857313
3937.000000	99.857981
3936.000000	99.859509
3935.000000	99.858537
3934.000000	99.853051
3933.000000	99.844489
3932.000000	99.837328
3931.000000	99.835609
3930.000000	99.839083
3929.000000	99.844322
3928.000000	99.849007
3927.000000	99.852873
3926.000000	99.856214
3925.000000	99.858388
3924.000000	99.858337
3923.000000	99.855796
3922.000000	99.851134
3921.000000	99.844705
3920.000000	99.837927
3919.000000	99.834046
3918.000000	99.836027
3917.000000	99.842644
3916.000000	99.848603
3915.000000	99.849863
3914.000000	99.846878
3913.000000	99.843003
3912.000000	99.841346
3911.000000	99.843037
3910.000000	99.847058
3909.000000	99.850734
3908.000000	99.851544
3907.000000	99.847980
3906.000000	99.840127
3905.000000	99.830091
3904.000000	99.821874
3903.000000	99.819743
3902.000000	99.825344
3901.000000	99.835920
3900.000000	99.845774
3899.000000	99.849573
3898.000000	99.846178
3897.000000	99.838982
3896.000000	99.831727
3895.000000	99.826316
3894.000000	99.824039
3893.000000	99.826246
3892.000000	99.832637
3891.000000	99.838799
3890.000000	99.840431
3889.000000	99.838804
3888.000000	99.837738
3887.000000	99.838290
3886.000000	99.839331
3885.000000	99.840341
3884.000000	99.843283
3883.000000	99.850244
3882.000000	99.859450
3881.000000	99.865290
3880.000000	99.862803
3879.000000	99.852948
3878.000000	99.843257
3877.000000	99.840690
3876.000000	99.845812
3875.000000	99.853068
3874.000000	99.855862
3873.000000	99.853611
3872.000000	99.852379
3871.000000	99.856625
3870.000000	99.861902
3869.000000	99.859921
3868.000000	99.851379
3867.000000	99.844368
3866.000000	99.842931
3865.000000	99.844464
3864.000000	99.845192
3863.000000	99.844323
3862.000000	99.843625
3861.000000	99.844520
3860.000000	99.847244
3859.000000	99.849756
3858.000000	99.849846
3857.000000	99.847108
3856.000000	99.844172
3855.000000	99.843512
3854.000000	99.842566
3853.000000	99.837825
3852.000000	99.831952
3851.000000	99.831395
3850.000000	99.836917
3849.000000	99.843952
3848.000000	99.849068
3847.000000	99.853051
3846.000000	99.858462
3845.000000	99.866288
3844.000000	99.874479
3843.000000	99.879036
3842.000000	99.877884
3841.000000	99.873849
3840.000000	99.872111
3839.000000	99.874709
3838.000000	99.879537
3837.000000	99.883431
3836.000000	99.886400
3835.000000	99.890362
3834.000000	99.895333
3833.000000	99.898874
3832.000000	99.898181
3831.000000	99.892362
3830.000000	99.884245
3829.000000	99.878244
3828.000000	99.876694
3827.000000	99.877771
3826.000000	99.877347
3825.000000	99.874194
3824.000000	99.871736
3823.000000	99.874103
3822.000000	99.881332
3821.000000	99.887939
3820.000000	99.887831
3819.000000	99.881848
3818.000000	99.874531
3817.000000	99.865249
3816.000000	99.851584
3815.000000	99.836829
3814.000000	99.829445
3813.000000	99.833236
3812.000000	99.842956
3811.000000	99.851882
3810.000000	99.858329
3809.000000	99.864495
3808.000000	99.870365
3807.000000	99.871438
3806.000000	99.865169
3805.000000	99.857699
3804.000000	99.857560
3803.000000	99.866811
3802.000000	99.878633
3801.000000	99.882008
3800.000000	99.874627
3799.000000	99.866360
3798.000000	99.863486
3797.000000	99.862856
3796.000000	99.859045
3795.000000	99.851855
3794.000000	99.845848
3793.000000	99.844156
3792.000000	99.845616
3791.000000	99.847906
3790.000000	99.849942
3789.000000	99.851384
3788.000000	99.852203
3787.000000	99.853005
3786.000000	99.854998
3785.000000	99.858817
3784.000000	99.863550
3783.000000	99.867770
3782.000000	99.870721
3781.000000	99.871308
3780.000000	99.867996
3779.000000	99.860825
3778.000000	99.852584
3777.000000	99.847176
3776.000000	99.846219
3775.000000	99.847704
3774.000000	99.848759
3773.000000	99.848973
3772.000000	99.850286
3771.000000	99.854054
3770.000000	99.859326
3769.000000	99.863723
3768.000000	99.866695
3767.000000	99.868864
3766.000000	99.869277
3765.000000	99.865608
3764.000000	99.857696
3763.000000	99.849148
3762.000000	99.843823
3761.000000	99.842462
3760.000000	99.843579
3759.000000	99.845306
3758.000000	99.845580
3757.000000	99.843160
3756.000000	99.839864
3755.000000	99.839054
3754.000000	99.841397
3753.000000	99.843213
3752.000000	99.840407
3751.000000	99.833870
3750.000000	99.826780
3749.000000	99.820143
3748.000000	99.816083
3747.000000	99.817940
3746.000000	99.826007
3745.000000	99.835266
3744.000000	99.838858
3743.000000	99.839935
3742.000000	99.848214
3741.000000	99.862990
3740.000000	99.875733
3739.000000	99.880274
3738.000000	99.876473
3737.000000	99.867627
3736.000000	99.861726
3735.000000	99.868093
3734.000000	99.884199
3733.000000	99.896409
3732.000000	99.894504
3731.000000	99.879681
3730.000000	99.860526
3729.000000	99.844937
3728.000000	99.837102
3727.000000	99.837923
3726.000000	99.845253
3725.000000	99.854911
3724.000000	99.862988
3723.000000	99.867951
3722.000000	99.870150
3721.000000	99.871289
3720.000000	99.872798
3719.000000	99.873824
3718.000000	99.872133
3717.000000	99.867036
3716.000000	99.862204
3715.000000	99.862439
3714.000000	99.866912
3713.000000	99.868414
3712.000000	99.861947
3711.000000	99.853167
3710.000000	99.851704
3709.000000	99.858864
3708.000000	99.869218
3707.000000	99.877401
3706.000000	99.881487
3705.000000	99.883591
3704.000000	99.887251
3703.000000	99.894189
3702.000000	99.902320
3701.000000	99.906862
3700.000000	99.905585
3699.000000	99.901413
3698.000000	99.898102
3697.000000	99.895545
3696.000000	99.890614
3695.000000	99.881529
3694.000000	99.870283
3693.000000	99.861953
3692.000000	99.862589
3691.000000	99.875835
3690.000000	99.897447
3689.000000	99.913008
3688.000000	99.910192
3687.000000	99.893774
3686.000000	99.878593
3685.000000	99.872706
3684.000000	99.874332
3683.000000	99.878406
3682.000000	99.881763
3681.000000	99.882327
3680.000000	99.877047
3679.000000	99.864588
3678.000000	99.849116
3677.000000	99.840464
3676.000000	99.846663
3675.000000	99.860987
3674.000000	99.867124
3673.000000	99.863783
3672.000000	99.858827
3671.000000	99.857335
3670.000000	99.861510
3669.000000	99.869499
3668.000000	99.877006
3667.000000	99.881756
3666.000000	99.881955
3665.000000	99.876588
3664.000000	99.867549
3663.000000	99.859101
3662.000000	99.854356
3661.000000	99.853031
3660.000000	99.853667
3659.000000	99.856106
3658.000000	99.860308
3657.000000	99.863820
3656.000000	99.862138
3655.000000	99.854868
3654.000000	99.847511
3653.000000	99.844985
3652.000000	99.846340
3651.000000	99.846906
3650.000000	99.845097
3649.000000	99.845484
3648.000000	99.850112
3647.000000	99.853828
3646.000000	99.852592
3645.000000	99.847267
3644.000000	99.840350
3643.000000	99.833580
3642.000000	99.828528
3641.000000	99.826480
3640.000000	99.827503
3639.000000	99.829664
3638.000000	99.830526
3637.000000	99.830421
3636.000000	99.832217
3635.000000	99.836935
3634.000000	99.840804
3633.000000	99.839225
3632.000000	99.832041
3631.000000	99.823516
3630.000000	99.818706
3629.000000	99.820203
3628.000000	99.823600
3627.000000	99.823932
3626.000000	99.824548
3625.000000	99.828438
3624.000000	99.835264
3623.000000	99.844074
3622.000000	99.853915
3621.000000	99.862763
3620.000000	99.867479
3619.000000	99.865292
3618.000000	99.856116
3617.000000	99.844277
3616.000000	99.836327
3615.000000	99.835428
3614.000000	99.837873
3613.000000	99.835616
3612.000000	99.824372
3611.000000	99.808824
3610.000000	99.797650
3609.000000	99.796708
3608.000000	99.805347
3607.000000	99.816524
3606.000000	99.822819
3605.000000	99.821607
3604.000000	99.815499
3603.000000	99.809471
3602.000000	99.807431
3601.000000	99.809629
3600.000000	99.812493
3599.000000	99.812171
3598.000000	99.807423
3597.000000	99.799614
3596.000000	99.791125
3595.000000	99.784942
3594.000000	99.782907
3593.000000	99.784851
3592.000000	99.788772
3591.000000	99.792901
3590.000000	99.796164
3589.000000	99.797950
3588.000000	99.798308
3587.000000	99.798366
3586.000000	99.798979
3585.000000	99.800872
3584.000000	99.804042
3583.000000	99.806660
3582.000000	99.806784
3581.000000	99.804586
3580.000000	99.801189
3579.000000	99.796700
3578.000000	99.789848
3577.000000	99.780028
3576.000000	99.768523
3575.000000	99.758024
3574.000000	99.750964
3573.000000	99.747938
3572.000000	99.747952
3571.000000	99.749538
3570.000000	99.752116
3569.000000	99.755751
3568.000000	99.760789
3567.000000	99.766334
3566.000000	99.768863
3565.000000	99.765674
3564.000000	99.759422
3563.000000	99.754746
3562.000000	99.753897
3561.000000	99.756298
3560.000000	99.760297
3559.000000	99.764429
3558.000000	99.767717
3557.000000	99.768813
3556.000000	99.765925
3555.000000	99.758182
3554.000000	99.747533
3553.000000	99.738297
3552.000000	99.733669
3551.000000	99.732394
3550.000000	99.730382
3549.000000	99.725185
3548.000000	99.718260
3547.000000	99.713945
3546.000000	99.715822
3545.000000	99.723257
3544.000000	99.732304
3543.000000	99.739594
3542.000000	99.743789
3541.000000	99.744752
3540.000000	99.743262
3539.000000	99.741029
3538.000000	99.739773
3537.000000	99.739398
3536.000000	99.737809
3535.000000	99.733579
3534.000000	99.728288
3533.000000	99.725452
3532.000000	99.726593
3531.000000	99.729278
3530.000000	99.729041
3529.000000	99.723710
3528.000000	99.715525
3527.000000	99.708967
3526.000000	99.706725
3525.000000	99.708173
3524.000000	99.710532
3523.000000	99.710810
3522.000000	99.707599
3521.000000	99.702115
3520.000000	99.697377
3519.000000	99.695520
3518.000000	99.695946
3517.000000	99.696491
3516.000000	99.696109
3515.000000	99.695900
3514.000000	99.697270
3513.000000	99.700256
3512.000000	99.703797
3511.000000	99.706840
3510.000000	99.708316
3509.000000	99.706595
3508.000000	99.700391
3507.000000	99.690776
3506.000000	99.681460
3505.000000	99.676372
3504.000000	99.676894
3503.000000	99.680747
3502.000000	99.683668
3501.000000	99.682858
3500.000000	99.678784
3499.000000	99.674080
3498.000000	99.671449
3497.000000	99.672298
3496.000000	99.675812
3495.000000	99.679119
3494.000000	99.679184
3493.000000	99.675306
3492.000000	99.669416
3491.000000	99.663663
3490.000000	99.658251
3489.000000	99.652343
3488.000000	99.646556
3487.000000	99.643270
3486.000000	99.644034
3485.000000	99.647619
3484.000000	99.651193
3483.000000	99.652944
3482.000000	99.653111
3481.000000	99.652719
3480.000000	99.652113
3479.000000	99.651108
3478.000000	99.649988
3477.000000	99.649519
3476.000000	99.649734
3475.000000	99.649001
3474.000000	99.645087
3473.000000	99.637665
3472.000000	99.629499
3471.000000	99.624632
3470.000000	99.625086
3469.000000	99.629225
3468.000000	99.633110
3467.000000	99.633535
3466.000000	99.630527
3465.000000	99.627263
3464.000000	99.627447
3463.000000	99.632258
3462.000000	99.639492
3461.000000	99.645535
3460.000000	99.647914
3459.000000	99.646065
3458.000000	99.640618
3457.000000	99.632878
3456.000000	99.624958
3455.000000	99.619454
3454.000000	99.618043
3453.000000	99.620297
3452.000000	99.623670
3451.000000	99.625133
3450.000000	99.623245
3449.000000	99.619265
3448.000000	99.616395
3447.000000	99.617197
3446.000000	99.620954
3445.000000	99.624169
3444.000000	99.623716
3443.000000	99.619188
3442.000000	99.612790
3441.000000	99.607443
3440.000000	99.604700
3439.000000	99.603727
3438.000000	99.601987
3437.000000	99.597536
3436.000000	99.591285
3435.000000	99.586783
3434.000000	99.586906
3433.000000	99.590804
3432.000000	99.594454
3431.000000	99.594505
3430.000000	99.590996
3429.000000	99.586427
3428.000000	99.582970
3427.000000	99.581004
3426.000000	99.579731
3425.000000	99.578176
3424.000000	99.575564
3423.000000	99.571430
3422.000000	99.566099
3421.000000	99.561065
3420.000000	99.558110
3419.000000	99.557498
3418.000000	99.557414
3417.000000	99.555852
3416.000000	99.552752
3415.000000	99.549715
3414.000000	99.547639
3413.000000	99.545578
3412.000000	99.542462
3411.000000	99.539058
3410.000000	99.537378
3409.000000	99.538609
3408.000000	99.542279
3407.000000	99.546897
3406.000000	99.550611
3405.000000	99.551779
3404.000000	99.550106
3403.000000	99.547262
3402.000000	99.545347
3401.000000	99.544649
3400.000000	99.543338
3399.000000	99.539468
3398.000000	99.532786
3397.000000	99.524697
3396.000000	99.517113
3395.000000	99.511633
3394.000000	99.509331
3393.000000	99.510583
3392.000000	99.514696
3391.000000	99.519625
3390.000000	99.522472
3389.000000	99.521038
3388.000000	99.515489
3387.000000	99.508502
3386.000000	99.503196
3385.000000	99.500479
3384.000000	99.498445
3383.000000	99.494452
3382.000000	99.487800
3381.000000	99.480622
3380.000000	99.476203
3379.000000	99.476190
3378.000000	99.479176
3377.000000	99.482077
3376.000000	99.482735
3375.000000	99.480971
3374.000000	99.477581
3373.000000	99.473219
3372.000000	99.468430
3371.000000	99.463871
3370.000000	99.459941
3369.000000	99.456626
3368.000000	99.454161
3367.000000	99.453202
3366.000000	99.453620
3365.000000	99.453579
3364.000000	99.450835
3363.000000	99.445026
3362.000000	99.438122
3361.000000	99.432525
3360.000000	99.429018
3359.000000	99.426480
3358.000000	99.423205
3357.000000	99.418525
3356.000000	99.413411
3355.000000	99.409454
3354.000000	99.407211
3353.000000	99.405994
3352.000000	99.405437
3351.000000	99.406255
3350.000000	99.408468
3349.000000	99.409576
3348.000000	99.406211
3347.000000	99.397928
3346.000000	99.388264
3345.000000	99.381486
3344.000000	99.378872
3343.000000	99.378453
3342.000000	99.377279
3341.000000	99.373249
3340.000000	99.365967
3339.000000	99.357377
3338.000000	99.351299
3337.000000	99.350703
3336.000000	99.354610
3335.000000	99.358245
3334.000000	99.356843
3333.000000	99.349332
3332.000000	99.338550
3331.000000	99.328755
3330.000000	99.323054
3329.000000	99.322077
3328.000000	99.323991
3327.000000	99.325733
3326.000000	99.325036
3325.000000	99.321862
3324.000000	99.317884
3323.000000	99.314582
3322.000000	99.312053
3321.000000	99.309713
3320.000000	99.307624
3319.000000	99.306570
3318.000000	99.306789
3317.000000	99.307223
3316.000000	99.306491
3315.000000	99.304463
3314.000000	99.302282
3313.000000	99.300673
3312.000000	99.298783
3311.000000	99.295255
3310.000000	99.290211
3309.000000	99.285464
3308.000000	99.282433
3307.000000	99.280480
3306.000000	99.277908
3305.000000	99.274112
3304.000000	99.269955
3303.000000	99.266183
3302.000000	99.262393
3301.000000	99.258034
3300.000000	99.253789
3299.000000	99.251266
3298.000000	99.251575
3297.000000	99.254677
3296.000000	99.259553
3295.000000	99.264277
3294.000000	99.266212
3293.000000	99.263515
3292.000000	99.257180
3291.000000	99.250940
3290.000000	99.248284
3289.000000	99.249517
3288.000000	99.252035
3287.000000	99.253287
3286.000000	99.253039
3285.000000	99.252807
3284.000000	99.253540
3283.000000	99.254163
3282.000000	99.252629
3281.000000	99.248363
3280.000000	99.243282
3279.000000	99.239996
3278.000000	99.239229
3277.000000	99.239482
3276.000000	99.239141
3275.000000	99.238136
3274.000000	99.237176
3273.000000	99.236318
3272.000000	99.235122
3271.000000	99.233819
3270.000000	99.233343
3269.000000	99.234046
3268.000000	99.235147
3267.000000	99.235762
3266.000000	99.236196
3265.000000	99.237992
3264.000000	99.242647
3263.000000	99.250158
3262.000000	99.258550
3261.000000	99.264843
3260.000000	99.266938
3259.000000	99.264881
3258.000000	99.260509
3257.000000	99.255931
3256.000000	99.252389
3255.000000	99.250316
3254.000000	99.250064
3253.000000	99.252188
3252.000000	99.256781
3251.000000	99.262562
3250.000000	99.266833
3249.000000	99.267036
3248.000000	99.262941
3247.000000	99.257367
3246.000000	99.254327
3245.000000	99.255864
3244.000000	99.260395
3243.000000	99.264334
3242.000000	99.265451
3241.000000	99.264891
3240.000000	99.266038
3239.000000	99.271181
3238.000000	99.279093
3237.000000	99.285693
3236.000000	99.287301
3235.000000	99.283520
3234.000000	99.277147
3233.000000	99.271608
3232.000000	99.268543
3231.000000	99.267730
3230.000000	99.268591
3229.000000	99.270897
3228.000000	99.273935
3227.000000	99.275941
3226.000000	99.275497
3225.000000	99.273405
3224.000000	99.272170
3223.000000	99.273175
3222.000000	99.275067
3221.000000	99.275684
3220.000000	99.274982
3219.000000	99.275013
3218.000000	99.277074
3217.000000	99.280198
3216.000000	99.282766
3215.000000	99.284552
3214.000000	99.286276
3213.000000	99.287724
3212.000000	99.287505
3211.000000	99.284737
3210.000000	99.280175
3209.000000	99.275277
3208.000000	99.270929
3207.000000	99.267399
3206.000000	99.265093
3205.000000	99.264606
3204.000000	99.266222
3203.000000	99.269724
3202.000000	99.274661
3201.000000	99.280380
3200.000000	99.285983
3199.000000	99.290653
3198.000000	99.293941
3197.000000	99.295376
3196.000000	99.294192
3195.000000	99.290330
3194.000000	99.285612
3193.000000	99.282828
3192.000000	99.282995
3191.000000	99.284151
3190.000000	99.283538
3189.000000	99.280550
3188.000000	99.277019
3187.000000	99.275044
3186.000000	99.275415
3185.000000	99.277658
3184.000000	99.280761
3183.000000	99.283705
3182.000000	99.286145
3181.000000	99.288619
3180.000000	99.291521
3179.000000	99.294002
3178.000000	99.294618
3177.000000	99.293268
3176.000000	99.291853
3175.000000	99.292753
3174.000000	99.296982
3173.000000	99.303629
3172.000000	99.310230
3171.000000	99.313791
3170.000000	99.312669
3169.000000	99.308403
3168.000000	99.305264
3167.000000	99.307027
3166.000000	99.313960
3165.000000	99.322800
3164.000000	99.329575
3163.000000	99.332490
3162.000000	99.332758
3161.000000	99.332748
3160.000000	99.333121
3159.000000	99.331810
3158.000000	99.326482
3157.000000	99.318088
3156.000000	99.311261
3155.000000	99.310628
3154.000000	99.317147
3153.000000	99.328034
3152.000000	99.339491
3151.000000	99.348905
3150.000000	99.355058
3149.000000	99.357424
3148.000000	99.355703
3147.000000	99.350013
3146.000000	99.341691
3145.000000	99.333871
3144.000000	99.330505
3143.000000	99.333661
3142.000000	99.341594
3141.000000	99.349816
3140.000000	99.354571
3139.000000	99.355505
3138.000000	99.355445
3137.000000	99.357572
3136.000000	99.362361
3135.000000	99.366887
3134.000000	99.367642
3133.000000	99.364326
3132.000000	99.360442
3131.000000	99.359881
3130.000000	99.363627
3129.000000	99.369934
3128.000000	99.376492
3127.000000	99.381443
3126.000000	99.383260
3125.000000	99.381306
3124.000000	99.376973
3123.000000	99.373203
3122.000000	99.372231
3121.000000	99.373816
3120.000000	99.375787
3119.000000	99.375818
3118.000000	99.372721
3117.000000	99.366815
3116.000000	99.359757
3115.000000	99.353852
3114.000000	99.351106
3113.000000	99.352425
3112.000000	99.357206
3111.000000	99.363441
3110.000000	99.368719
3109.000000	99.371795
3108.000000	99.373312
3107.000000	99.374616
3106.000000	99.375759
3105.000000	99.375041
3104.000000	99.370859
3103.000000	99.363798
3102.000000	99.356728
3101.000000	99.352787
3100.000000	99.353075
3099.000000	99.355899
3098.000000	99.357995
3097.000000	99.357020
3096.000000	99.353423
3095.000000	99.350122
3094.000000	99.349945
3093.000000	99.353276
3092.000000	99.358046
3091.000000	99.361637
3090.000000	99.362587
3089.000000	99.360890
3088.000000	99.357519
3087.000000	99.354083
3086.000000	99.352475
3085.000000	99.353827
3084.000000	99.357289
3083.000000	99.360014
3082.000000	99.359116
3081.000000	99.354064
3080.000000	99.347320
3079.000000	99.342581
3078.000000	99.342267
3077.000000	99.346194
3076.000000	99.351783
3075.000000	99.355366
3074.000000	99.354163
3073.000000	99.348174
3072.000000	99.340467
3071.000000	99.335083
3070.000000	99.334038
3069.000000	99.335982
3068.000000	99.337660
3067.000000	99.336612
3066.000000	99.332825
3065.000000	99.328268
3064.000000	99.325103
3063.000000	99.324362
3062.000000	99.325991
3061.000000	99.329540
3060.000000	99.334355
3059.000000	99.339259
3058.000000	99.342929
3057.000000	99.345026
3056.000000	99.346503
3055.000000	99.348399
3054.000000	99.350589
3053.000000	99.352168
3052.000000	99.352532
3051.000000	99.351566
3050.000000	99.349208
3049.000000	99.345880
3048.000000	99.343364
3047.000000	99.344147
3046.000000	99.349207
3045.000000	99.356678
3044.000000	99.363212
3043.000000	99.366730
3042.000000	99.367756
3041.000000	99.368069
3040.000000	99.368424
3039.000000	99.368132
3038.000000	99.366974
3037.000000	99.366616
3036.000000	99.369014
3035.000000	99.373528
3034.000000	99.376958
3033.000000	99.376967
3032.000000	99.374407
3031.000000	99.371642
3030.000000	99.369865
3029.000000	99.369283
3028.000000	99.370604
3027.000000	99.374337
3026.000000	99.378774
3025.000000	99.380479
3024.000000	99.377408
3023.000000	99.370854
3022.000000	99.364269
3021.000000	99.360974
3020.000000	99.362684
3019.000000	99.368649
3018.000000	99.375591
3017.000000	99.379443
3016.000000	99.378128
3015.000000	99.372644
3014.000000	99.365865
3013.000000	99.360838
3012.000000	99.359645
3011.000000	99.361962
3010.000000	99.364462
3009.000000	99.363064
3008.000000	99.356636
3007.000000	99.347771
3006.000000	99.339705
3005.000000	99.333623
3004.000000	99.329327
3003.000000	99.327025
3002.000000	99.327283
3001.000000	99.330015
3000.000000	99.334539
2999.000000	99.339925
2998.000000	99.344478
2997.000000	99.345946
2996.000000	99.343692
2995.000000	99.340035
2994.000000	99.337788
2993.000000	99.336512
2992.000000	99.332642
2991.000000	99.323639
2990.000000	99.310843
2989.000000	99.297883
2988.000000	99.287403
2987.000000	99.279888
2986.000000	99.274607
2985.000000	99.270374
2984.000000	99.265418
2983.000000	99.257815
2982.000000	99.246926
2981.000000	99.234384
2980.000000	99.222915
2979.000000	99.213846
2978.000000	99.205770
2977.000000	99.195876
2976.000000	99.182352
2975.000000	99.165398
2974.000000	99.146265
2973.000000	99.126057
2972.000000	99.105594
2971.000000	99.085562
2970.000000	99.066107
2969.000000	99.046456
2968.000000	99.025660
2967.000000	99.003832
2966.000000	98.982156
2965.000000	98.961306
2964.000000	98.940030
2963.000000	98.915879
2962.000000	98.887790
2961.000000	98.857870
2960.000000	98.830139
2959.000000	98.807193
2958.000000	98.788639
2957.000000	98.772932
2956.000000	98.760110
2955.000000	98.751729
2954.000000	98.748340
2953.000000	98.748206
2952.000000	98.748770
2951.000000	98.748790
2950.000000	98.748348
2949.000000	98.747365
2948.000000	98.744703
2947.000000	98.738673
2946.000000	98.727902
2945.000000	98.711494
2944.000000	98.688848
2943.000000	98.659672
2942.000000	98.624446
2941.000000	98.584652
2940.000000	98.542121
2939.000000	98.497826
2938.000000	98.451291
2937.000000	98.401424
2936.000000	98.347689
2935.000000	98.290458
2934.000000	98.230513
2933.000000	98.168455
2932.000000	98.104377
2931.000000	98.037865
2930.000000	97.968748
2929.000000	97.898118
2928.000000	97.828153
2927.000000	97.760433
2926.000000	97.695038
2925.000000	97.632339
2924.000000	97.575135
2923.000000	97.527810
2922.000000	97.493134
2921.000000	97.471048
2920.000000	97.461435
2919.000000	97.466977
2918.000000	97.492544
2917.000000	97.541556
2916.000000	97.612960
2915.000000	97.701384
2914.000000	97.799522
2913.000000	97.900904
2912.000000	98.000769
2911.000000	98.095296
2910.000000	98.180633
2909.000000	98.253774
2908.000000	98.314544
2907.000000	98.365812
2906.000000	98.411098
2905.000000	98.452078
2904.000000	98.488699
2903.000000	98.520877
2902.000000	98.549108
2901.000000	98.573961
2900.000000	98.595508
2899.000000	98.614725
2898.000000	98.634130
2897.000000	98.656584
2896.000000	98.683015
2895.000000	98.711356
2894.000000	98.737901
2893.000000	98.759960
2892.000000	98.777497
2891.000000	98.792497
2890.000000	98.806944
2889.000000	98.821437
2888.000000	98.835311
2887.000000	98.847645
2886.000000	98.858208
2885.000000	98.867809
2884.000000	98.877693
2883.000000	98.888177
2882.000000	98.897825
2881.000000	98.904401
2880.000000	98.906815
2879.000000	98.905734
2878.000000	98.902260
2877.000000	98.896566
2876.000000	98.888164
2875.000000	98.877087
2874.000000	98.864373
2873.000000	98.851594
2872.000000	98.840398
2871.000000	98.832253
2870.000000	98.827814
2869.000000	98.825988
2868.000000	98.823820
2867.000000	98.817824
2866.000000	98.805877
2865.000000	98.788017
2864.000000	98.765271
2863.000000	98.737857
2862.000000	98.704713
2861.000000	98.664834
2860.000000	98.618435
2859.000000	98.566280
2858.000000	98.508457
2857.000000	98.444731
2856.000000	98.376198
2855.000000	98.305802
2854.000000	98.237733
2853.000000	98.177268
2852.000000	98.131616
2851.000000	98.109764
2850.000000	98.119491
2849.000000	98.163679
2848.000000	98.238586
2847.000000	98.335213
2846.000000	98.442536
2845.000000	98.550907
2844.000000	98.653644
2843.000000	98.746718
2842.000000	98.827633
2841.000000	98.895182
2840.000000	98.950337
2839.000000	98.995891
2838.000000	99.034477
2837.000000	99.067237
2836.000000	99.094733
2835.000000	99.118331
2834.000000	99.139699
2833.000000	99.159270
2832.000000	99.176290
2831.000000	99.190554
2830.000000	99.203195
2829.000000	99.215471
2828.000000	99.227349
2827.000000	99.237787
2826.000000	99.246185
2825.000000	99.252989
2824.000000	99.258960
2823.000000	99.264471
2822.000000	99.269892
2821.000000	99.276165
2820.000000	99.284070
2819.000000	99.292752
2818.000000	99.299898
2817.000000	99.304098
2816.000000	99.306479
2815.000000	99.309123
2814.000000	99.312331
2813.000000	99.314774
2812.000000	99.316254
2811.000000	99.318651
2810.000000	99.323294
2809.000000	99.328529
2808.000000	99.331314
2807.000000	99.330828
2806.000000	99.329415
2805.000000	99.329987
2804.000000	99.333345
2803.000000	99.338121
2802.000000	99.342537
2801.000000	99.345781
2800.000000	99.348089
2799.000000	99.349957
2798.000000	99.351402
2797.000000	99.352051
2796.000000	99.351824
2795.000000	99.351155
2794.000000	99.350416
2793.000000	99.349685
2792.000000	99.349366
2791.000000	99.350478
2790.000000	99.353673
2789.000000	99.358345
2788.000000	99.363414
2787.000000	99.368639
2786.000000	99.374233
2785.000000	99.379377
2784.000000	99.382301
2783.000000	99.382267
2782.000000	99.380550
2781.000000	99.378889
2780.000000	99.377693
2779.000000	99.376560
2778.000000	99.375818
2777.000000	99.376369
2776.000000	99.378124
2775.000000	99.379797
2774.000000	99.380676
2773.000000	99.381799
2772.000000	99.384728
2771.000000	99.389625
2770.000000	99.395244
2769.000000	99.400515
2768.000000	99.405269
2767.000000	99.409429
2766.000000	99.412328
2765.000000	99.413316
2764.000000	99.412661
2763.000000	99.411439
2762.000000	99.410665
2761.000000	99.410696
2760.000000	99.411249
2759.000000	99.411772
2758.000000	99.412019
2757.000000	99.412348
2756.000000	99.413257
2755.000000	99.414716
2754.000000	99.416397
2753.000000	99.418501
2752.000000	99.421536
2751.000000	99.424910
2750.000000	99.426614
2749.000000	99.425158
2748.000000	99.421466
2747.000000	99.418076
2746.000000	99.416671
2745.000000	99.417016
2744.000000	99.417989
2743.000000	99.418759
2742.000000	99.418949
2741.000000	99.418464
2740.000000	99.417511
2739.000000	99.416520
2738.000000	99.416107
2737.000000	99.417292
2736.000000	99.421149
2735.000000	99.427349
2734.000000	99.433363
2733.000000	99.436298
2732.000000	99.435847
2731.000000	99.434557
2730.000000	99.434879
2729.000000	99.436599
2728.000000	99.437591
2727.000000	99.436513
2726.000000	99.434274
2725.000000	99.433286
2724.000000	99.435584
2723.000000	99.441311
2722.000000	99.448524
2721.000000	99.454449
2720.000000	99.457064
2719.000000	99.455719
2718.000000	99.451028
2717.000000	99.444964
2716.000000	99.440537
2715.000000	99.439939
2714.000000	99.442575
2713.000000	99.445712
2712.000000	99.447375
2711.000000	99.447822
2710.000000	99.448116
2709.000000	99.448494
2708.000000	99.448893
2707.000000	99.449984
2706.000000	99.452390
2705.000000	99.455155
2704.000000	99.456132
2703.000000	99.454229
2702.000000	99.450885
2701.000000	99.449125
2700.000000	99.451080
2699.000000	99.456087
2698.000000	99.461049
2697.000000	99.463033
2696.000000	99.461809
2695.000000	99.459680
2694.000000	99.458905
2693.000000	99.459906
2692.000000	99.461914
2691.000000	99.464206
2690.000000	99.466001
2689.000000	99.466057
2688.000000	99.463643
2687.000000	99.459848
2686.000000	99.457050
2685.000000	99.456832
2684.000000	99.458625
2683.000000	99.460260
2682.000000	99.459600
2681.000000	99.456108
2680.000000	99.451468
2679.000000	99.448476
2678.000000	99.448608
2677.000000	99.450579
2676.000000	99.451702
2675.000000	99.450663
2674.000000	99.448731
2673.000000	99.448477
2672.000000	99.451672
2671.000000	99.457982
2670.000000	99.464924
2669.000000	99.469132
2668.000000	99.468626
2667.000000	99.464350
2666.000000	99.459090
2665.000000	99.454662
2664.000000	99.450613
2663.000000	99.445936
2662.000000	99.441334
2661.000000	99.438723
2660.000000	99.438530
2659.000000	99.438636
2658.000000	99.436976
2657.000000	99.434772
2656.000000	99.435919
2655.000000	99.442628
2654.000000	99.452526
2653.000000	99.461014
2652.000000	99.465861
2651.000000	99.468304
2650.000000	99.469967
2649.000000	99.470546
2648.000000	99.469388
2647.000000	99.467833
2646.000000	99.468193
2645.000000	99.470696
2644.000000	99.473032
2643.000000	99.473168
2642.000000	99.471426
2641.000000	99.469366
2640.000000	99.467815
2639.000000	99.467026
2638.000000	99.467959
2637.000000	99.471800
2636.000000	99.477983
2635.000000	99.483906
2634.000000	99.487391
2633.000000	99.488793
2632.000000	99.489949
2631.000000	99.491590
2630.000000	99.492954
2629.000000	99.493805
2628.000000	99.495270
2627.000000	99.497974
2626.000000	99.500422
2625.000000	99.500454
2624.000000	99.497977
2623.000000	99.495245
2622.000000	99.494632
2621.000000	99.496980
2620.000000	99.501809
2619.000000	99.507844
2618.000000	99.512990
2617.000000	99.514866
2616.000000	99.512321
2615.000000	99.506544
2614.000000	99.500762
2613.000000	99.498804
2612.000000	99.502787
2611.000000	99.510594
2610.000000	99.515772
2609.000000	99.512076
2608.000000	99.499574
2607.000000	99.485672
2606.000000	99.479012
2605.000000	99.482622
2604.000000	99.493116
2603.000000	99.505322
2602.000000	99.516293
2601.000000	99.525266
2600.000000	99.531953
2599.000000	99.536114
2598.000000	99.538150
2597.000000	99.538954
2596.000000	99.539019
2595.000000	99.538326
2594.000000	99.537150
2593.000000	99.536020
2592.000000	99.534332
2591.000000	99.530142
2590.000000	99.522830
2589.000000	99.515631
2588.000000	99.513625
2587.000000	99.518344
2586.000000	99.525816
2585.000000	99.530936
2584.000000	99.532788
2583.000000	99.534665
2582.000000	99.539691
2581.000000	99.547560
2580.000000	99.554545
2579.000000	99.555688
2578.000000	99.548338
2577.000000	99.535495
2576.000000	99.524990
2575.000000	99.523081
2574.000000	99.528583
2573.000000	99.534602
2572.000000	99.535658
2571.000000	99.531931
2570.000000	99.527450
2569.000000	99.526571
2568.000000	99.532066
2567.000000	99.544058
2566.000000	99.559488
2565.000000	99.573698
2564.000000	99.583126
2563.000000	99.586128
2562.000000	99.582493
2561.000000	99.574317
2560.000000	99.566509
2559.000000	99.563121
2558.000000	99.562741
2557.000000	99.560211
2556.000000	99.553782
2555.000000	99.547712
2554.000000	99.546558
2553.000000	99.549665
2552.000000	99.553348
2551.000000	99.556042
2550.000000	99.558767
2549.000000	99.561749
2548.000000	99.563284
2547.000000	99.561618
2546.000000	99.556535
2545.000000	99.549680
2544.000000	99.544564
2543.000000	99.544991
2542.000000	99.551456
2541.000000	99.559371
2540.000000	99.562471
2539.000000	99.557939
2538.000000	99.547508
2537.000000	99.534668
2536.000000	99.522558
2535.000000	99.513844
2534.000000	99.509936
2533.000000	99.509286
2532.000000	99.507867
2531.000000	99.502829
2530.000000	99.495451
2529.000000	99.489796
2528.000000	99.488372
2527.000000	99.489732
2526.000000	99.490515
2525.000000	99.489288
2524.000000	99.487421
2523.000000	99.486435
2522.000000	99.485816
2521.000000	99.484171
2520.000000	99.481045
2519.000000	99.475982
2518.000000	99.467070
2517.000000	99.453065
2516.000000	99.437231
2515.000000	99.426496
2514.000000	99.425448
2513.000000	99.432251
2512.000000	99.440984
2511.000000	99.446646
2510.000000	99.447071
2509.000000	99.441994
2508.000000	99.432532
2507.000000	99.421602
2506.000000	99.413585
2505.000000	99.412669
2504.000000	99.420777
2503.000000	99.436080
2502.000000	99.453623
2501.000000	99.468761
2500.000000	99.480291
2499.000000	99.489551
2498.000000	99.496581
2497.000000	99.499379
2496.000000	99.497561
2495.000000	99.494812
2494.000000	99.496011
2493.000000	99.502525
2492.000000	99.511341
2491.000000	99.517981
2490.000000	99.519713
2489.000000	99.517485
2488.000000	99.515861
2487.000000	99.519586
2486.000000	99.528339
2485.000000	99.535635
2484.000000	99.534880
2483.000000	99.526542
2482.000000	99.518079
2481.000000	99.517178
2480.000000	99.525696
2479.000000	99.539413
2478.000000	99.552025
2477.000000	99.559752
2476.000000	99.563898
2475.000000	99.569226
2474.000000	99.578553
2473.000000	99.588805
2472.000000	99.593786
2471.000000	99.591047
2470.000000	99.584583
2469.000000	99.580354
2468.000000	99.580827
2467.000000	99.584888
2466.000000	99.591007
2465.000000	99.597998
2464.000000	99.603429
2463.000000	99.604514
2462.000000	99.601739
2461.000000	99.599516
2460.000000	99.601202
2459.000000	99.604537
2458.000000	99.604087
2457.000000	99.597845
2456.000000	99.589540
2455.000000	99.584201
2454.000000	99.583152
2453.000000	99.583913
2452.000000	99.583280
2451.000000	99.579593
2450.000000	99.573773
2449.000000	99.569614
2448.000000	99.571955
2447.000000	99.582401
2446.000000	99.596779
2445.000000	99.607979
2444.000000	99.611659
2443.000000	99.608958
2442.000000	99.604343
2441.000000	99.601713
2440.000000	99.601910
2439.000000	99.602841
2438.000000	99.601950
2437.000000	99.599292
2436.000000	99.597946
2435.000000	99.600857
2434.000000	99.607592
2433.000000	99.614742
2432.000000	99.619133
2431.000000	99.620372
2430.000000	99.620732
2429.000000	99.622953
2428.000000	99.627465
2427.000000	99.631357
2426.000000	99.630937
2425.000000	99.625691
2424.000000	99.618835
2423.000000	99.613558
2422.000000	99.609887
2421.000000	99.606057
2420.000000	99.601751
2419.000000	99.598815
2418.000000	99.599383
2417.000000	99.603841
2416.000000	99.610029
2415.000000	99.614309
2414.000000	99.614512
2413.000000	99.611977
2412.000000	99.609442
2411.000000	99.607269
2410.000000	99.604074
2409.000000	99.600985
2408.000000	99.601956
2407.000000	99.608265
2406.000000	99.615618
2405.000000	99.618921
2404.000000	99.617902
2403.000000	99.616192
2402.000000	99.616942
2401.000000	99.621182
2400.000000	99.628075
2399.000000	99.634367
2398.000000	99.635800
2397.000000	99.631733
2396.000000	99.626693
2395.000000	99.624923
2394.000000	99.625309
2393.000000	99.624524
2392.000000	99.622910
2391.000000	99.623776
2390.000000	99.627912
2389.000000	99.632212
2388.000000	99.633835
2387.000000	99.632128
2386.000000	99.628062
2385.000000	99.623824
2384.000000	99.622281
2383.000000	99.624952
2382.000000	99.629371
2381.000000	99.632638
2380.000000	99.635107
2379.000000	99.638028
2378.000000	99.639380
2377.000000	99.635587
2376.000000	99.627225
2375.000000	99.618634
2374.000000	99.613533
2373.000000	99.613488
2372.000000	99.619502
2371.000000	99.630017
2370.000000	99.639863
2369.000000	99.645966
2368.000000	99.648142
2367.000000	99.644214
2366.000000	99.629965
2365.000000	99.608642
2364.000000	99.592651
2363.000000	99.587207
2362.000000	99.585468
2361.000000	99.584594
2360.000000	99.589489
2359.000000	99.601870
2358.000000	99.613873
2357.000000	99.615948
2356.000000	99.608380
2355.000000	99.592283
2354.000000	99.578860
2353.000000	99.580150
2352.000000	99.595242
2351.000000	99.607947
2350.000000	99.604941
2349.000000	99.587344
2348.000000	99.566216
2347.000000	99.557285
2346.000000	99.566551
2345.000000	99.578733
2344.000000	99.578508
2343.000000	99.568255
2342.000000	99.564319
2341.000000	99.571097
2340.000000	99.575002
2339.000000	99.564264
2338.000000	99.544740
2337.000000	99.532974
2336.000000	99.534862
2335.000000	99.547640
2334.000000	99.567020
2333.000000	99.592592
2332.000000	99.612711
2331.000000	99.617960
2330.000000	99.603944
2329.000000	99.582884
2328.000000	99.560331
2327.000000	99.540923
2326.000000	99.526365
2325.000000	99.521117
2324.000000	99.525833
2323.000000	99.535772
2322.000000	99.540836
2321.000000	99.532752
2320.000000	99.509983
2319.000000	99.484090
2318.000000	99.464406
2317.000000	99.455711
2316.000000	99.453248
2315.000000	99.458713
2314.000000	99.472184
2313.000000	99.492787
2312.000000	99.511220
2311.000000	99.523907
2310.000000	99.530831
2309.000000	99.536759
2308.000000	99.543162
2307.000000	99.552275
2306.000000	99.562845
2305.000000	99.571510
2304.000000	99.573947
2303.000000	99.572578
2302.000000	99.572477
2301.000000	99.577664
2300.000000	99.585799
2299.000000	99.594957
2298.000000	99.601043
2297.000000	99.600447
2296.000000	99.589120
2295.000000	99.571421
2294.000000	99.556643
2293.000000	99.552366
2292.000000	99.556869
2291.000000	99.563643
2290.000000	99.567975
2289.000000	99.569066
2288.000000	99.567655
2287.000000	99.563719
2286.000000	99.557635
2285.000000	99.550685
2284.000000	99.545881
2283.000000	99.545127
2282.000000	99.547702
2281.000000	99.550776
2280.000000	99.553975
2279.000000	99.560104
2278.000000	99.570619
2277.000000	99.581911
2276.000000	99.588161
2275.000000	99.588186
2274.000000	99.587007
2273.000000	99.591914
2272.000000	99.605839
2271.000000	99.624233
2270.000000	99.637647
2269.000000	99.640482
2268.000000	99.637419
2267.000000	99.638555
2266.000000	99.646824
2265.000000	99.654729
2264.000000	99.655345
2263.000000	99.652303
2262.000000	99.654568
2261.000000	99.664058
2260.000000	99.673322
2259.000000	99.673509
2258.000000	99.662282
2257.000000	99.644374
2256.000000	99.627713
2255.000000	99.617938
2254.000000	99.615212
2253.000000	99.617473
2252.000000	99.625027
2251.000000	99.638904
2250.000000	99.654476
2249.000000	99.663444
2248.000000	99.663326
2247.000000	99.660593
2246.000000	99.661324
2245.000000	99.665289
2244.000000	99.671240
2243.000000	99.680841
2242.000000	99.692574
2241.000000	99.698693
2240.000000	99.694151
2239.000000	99.682996
2238.000000	99.669950
2237.000000	99.651800
2236.000000	99.624474
2235.000000	99.593987
2234.000000	99.572917
2233.000000	99.568861
2232.000000	99.581525
2231.000000	99.605989
2230.000000	99.631563
2229.000000	99.642638
2228.000000	99.631724
2227.000000	99.611153
2226.000000	99.603624
2225.000000	99.621150
2224.000000	99.657227
2223.000000	99.696249
2222.000000	99.723024
2221.000000	99.726754
2220.000000	99.706093
2219.000000	99.672044
2218.000000	99.640226
2217.000000	99.620385
2216.000000	99.615618
2215.000000	99.627089
2214.000000	99.652517
2213.000000	99.682593
2212.000000	99.706800
2211.000000	99.722020
2210.000000	99.729288
2209.000000	99.724818
2208.000000	99.702770
2207.000000	99.666500
2206.000000	99.630343
2205.000000	99.608779
2204.000000	99.606141
2203.000000	99.614726
2202.000000	99.620161
2201.000000	99.613196
2200.000000	99.601749
2199.000000	99.605914
2198.000000	99.634074
2197.000000	99.668756
2196.000000	99.685354
2195.000000	99.681234
2194.000000	99.675678
2193.000000	99.684022
2192.000000	99.702845
2191.000000	99.720099
2190.000000	99.727554
2189.000000	99.721098
2188.000000	99.700354
2187.000000	99.672598
2186.000000	99.648947
2185.000000	99.631824
2184.000000	99.611879
2183.000000	99.582536
2182.000000	99.553655
2181.000000	99.544966
2180.000000	99.566797
2179.000000	99.610340
2178.000000	99.655568
2177.000000	99.686668
2176.000000	99.702433
2175.000000	99.712965
2174.000000	99.724317
2173.000000	99.728362
2172.000000	99.711745
2171.000000	99.672439
2170.000000	99.622528
2169.000000	99.576394
2168.000000	99.540649
2167.000000	99.516671
2166.000000	99.507655
2165.000000	99.515979
2164.000000	99.533343
2163.000000	99.542673
2162.000000	99.539072
2161.000000	99.547773
2160.000000	99.609114
2159.000000	99.731232
2158.000000	99.864026
2157.000000	99.943294
2156.000000	99.954462
2155.000000	99.931321
2154.000000	99.908661
2153.000000	99.897624
2152.000000	99.894588
2151.000000	99.893369
2150.000000	99.888054
2149.000000	99.875272
2148.000000	99.858620
2147.000000	99.845381
2146.000000	99.838318
2145.000000	99.835130
2144.000000	99.834078
2143.000000	99.834289
2142.000000	99.833249
2141.000000	99.831233
2140.000000	99.835509
2139.000000	99.851340
2138.000000	99.870267
2137.000000	99.876719
2136.000000	99.865644
2135.000000	99.845060
2134.000000	99.821779
2133.000000	99.796095
2132.000000	99.770786
2131.000000	99.754308
2130.000000	99.751722
2129.000000	99.759577
2128.000000	99.771438
2127.000000	99.782449
2126.000000	99.787496
2125.000000	99.782003
2124.000000	99.767338
2123.000000	99.749672
2122.000000	99.731618
2121.000000	99.710481
2120.000000	99.686429
2119.000000	99.666016
2118.000000	99.655282
2117.000000	99.654907
2116.000000	99.663910
2115.000000	99.681660
2114.000000	99.702886
2113.000000	99.717335
2112.000000	99.719706
2111.000000	99.715457
2110.000000	99.712479
2109.000000	99.712369
2108.000000	99.713780
2107.000000	99.718444
2106.000000	99.727706
2105.000000	99.737279
2104.000000	99.741745
2103.000000	99.741557
2102.000000	99.740676
2101.000000	99.739616
2100.000000	99.735207
2099.000000	99.725312
2098.000000	99.711359
2097.000000	99.699131
2096.000000	99.697775
2095.000000	99.711844
2094.000000	99.731560
2093.000000	99.737995
2092.000000	99.723914
2091.000000	99.704203
2090.000000	99.700086
2089.000000	99.715978
2088.000000	99.735874
2087.000000	99.740915
2086.000000	99.726004
2085.000000	99.701636
2084.000000	99.683816
2083.000000	99.680788
2082.000000	99.686662
2081.000000	99.688629
2080.000000	99.680925
2079.000000	99.669455
2078.000000	99.663241
2077.000000	99.666627
2076.000000	99.680350
2075.000000	99.702705
2074.000000	99.725934
2073.000000	99.738471
2072.000000	99.737134
2071.000000	99.731721
2070.000000	99.732265
2069.000000	99.736269
2068.000000	99.733663
2067.000000	99.720318
2066.000000	99.701474
2065.000000	99.685309
2064.000000	99.676538
2063.000000	99.673884
2062.000000	99.672338
2061.000000	99.670320
2060.000000	99.673618
2059.000000	99.685725
2058.000000	99.695547
2057.000000	99.686311
2056.000000	99.659307
2055.000000	99.636085
2054.000000	99.630003
2053.000000	99.627961
2052.000000	99.611369
2051.000000	99.584904
2050.000000	99.571761
2049.000000	99.584981
2048.000000	99.614285
2047.000000	99.641939
2046.000000	99.660269
2045.000000	99.669771
2044.000000	99.671594
2043.000000	99.666885
2042.000000	99.658230
2041.000000	99.650361
2040.000000	99.650144
2039.000000	99.661419
2038.000000	99.678331
2037.000000	99.691332
2036.000000	99.704541
2035.000000	99.737139
2034.000000	99.797446
2033.000000	99.863949
2032.000000	99.903503
2031.000000	99.903392
2030.000000	99.876036
2029.000000	99.842962
2028.000000	99.823532
2027.000000	99.826781
2026.000000	99.843295
2025.000000	99.851014
2024.000000	99.837799
2023.000000	99.813773
2022.000000	99.797525
2021.000000	99.798146
2020.000000	99.813405
2019.000000	99.836069
2018.000000	99.857071
2017.000000	99.870444
2016.000000	99.879380
2015.000000	99.889247
2014.000000	99.894231
2013.000000	99.881852
2012.000000	99.851739
2011.000000	99.817959
2010.000000	99.791640
2009.000000	99.775093
2008.000000	99.773179
2007.000000	99.793425
2006.000000	99.829102
2005.000000	99.857091
2004.000000	99.860438
2003.000000	99.842046
2002.000000	99.814381
2001.000000	99.788359
2000.000000	99.771545
1999.000000	99.764869
1998.000000	99.760690
1997.000000	99.754908
1996.000000	99.758182
1995.000000	99.781294
1994.000000	99.812703
1993.000000	99.828154
1992.000000	99.824807
1991.000000	99.824096
1990.000000	99.834101
1989.000000	99.837792
1988.000000	99.825465
1987.000000	99.809983
1986.000000	99.798737
1985.000000	99.776372
1984.000000	99.732702
1983.000000	99.687197
1982.000000	99.665910
1981.000000	99.669904
1980.000000	99.685627
1979.000000	99.713033
1978.000000	99.758561
1977.000000	99.807813
1976.000000	99.833225
1975.000000	99.827446
1974.000000	99.807349
1973.000000	99.793993
1972.000000	99.802440
1971.000000	99.836717
1970.000000	99.881163
1969.000000	99.908387
1968.000000	99.908644
1967.000000	99.901434
1966.000000	99.906966
1965.000000	99.920351
1964.000000	99.925726
1963.000000	99.916869
1962.000000	99.891623
1961.000000	99.844945
1960.000000	99.782286
1959.000000	99.726888
1958.000000	99.700609
1957.000000	99.705239
1956.000000	99.728464
1955.000000	99.757862
1954.000000	99.782529
1953.000000	99.792735
1952.000000	99.787938
1951.000000	99.778387
1950.000000	99.773952
1949.000000	99.777275
1948.000000	99.789289
1947.000000	99.810628
1946.000000	99.833496
1945.000000	99.844296
1944.000000	99.840671
1943.000000	99.835223
1942.000000	99.835372
1941.000000	99.833072
1940.000000	99.825446
1939.000000	99.827273
1938.000000	99.850964
1937.000000	99.885786
1936.000000	99.908131
1935.000000	99.907950
1934.000000	99.893560
1933.000000	99.875630
1932.000000	99.857378
1931.000000	99.838973
1930.000000	99.823753
1929.000000	99.816884
1928.000000	99.821465
1927.000000	99.836060
1926.000000	99.853526
1925.000000	99.864240
1924.000000	99.861999
1923.000000	99.847689
1922.000000	99.826715
1921.000000	99.804818
1920.000000	99.787739
1919.000000	99.780541
1918.000000	99.782093
1917.000000	99.784152
1916.000000	99.782093
1915.000000	99.780924
1914.000000	99.785861
1913.000000	99.794110
1912.000000	99.798401
1911.000000	99.795360
1910.000000	99.788432
1909.000000	99.784980
1908.000000	99.791843
1907.000000	99.809355
1906.000000	99.827266
1905.000000	99.831165
1904.000000	99.816437
1903.000000	99.793786
1902.000000	99.776954
1901.000000	99.769262
1900.000000	99.766463
1899.000000	99.766759
1898.000000	99.770970
1897.000000	99.777830
1896.000000	99.785188
1895.000000	99.794913
1894.000000	99.810314
1893.000000	99.828576
1892.000000	99.841337
1891.000000	99.841968
1890.000000	99.830520
1889.000000	99.815954
1888.000000	99.810702
1887.000000	99.819334
1886.000000	99.834689
1885.000000	99.845326
1884.000000	99.846920
1883.000000	99.844753
1882.000000	99.843870
1881.000000	99.842119
1880.000000	99.836798
1879.000000	99.831537
1878.000000	99.831469
1877.000000	99.836860
1876.000000	99.844767
1875.000000	99.852655
1874.000000	99.857174
1873.000000	99.854294
1872.000000	99.845012
1871.000000	99.837684
1870.000000	99.840128
1869.000000	99.850304
1868.000000	99.858999
1867.000000	99.862344
1866.000000	99.863777
1865.000000	99.865974
1864.000000	99.869816
1863.000000	99.875585
1862.000000	99.879727
1861.000000	99.875104
1860.000000	99.859892
1859.000000	99.842692
1858.000000	99.834185
1857.000000	99.836512
1856.000000	99.844485
1855.000000	99.853655
1854.000000	99.861130
1853.000000	99.862539
1852.000000	99.856257
1851.000000	99.848673
1850.000000	99.847310
1849.000000	99.851887
1848.000000	99.855834
1847.000000	99.855814
1846.000000	99.854880
1845.000000	99.856987
1844.000000	99.862337
1843.000000	99.868422
1842.000000	99.873156
1841.000000	99.874701
1840.000000	99.873816
1839.000000	99.874644
1838.000000	99.879746
1837.000000	99.886491
1836.000000	99.890335
1835.000000	99.890458
1834.000000	99.888810
1833.000000	99.886906
1832.000000	99.886956
1831.000000	99.890623
1830.000000	99.893902
1829.000000	99.891243
1828.000000	99.883607
1827.000000	99.875603
1826.000000	99.869770
1825.000000	99.867899
1824.000000	99.872428
1823.000000	99.882098
1822.000000	99.889968
1821.000000	99.890026
1820.000000	99.884938
1819.000000	99.883317
1818.000000	99.889467
1817.000000	99.899640
1816.000000	99.907513
1815.000000	99.910542
1814.000000	99.909016
1813.000000	99.903200
1812.000000	99.894555
1811.000000	99.885035
1810.000000	99.875913
1809.000000	99.868199
1808.000000	99.862236
1807.000000	99.856871
1806.000000	99.848034
1805.000000	99.829877
1804.000000	99.800324
1803.000000	99.764154
1802.000000	99.728691
1801.000000	99.698517
1800.000000	99.674997
1799.000000	99.657062
1798.000000	99.643625
1797.000000	99.633024
1796.000000	99.622476
1795.000000	99.610360
1794.000000	99.598146
1793.000000	99.592312
1792.000000	99.603192
1791.000000	99.633954
1790.000000	99.675876
1789.000000	99.715989
1788.000000	99.745164
1787.000000	99.762709
1786.000000	99.775025
1785.000000	99.788659
1784.000000	99.804883
1783.000000	99.821764
1782.000000	99.836403
1781.000000	99.844960
1780.000000	99.846850
1779.000000	99.845663
1778.000000	99.845156
1777.000000	99.845486
1776.000000	99.846749
1775.000000	99.851478
1774.000000	99.860477
1773.000000	99.869036
1772.000000	99.872415
1771.000000	99.871412
1770.000000	99.868659
1769.000000	99.865337
1768.000000	99.863978
1767.000000	99.868474
1766.000000	99.878016
1765.000000	99.886045
1764.000000	99.887122
1763.000000	99.881153
1762.000000	99.871053
1761.000000	99.859872
1760.000000	99.850169
1759.000000	99.840856
1758.000000	99.828704
1757.000000	99.811572
1756.000000	99.793882
1755.000000	99.781096
1754.000000	99.768779
1753.000000	99.747412
1752.000000	99.715801
1751.000000	99.686245
1750.000000	99.668809
1749.000000	99.657157
1748.000000	99.642824
1747.000000	99.627217
1746.000000	99.611684
1745.000000	99.593907
1744.000000	99.576226
1743.000000	99.564321
1742.000000	99.557237
1741.000000	99.548052
1740.000000	99.536096
1739.000000	99.528450
1738.000000	99.525404
1737.000000	99.518615
1736.000000	99.506099
1735.000000	99.502436
1734.000000	99.527944
1733.000000	99.569380
1732.000000	99.600906
1731.000000	99.623970
1730.000000	99.648571
1729.000000	99.672823
1728.000000	99.691033
1727.000000	99.704607
1726.000000	99.716299
1725.000000	99.725092
1724.000000	99.730786
1723.000000	99.736670
1722.000000	99.744311
1721.000000	99.750445
1720.000000	99.753150
1719.000000	99.753695
1718.000000	99.750542
1717.000000	99.746200
1716.000000	99.743366
1715.000000	99.741098
1714.000000	99.740997
1713.000000	99.741282
1712.000000	99.738011
1711.000000	99.733076
1710.000000	99.730531
1709.000000	99.728642
1708.000000	99.722660
1707.000000	99.713227
1706.000000	99.705957
1705.000000	99.703337
1704.000000	99.698314
1703.000000	99.682132
1702.000000	99.651404
1701.000000	99.612829
1700.000000	99.584371
1699.000000	99.575512
1698.000000	99.576998
1697.000000	99.571485
1696.000000	99.552904
1695.000000	99.529920
1694.000000	99.513128
1693.000000	99.500366
1692.000000	99.484252
1691.000000	99.460633
1690.000000	99.430716
1689.000000	99.400815
1688.000000	99.378234
1687.000000	99.362626
1686.000000	99.344546
1685.000000	99.312383
1684.000000	99.267030
1683.000000	99.228552
1682.000000	99.206838
1681.000000	99.190983
1680.000000	99.173380
1679.000000	99.152859
1678.000000	99.127577
1677.000000	99.091746
1676.000000	99.046510
1675.000000	99.008556
1674.000000	98.990714
1673.000000	98.980987
1672.000000	98.961670
1671.000000	98.927561
1670.000000	98.887662
1669.000000	98.856832
1668.000000	98.841013
1667.000000	98.834013
1666.000000	98.823667
1665.000000	98.801761
1664.000000	98.768733
1663.000000	98.732512
1662.000000	98.701199
1661.000000	98.674418
1660.000000	98.649881
1659.000000	98.629412
1658.000000	98.612700
1657.000000	98.596483
1656.000000	98.578446
1655.000000	98.563405
1654.000000	98.554569
1653.000000	98.551449
1652.000000	98.545832
1651.000000	98.540411
1650.000000	98.529002
1649.000000	98.515182
1648.000000	98.500817
1647.000000	98.495648
1646.000000	98.508870
1645.000000	98.528522
1644.000000	98.541369
1643.000000	98.546575
1642.000000	98.548946
1641.000000	98.550568
1640.000000	98.552042
1639.000000	98.555209
1638.000000	98.562077
1637.000000	98.572609
1636.000000	98.584425
1635.000000	98.596863
1634.000000	98.607964
1633.000000	98.617952
1632.000000	98.625505
1631.000000	98.631596
1630.000000	98.638380
1629.000000	98.647063
1628.000000	98.657248
1627.000000	98.669132
1626.000000	98.682041
1625.000000	98.695688
1624.000000	98.714573
1623.000000	98.742829
1622.000000	98.773765
1621.000000	98.796205
1620.000000	98.811003
1619.000000	98.826468
1618.000000	98.846564
1617.000000	98.867904
1616.000000	98.887203
1615.000000	98.906202
1614.000000	98.925126
1613.000000	98.940243
1612.000000	98.951000
1611.000000	98.962591
1610.000000	98.979474
1609.000000	98.997857
1608.000000	99.012506
1607.000000	99.024050
1606.000000	99.033399
1605.000000	99.037338
1604.000000	99.036102
1603.000000	99.035120
1602.000000	99.036803
1601.000000	99.037597
1600.000000	99.036012
1599.000000	99.035649
1598.000000	99.037082
1597.000000	99.035712
1596.000000	99.029365
1595.000000	99.020777
1594.000000	99.010749
1593.000000	98.995375
1592.000000	98.974511
1591.000000	98.954846
1590.000000	98.940216
1589.000000	98.925474
1588.000000	98.905090
1587.000000	98.880067
1586.000000	98.851776
1585.000000	98.816633
1584.000000	98.773799
1583.000000	98.730747
1582.000000	98.693304
1581.000000	98.659071
1580.000000	98.626234
1579.000000	98.600670
1578.000000	98.588064
1577.000000	98.587022
1576.000000	98.596036
1575.000000	98.616041
1574.000000	98.640039
1573.000000	98.659488
1572.000000	98.675300
1571.000000	98.694730
1570.000000	98.722343
1569.000000	98.747994
1568.000000	98.762299
1567.000000	98.770662
1566.000000	98.776979
1565.000000	98.779720
1564.000000	98.778680
1563.000000	98.778050
1562.000000	98.777347
1561.000000	98.769718
1560.000000	98.751813
1559.000000	98.713563
1558.000000	98.677649
1557.000000	98.652100
1556.000000	98.628783
1555.000000	98.607537
1554.000000	98.589032
1553.000000	98.568077
1552.000000	98.537420
1551.000000	98.492696
1550.000000	98.434956
1549.000000	98.370403
1548.000000	98.303401
1547.000000	98.228007
1546.000000	98.132789
1545.000000	98.014377
1544.000000	97.888911
1543.000000	97.779346
1542.000000	97.689996
1541.000000	97.614616
1540.000000	97.568543
1539.000000	97.568948
1538.000000	97.585537
1537.000000	97.592088
1536.000000	97.588337
1535.000000	97.583628
1534.000000	97.582450
1533.000000	97.580251
1532.000000	97.572459
1531.000000	97.558995
1530.000000	97.537637
1529.000000	97.504654
1528.000000	97.459031
1527.000000	97.403743
1526.000000	97.344251
1525.000000	97.287601
1524.000000	97.236499
1523.000000	97.183169
1522.000000	97.114454
1521.000000	97.038274
1520.000000	96.978670
1519.000000	96.935152
1518.000000	96.885631
1517.000000	96.816930
1516.000000	96.742586
1515.000000	96.680319
1514.000000	96.623319
1513.000000	96.559252
1512.000000	96.492318
1511.000000	96.433898
1510.000000	96.382802
1509.000000	96.323450
1508.000000	96.241167
1507.000000	96.139970
1506.000000	96.053425
1505.000000	95.992396
1504.000000	95.946925
1503.000000	95.902577
1502.000000	95.849946
1501.000000	95.783685
1500.000000	95.708354
1499.000000	95.631783
1498.000000	95.548919
1497.000000	95.453780
1496.000000	95.364429
1495.000000	95.299161
1494.000000	95.246133
1493.000000	95.183877
1492.000000	95.105659
1491.000000	95.020539
1490.000000	94.940954
1489.000000	94.873460
1488.000000	94.815485
1487.000000	94.758824
1486.000000	94.698064
1485.000000	94.630806
1484.000000	94.557979
1483.000000	94.482167
1482.000000	94.403425
1481.000000	94.324798
1480.000000	94.252608
1479.000000	94.185668
1478.000000	94.112195
1477.000000	94.023077
1476.000000	93.924547
1475.000000	93.828069
1474.000000	93.730371
1473.000000	93.622251
1472.000000	93.519583
1471.000000	93.442203
1470.000000	93.381670
1469.000000	93.321793
1468.000000	93.258689
1467.000000	93.193911
1466.000000	93.123662
1465.000000	93.043767
1464.000000	92.966964
1463.000000	92.908175
1462.000000	92.860335
1461.000000	92.807434
1460.000000	92.740696
1459.000000	92.656233
1458.000000	92.548687
1457.000000	92.437978
1456.000000	92.370281
1455.000000	92.340679
1454.000000	92.309027
1453.000000	92.259020
1452.000000	92.198847
1451.000000	92.140119
1450.000000	92.081391
1449.000000	92.016496
1448.000000	91.951535
1447.000000	91.898506
1446.000000	91.853971
1445.000000	91.805153
1444.000000	91.749577
1443.000000	91.693647
1442.000000	91.640329
1441.000000	91.585590
1440.000000	91.525178
1439.000000	91.456512
1438.000000	91.377977
1437.000000	91.298170
1436.000000	91.239154
1435.000000	91.205339
1434.000000	91.171901
1433.000000	91.121079
1432.000000	91.057036
1431.000000	90.992223
1430.000000	90.929035
1429.000000	90.863207
1428.000000	90.798361
1427.000000	90.738086
1426.000000	90.674020
1425.000000	90.596238
1424.000000	90.512205
1423.000000	90.437006
1422.000000	90.363966
1421.000000	90.272466
1420.000000	90.159606
1419.000000	90.052115
1418.000000	89.971666
1417.000000	89.906397
1416.000000	89.839851
1415.000000	89.766140
1414.000000	89.681246
1413.000000	89.584625
1412.000000	89.486752
1411.000000	89.399467
1410.000000	89.318111
1409.000000	89.229944
1408.000000	89.135615
1407.000000	89.044809
1406.000000	88.958146
1405.000000	88.870660
1404.000000	88.791397
1403.000000	88.730768
1402.000000	88.676094
1401.000000	88.607352
1400.000000	88.525118
1399.000000	88.448634
1398.000000	88.381894
1397.000000	88.307613
1396.000000	88.221458
1395.000000	88.142826
1394.000000	88.084976
1393.000000	88.040142
1392.000000	88.002709
1391.000000	87.973995
1390.000000	87.950588
1389.000000	87.929359
1388.000000	87.923431
1387.000000	87.952357
1386.000000	88.010013
1385.000000	88.074091
1384.000000	88.142279
1383.000000	88.225622
1382.000000	88.323605
1381.000000	88.427660
1380.000000	88.541271
1379.000000	88.673741
1378.000000	88.817980
1377.000000	88.958636
1376.000000	89.099660
1375.000000	89.260846
1374.000000	89.444689
1373.000000	89.629353
1372.000000	89.802325
1371.000000	89.971458
1370.000000	90.146041
1369.000000	90.327912
1368.000000	90.514277
1367.000000	90.696721
1366.000000	90.865786
1365.000000	91.025894
1364.000000	91.197906
1363.000000	91.396199
1362.000000	91.606146
1361.000000	91.803105
1360.000000	91.983838
1359.000000	92.156149
1358.000000	92.320463
1357.000000	92.475421
1356.000000	92.626664
1355.000000	92.777854
1354.000000	92.922502
1353.000000	93.054959
1352.000000	93.180129
1351.000000	93.303483
1350.000000	93.422086
1349.000000	93.530954
1348.000000	93.631962
1347.000000	93.728639
1346.000000	93.820042
1345.000000	93.905485
1344.000000	93.987660
1343.000000	94.066233
1342.000000	94.137374
1341.000000	94.203577
1340.000000	94.275415
1339.000000	94.356705
1338.000000	94.436690
1337.000000	94.507753
1336.000000	94.575855
1335.000000	94.646912
1334.000000	94.718033
1333.000000	94.786522
1332.000000	94.857074
1331.000000	94.933774
1330.000000	95.012510
1329.000000	95.086888
1328.000000	95.155859
1327.000000	95.220734
1326.000000	95.281009
1325.000000	95.336742
1324.000000	95.390570
1323.000000	95.442795
1322.000000	95.490228
1321.000000	95.532541
1320.000000	95.574066
1319.000000	95.616985
1318.000000	95.658617
1317.000000	95.698540
1316.000000	95.741000
1315.000000	95.787970
1314.000000	95.836815
1313.000000	95.886816
1312.000000	95.940690
1311.000000	95.997583
1310.000000	96.051873
1309.000000	96.101092
1308.000000	96.148183
1307.000000	96.194617
1306.000000	96.238429
1305.000000	96.279972
1304.000000	96.323229
1303.000000	96.368322
1302.000000	96.409865
1301.000000	96.445153
1300.000000	96.478163
1299.000000	96.513283
1298.000000	96.550932
1297.000000	96.590625
1296.000000	96.631949
1295.000000	96.670917
1294.000000	96.701649
1293.000000	96.723352
1292.000000	96.740111
1291.000000	96.753453
1290.000000	96.761209
1289.000000	96.764786
1288.000000	96.770263
1287.000000	96.780376
1286.000000	96.791665
1285.000000	96.801827
1284.000000	96.813642
1283.000000	96.829126
1282.000000	96.845437
1281.000000	96.859070
1280.000000	96.870037
1279.000000	96.880420
1278.000000	96.892568
1277.000000	96.909281
1276.000000	96.931123
1275.000000	96.953361
1274.000000	96.970269
1273.000000	96.982651
1272.000000	96.996210
1271.000000	97.012431
1270.000000	97.026731
1269.000000	97.035996
1268.000000	97.041759
1267.000000	97.045461
1266.000000	97.047030
1265.000000	97.049408
1264.000000	97.057838
1263.000000	97.072427
1262.000000	97.086867
1261.000000	97.096799
1260.000000	97.104304
1259.000000	97.112660
1258.000000	97.121528
1257.000000	97.129013
1256.000000	97.133551
1255.000000	97.132616
1254.000000	97.124619
1253.000000	97.113161
1252.000000	97.104578
1251.000000	97.100642
1250.000000	97.097738
1249.000000	97.093133
1248.000000	97.086997
1247.000000	97.078064
1246.000000	97.063773
1245.000000	97.046449
1244.000000	97.033188
1243.000000	97.027019
1242.000000	97.023489
1241.000000	97.018531
1240.000000	97.013937
1239.000000	97.011985
1238.000000	97.009916
1237.000000	97.004300
1236.000000	96.997145
1235.000000	96.993799
1234.000000	96.997457
1233.000000	97.008297
1232.000000	97.025448
1231.000000	97.046696
1230.000000	97.068801
1229.000000	97.091168
1228.000000	97.116812
1227.000000	97.148067
1226.000000	97.183634
1225.000000	97.221316
1224.000000	97.260873
1223.000000	97.302029
1222.000000	97.342427
1221.000000	97.379604
1220.000000	97.413408
1219.000000	97.445550
1218.000000	97.478153
1217.000000	97.512414
1216.000000	97.546346
1215.000000	97.574667
1214.000000	97.593963
1213.000000	97.607514
1212.000000	97.621092
1211.000000	97.634310
1210.000000	97.640687
1209.000000	97.636436
1208.000000	97.625268
1207.000000	97.613742
1206.000000	97.605726
1205.000000	97.602148
1204.000000	97.602349
1203.000000	97.604280
1202.000000	97.606130
1201.000000	97.609007
1200.000000	97.615629
1199.000000	97.626335
1198.000000	97.638908
1197.000000	97.652520
1196.000000	97.668674
1195.000000	97.687689
1194.000000	97.707572
1193.000000	97.726634
1192.000000	97.744390
1191.000000	97.759825
1190.000000	97.771962
1189.000000	97.782184
1188.000000	97.792645
1187.000000	97.802263
1186.000000	97.807439
1185.000000	97.807264
1184.000000	97.804532
1183.000000	97.801591
1182.000000	97.798633
1181.000000	97.796185
1180.000000	97.795796
1179.000000	97.797206
1178.000000	97.797867
1177.000000	97.796118
1176.000000	97.792200
1175.000000	97.786172
1174.000000	97.777744
1173.000000	97.768358
1172.000000	97.760780
1171.000000	97.756243
1170.000000	97.754032
1169.000000	97.753376
1168.000000	97.753192
1167.000000	97.750779
1166.000000	97.744416
1165.000000	97.737194
1164.000000	97.734801
1163.000000	97.739098
1162.000000	97.746674
1161.000000	97.753956
1160.000000	97.760557
1159.000000	97.767593
1158.000000	97.776248
1157.000000	97.788273
1156.000000	97.804841
1155.000000	97.824077
1154.000000	97.842436
1153.000000	97.858887
1152.000000	97.875116
1151.000000	97.892013
1150.000000	97.909118
1149.000000	97.927284
1148.000000	97.948195
1147.000000	97.970913
1146.000000	97.992290
1145.000000	98.011235
1144.000000	98.029402
1143.000000	98.047492
1142.000000	98.064097
1141.000000	98.078584
1140.000000	98.092080
1139.000000	98.105224
1138.000000	98.117620
1137.000000	98.129794
1136.000000	98.143154
1135.000000	98.157912
1134.000000	98.173240
1133.000000	98.188788
1132.000000	98.203588
1131.000000	98.214264
1130.000000	98.217684
1129.000000	98.215292
1128.000000	98.212038
1127.000000	98.211577
1126.000000	98.214852
1125.000000	98.221855
1124.000000	98.231235
1123.000000	98.238836
1122.000000	98.240677
1121.000000	98.237665
1120.000000	98.234149
1119.000000	98.231966
1118.000000	98.228730
1117.000000	98.221727
1116.000000	98.210449
1115.000000	98.195560
1114.000000	98.178753
1113.000000	98.163723
1112.000000	98.154294
1111.000000	98.151048
1110.000000	98.151587
1109.000000	98.153502
1108.000000	98.155203
1107.000000	98.154699
1106.000000	98.151039
1105.000000	98.146522
1104.000000	98.144282
1103.000000	98.143913
1102.000000	98.142055
1101.000000	98.136757
1100.000000	98.129332
1099.000000	98.121344
1098.000000	98.114058
1097.000000	98.108397
1096.000000	98.103368
1095.000000	98.095863
1094.000000	98.084969
1093.000000	98.074494
1092.000000	98.067338
1091.000000	98.059463
1090.000000	98.043749
1089.000000	98.018824
1088.000000	97.989223
1087.000000	97.958050
1086.000000	97.925346
1085.000000	97.893655
1084.000000	97.869178
1083.000000	97.854712
1082.000000	97.845501
1081.000000	97.834789
1080.000000	97.821596
1079.000000	97.811412
1078.000000	97.811141
1077.000000	97.824456
1076.000000	97.849199
1075.000000	97.878405
1074.000000	97.905467
1073.000000	97.928547
1072.000000	97.948132
1071.000000	97.961954
1070.000000	97.966768
1069.000000	97.964819
1068.000000	97.963623
1067.000000	97.967960
1066.000000	97.975801
1065.000000	97.983484
1064.000000	97.991133
1063.000000	98.000414
1062.000000	98.009805
1061.000000	98.015295
1060.000000	98.015315
1059.000000	98.013145
1058.000000	98.014170
1057.000000	98.020779
1056.000000	98.029593
1055.000000	98.034115
1054.000000	98.031113
1053.000000	98.024154
1052.000000	98.020637
1051.000000	98.025956
1050.000000	98.040589
1049.000000	98.060381
1048.000000	98.078303
1047.000000	98.088548
1046.000000	98.091482
1045.000000	98.092858
1044.000000	98.096261
1043.000000	98.098641
1042.000000	98.095001
1041.000000	98.085276
1040.000000	98.073976
1039.000000	98.065448
1038.000000	98.062027
1037.000000	98.063957
1036.000000	98.067774
1035.000000	98.067203
1034.000000	98.059822
1033.000000	98.051097
1032.000000	98.048231
1031.000000	98.052020
1030.000000	98.058825
1029.000000	98.068141
1028.000000	98.082570
1027.000000	98.100956
1026.000000	98.117378
1025.000000	98.127964
1024.000000	98.134997
1023.000000	98.143686
1022.000000	98.157959
1021.000000	98.178942
1020.000000	98.203952
1019.000000	98.226815
1018.000000	98.242521
1017.000000	98.251752
1016.000000	98.258627
1015.000000	98.265794
1014.000000	98.275196
1013.000000	98.291344
1012.000000	98.318144
1011.000000	98.352413
1010.000000	98.385364
1009.000000	98.411473
1008.000000	98.432482
1007.000000	98.452355
1006.000000	98.472632
1005.000000	98.493479
1004.000000	98.515580
1003.000000	98.539156
1002.000000	98.563319
1001.000000	98.587396
1000.000000	98.611292
999.000000	98.634796
998.000000	98.658612
997.000000	98.685472
996.000000	98.717311
995.000000	98.751165
994.000000	98.780445
993.000000	98.801317
992.000000	98.816363
991.000000	98.832083
990.000000	98.853661
989.000000	98.881209
988.000000	98.910004
987.000000	98.935554
986.000000	98.958844
985.000000	98.984220
984.000000	99.010706
983.000000	99.029569
982.000000	99.034118
981.000000	99.028770
980.000000	99.024306
979.000000	99.025796
978.000000	99.029345
977.000000	99.029196
976.000000	99.024040
975.000000	99.017583
974.000000	99.016299
973.000000	99.025311
972.000000	99.042550
971.000000	99.057758
970.000000	99.061569
969.000000	99.055599
968.000000	99.050692
967.000000	99.056236
966.000000	99.073986
965.000000	99.100407
964.000000	99.130109
963.000000	99.156763
962.000000	99.175575
961.000000	99.186987
960.000000	99.195999
959.000000	99.207655
958.000000	99.224609
957.000000	99.247215
956.000000	99.272811
955.000000	99.296026
954.000000	99.313436
953.000000	99.327304
952.000000	99.341705
951.000000	99.355970
950.000000	99.365794
949.000000	99.370107
948.000000	99.372638
947.000000	99.376612
946.000000	99.381267
945.000000	99.384243
944.000000	99.384620
943.000000	99.383497
942.000000	99.384006
941.000000	99.390276
940.000000	99.403689
939.000000	99.420513
938.000000	99.435814
937.000000	99.449491
936.000000	99.465422
935.000000	99.484962
934.000000	99.504318
933.000000	99.518566
932.000000	99.525999
931.000000	99.528366
930.000000	99.529176
929.000000	99.531929
928.000000	99.538205
927.000000	99.547346
926.000000	99.558686
925.000000	99.572542
924.000000	99.587854
923.000000	99.601008
922.000000	99.609442
921.000000	99.614740
920.000000	99.620183
919.000000	99.627157
918.000000	99.635894
917.000000	99.647056
916.000000	99.659664
915.000000	99.669956
914.000000	99.675630
913.000000	99.679122
912.000000	99.683317
911.000000	99.686902
910.000000	99.687847
909.000000	99.688936
908.000000	99.694948
907.000000	99.706021
906.000000	99.718361
905.000000	99.730051
904.000000	99.742028
903.000000	99.754781
902.000000	99.768524
901.000000	99.784854
900.000000	99.803935
899.000000	99.821733
898.000000	99.835167
897.000000	99.847191
896.000000	99.861834
895.000000	99.876868
894.000000	99.887975
893.000000	99.898006
892.000000	99.914027
891.000000	99.936214
890.000000	99.956711
889.000000	99.968318
888.000000	99.965620
887.000000	99.935839
886.000000	99.858012
885.000000	99.712176
884.000000	99.481334
883.000000	99.146224
882.000000	98.684863
881.000000	98.083148
880.000000	97.338501
879.000000	96.455011
878.000000	95.448210
877.000000	94.348388
876.000000	93.187395
875.000000	91.983450
874.000000	90.791082
873.000000	89.798005
872.000000	89.344726
871.000000	89.739055
870.000000	90.982439
869.000000	92.707281
868.000000	94.411353
867.000000	95.761940
866.000000	96.701957
865.000000	97.334766
864.000000	97.772851
863.000000	98.087454
862.000000	98.326746
861.000000	98.523663
860.000000	98.688014
859.000000	98.814915
858.000000	98.908715
857.000000	98.984961
856.000000	99.053352
855.000000	99.112757
854.000000	99.162035
853.000000	99.202482
852.000000	99.225919
851.000000	99.215277
850.000000	99.168098
849.000000	99.113482
848.000000	99.095647
847.000000	99.138250
846.000000	99.227159
845.000000	99.326924
844.000000	99.409322
843.000000	99.466826
842.000000	99.505561
841.000000	99.532322
840.000000	99.550211
839.000000	99.562219
838.000000	99.572977
837.000000	99.585362
836.000000	99.599102
835.000000	99.614773
834.000000	99.635369
833.000000	99.660863
832.000000	99.684612
831.000000	99.700156
830.000000	99.709651
829.000000	99.720741
828.000000	99.736113
827.000000	99.751591
826.000000	99.764080
825.000000	99.775076
824.000000	99.785338
823.000000	99.791945
822.000000	99.792695
821.000000	99.789264
820.000000	99.784979
819.000000	99.783312
818.000000	99.788179
817.000000	99.800649
816.000000	99.815206
815.000000	99.824499
814.000000	99.828917
813.000000	99.836170
812.000000	99.849591
811.000000	99.862206
810.000000	99.865529
809.000000	99.860383
808.000000	99.855632
807.000000	99.858948
806.000000	99.871231
805.000000	99.887206
804.000000	99.899072
803.000000	99.901386
802.000000	99.894058
801.000000	99.880265
800.000000	99.862802
799.000000	99.844940
798.000000	99.832189
797.000000	99.827556
796.000000	99.826145
795.000000	99.821059
794.000000	99.814508
793.000000	99.815689
792.000000	99.826898
791.000000	99.840119
790.000000	99.850137
789.000000	99.862279
788.000000	99.881173
787.000000	99.899038
786.000000	99.903077
785.000000	99.890988
784.000000	99.872010
783.000000	99.854949
782.000000	99.841928
781.000000	99.832740
780.000000	99.828440
779.000000	99.828696
778.000000	99.829630
777.000000	99.826922
776.000000	99.820133
775.000000	99.813662
774.000000	99.813905
773.000000	99.824314
772.000000	99.841427
771.000000	99.856077
770.000000	99.859858
769.000000	99.850628
768.000000	99.832788
767.000000	99.814315
766.000000	99.802932
765.000000	99.801590
764.000000	99.806470
763.000000	99.811601
762.000000	99.815732
761.000000	99.821973
760.000000	99.831043
759.000000	99.839363
758.000000	99.845159
757.000000	99.851718
756.000000	99.862162
755.000000	99.874991
754.000000	99.887155
753.000000	99.897901
752.000000	99.907026
751.000000	99.912809
750.000000	99.914258
749.000000	99.912474
748.000000	99.907301
747.000000	99.895996
746.000000	99.878502
745.000000	99.861242
744.000000	99.852336
743.000000	99.854994
742.000000	99.867027
741.000000	99.882926
740.000000	99.894297
739.000000	99.893217
738.000000	99.879052
737.000000	99.858958
736.000000	99.839224
735.000000	99.820004
734.000000	99.801413
733.000000	99.788320
732.000000	99.783146
731.000000	99.778354
730.000000	99.763225
729.000000	99.736032
728.000000	99.707360
727.000000	99.690397
726.000000	99.686218
725.000000	99.681613
724.000000	99.661081
723.000000	99.618992
722.000000	99.559170
721.000000	99.485158
720.000000	99.393160
719.000000	99.271569
718.000000	99.102108
717.000000	98.861267
716.000000	98.533812
715.000000	98.144404
714.000000	97.779499
713.000000	97.557161
712.000000	97.552584
711.000000	97.743792
710.000000	98.032169
709.000000	98.313602
708.000000	98.532696
707.000000	98.686995
706.000000	98.794975
705.000000	98.872953
704.000000	98.935123
703.000000	98.994006
702.000000	99.054626
701.000000	99.112238
700.000000	99.157456
699.000000	99.187819
698.000000	99.207888
697.000000	99.221657
696.000000	99.231881
695.000000	99.241365
694.000000	99.255666
693.000000	99.278898
692.000000	99.306427
691.000000	99.332109
690.000000	99.353933
689.000000	99.371802
688.000000	99.384827
687.000000	99.392725
686.000000	99.401292
685.000000	99.414532
684.000000	99.423402
683.000000	99.418137
682.000000	99.405110
681.000000	99.396337
680.000000	99.387131
679.000000	99.365746
678.000000	99.341352
677.000000	99.330303
676.000000	99.333502
675.000000	99.339984
674.000000	99.350392
673.000000	99.376894
672.000000	99.425987
671.000000	99.500279
670.000000	99.608878
669.000000	99.744496
668.000000	99.810888
667.000000	99.717472
666.000000	99.578388
665.000000	99.449132
664.000000	99.338615
663.000000	99.265115
662.000000	99.235306
661.000000	99.235342
660.000000	99.246197
659.000000	99.260385
658.000000	99.274821
657.000000	99.275369
656.000000	99.258844
655.000000	99.243478
654.000000	99.241204
653.000000	99.241630
652.000000	99.239813
651.000000	99.249491
650.000000	99.278079
649.000000	99.307309
648.000000	99.317487
647.000000	99.309934
646.000000	99.293289
645.000000	99.273582
644.000000	99.260315
643.000000	99.261001
642.000000	99.267945
641.000000	99.262984
640.000000	99.243299
639.000000	99.227610
638.000000	99.227523
637.000000	99.232684
636.000000	99.233552
635.000000	99.234943
634.000000	99.240240
633.000000	99.242241
632.000000	99.238519
631.000000	99.240592
630.000000	99.256314
629.000000	99.275245
628.000000	99.283750
627.000000	99.282476
626.000000	99.277016
625.000000	99.267752
624.000000	99.253835
623.000000	99.237619
622.000000	99.220231
621.000000	99.200357
620.000000	99.180823
619.000000	99.166926
618.000000	99.156167
617.000000	99.140052
616.000000	99.118701
615.000000	99.102031
614.000000	99.093483
613.000000	99.086503
612.000000	99.080654
611.000000	99.085170
610.000000	99.100274
609.000000	99.110567
608.000000	99.107138
607.000000	99.103309
606.000000	99.113578
605.000000	99.133476
604.000000	99.148954
603.000000	99.155483
602.000000	99.159120
601.000000	99.165106
600.000000	99.175495
599.000000	99.192608
598.000000	99.213553
597.000000	99.226274
596.000000	99.220731
595.000000	99.200695
594.000000	99.178044
593.000000	99.159403
592.000000	99.145834
591.000000	99.140178
590.000000	99.144614
589.000000	99.154256
588.000000	99.162371
587.000000	99.166967
586.000000	99.165585
585.000000	99.152357
584.000000	99.130155
583.000000	99.119478
582.000000	99.139510
581.000000	99.181063
580.000000	99.210910
579.000000	99.207206
578.000000	99.180464
577.000000	99.157254
576.000000	99.153414
575.000000	99.163206
574.000000	99.168932
573.000000	99.159644
572.000000	99.141685
571.000000	99.131048
570.000000	99.133774
569.000000	99.135771
568.000000	99.119580
567.000000	99.086364
566.000000	99.053768
565.000000	99.036325
564.000000	99.035596
563.000000	99.044506
562.000000	99.050975
561.000000	99.044273
560.000000	99.027562
559.000000	99.019833
558.000000	99.035090
557.000000	99.062289
556.000000	99.075993
555.000000	99.066865
554.000000	99.051536
553.000000	99.048517
552.000000	99.055056
551.000000	99.053796
550.000000	99.036970
549.000000	99.018459
548.000000	99.021161
547.000000	99.053964
546.000000	99.099144
545.000000	99.124362
544.000000	99.112231
543.000000	99.074928
542.000000	99.040040
541.000000	99.025340
540.000000	99.027616
539.000000	99.031970
538.000000	99.025660
537.000000	99.005079
536.000000	98.975484
535.000000	98.948742
534.000000	98.938374
533.000000	98.951326
532.000000	98.979913
531.000000	99.002931
530.000000	99.001109
529.000000	98.975480
528.000000	98.945223
527.000000	98.927437
526.000000	98.921568
525.000000	98.915557
524.000000	98.903981
523.000000	98.889105
522.000000	98.872930
521.000000	98.863789
520.000000	98.881987
519.000000	98.941096
518.000000	99.023031
517.000000	99.090468
516.000000	99.128887
515.000000	99.151066
514.000000	99.164710
513.000000	99.164380
512.000000	99.155972
511.000000	99.163314
510.000000	99.196852
509.000000	99.234604
508.000000	99.249032
507.000000	99.244192
506.000000	99.247121
505.000000	99.265708
504.000000	99.277183
503.000000	99.258406
502.000000	99.219012
501.000000	99.197135
500.000000	99.216682
499.000000	99.264184
498.000000	99.306840
497.000000	99.322636
496.000000	99.313026
495.000000	99.290244
494.000000	99.263759
493.000000	99.243088
492.000000	99.238978
491.000000	99.250397
490.000000	99.261711
489.000000	99.270107
488.000000	99.299396
487.000000	99.365852
486.000000	99.442004
485.000000	99.481722
484.000000	99.484248
483.000000	99.493850
482.000000	99.524982
481.000000	99.533859
480.000000	99.481712
479.000000	99.389147
478.000000	99.309944
477.000000	99.278745
476.000000	99.298699
475.000000	99.356278
474.000000	99.421141
473.000000	99.450350
472.000000	99.429025
471.000000	99.396310
470.000000	99.387758
469.000000	99.392782
468.000000	99.392478
467.000000	99.392627
466.000000	99.403743
465.000000	99.418157
464.000000	99.434407
463.000000	99.475892
462.000000	99.555029
461.000000	99.641852
460.000000	99.704406
459.000000	99.749724
458.000000	99.795138
457.000000	99.830047
456.000000	99.844199
455.000000	99.855857
454.000000	99.877539
453.000000	99.894004
452.000000	99.890051
451.000000	99.881176
450.000000	99.881122
