PE IR       SUBTECH     SPECTRUM    ASCII       PEDS        4.00        
   -1
AD10-C011_1.ASC
23/09/08
11:07:39.00
23/09/08
11:14:38.00
uco
Sample 011 By uco Date Friday, September 08 2023
450.000000
#HDR
-1
-1
#GR
cm-1
%T
1.0
0.0
4000.000000
-1.000000
3551
8
99.832442
84.172166
#DATA
4000.000000	99.736000
3999.000000	99.740400
3998.000000	99.742446
3997.000000	99.740748
3996.000000	99.736772
3995.000000	99.732810
3994.000000	99.748034
3993.000000	99.745714
3992.000000	99.743557
3991.000000	99.742087
3990.000000	99.741290
3989.000000	99.740260
3988.000000	99.737863
3987.000000	99.733749
3986.000000	99.728552
3985.000000	99.723292
3984.000000	99.718885
3983.000000	99.715911
3982.000000	99.714555
3981.000000	99.714583
3980.000000	99.715472
3979.000000	99.716766
3978.000000	99.718335
3977.000000	99.720119
3976.000000	99.721627
3975.000000	99.721993
3974.000000	99.720768
3973.000000	99.718718
3972.000000	99.717451
3971.000000	99.718031
3970.000000	99.719839
3969.000000	99.720803
3968.000000	99.719230
3967.000000	99.715398
3966.000000	99.711532
3965.000000	99.710211
3964.000000	99.712400
3963.000000	99.716734
3962.000000	99.720587
3961.000000	99.722123
3960.000000	99.721372
3959.000000	99.719640
3958.000000	99.718072
3957.000000	99.716688
3956.000000	99.714916
3955.000000	99.712489
3954.000000	99.709952
3953.000000	99.708289
3952.000000	99.708017
3951.000000	99.708893
3950.000000	99.709976
3949.000000	99.710378
3948.000000	99.710135
3947.000000	99.710442
3946.000000	99.713049
3945.000000	99.718206
3944.000000	99.723167
3943.000000	99.723785
3942.000000	99.717938
3941.000000	99.707803
3940.000000	99.697941
3939.000000	99.691815
3938.000000	99.690566
3937.000000	99.693476
3936.000000	99.698888
3935.000000	99.704139
3934.000000	99.706281
3933.000000	99.704682
3932.000000	99.702053
3931.000000	99.702073
3930.000000	99.705211
3929.000000	99.708997
3928.000000	99.711719
3927.000000	99.712818
3926.000000	99.711759
3925.000000	99.707936
3924.000000	99.702211
3923.000000	99.696935
3922.000000	99.693476
3921.000000	99.690725
3920.000000	99.687380
3919.000000	99.684748
3918.000000	99.686036
3917.000000	99.691783
3916.000000	99.697815
3915.000000	99.699682
3914.000000	99.696843
3913.000000	99.692269
3912.000000	99.689319
3911.000000	99.689879
3910.000000	99.694046
3909.000000	99.700249
3908.000000	99.706395
3907.000000	99.709699
3906.000000	99.706741
3905.000000	99.694986
3904.000000	99.676329
3903.000000	99.658759
3902.000000	99.651403
3901.000000	99.657056
3900.000000	99.670341
3899.000000	99.681634
3898.000000	99.684680
3897.000000	99.680607
3896.000000	99.674036
3895.000000	99.669156
3894.000000	99.668802
3893.000000	99.673844
3892.000000	99.681764
3891.000000	99.686830
3890.000000	99.685941
3889.000000	99.682652
3888.000000	99.682133
3887.000000	99.684755
3886.000000	99.686931
3885.000000	99.686223
3884.000000	99.685185
3883.000000	99.688373
3882.000000	99.696463
3881.000000	99.704469
3880.000000	99.705768
3879.000000	99.698863
3878.000000	99.690121
3877.000000	99.687221
3876.000000	99.692225
3875.000000	99.700202
3874.000000	99.703901
3873.000000	99.701843
3872.000000	99.699495
3871.000000	99.701310
3870.000000	99.704353
3869.000000	99.702724
3868.000000	99.697312
3867.000000	99.693693
3866.000000	99.692976
3865.000000	99.691109
3864.000000	99.685321
3863.000000	99.677275
3862.000000	99.669974
3861.000000	99.664848
3860.000000	99.662811
3859.000000	99.663095
3858.000000	99.663916
3857.000000	99.663285
3856.000000	99.660778
3855.000000	99.657700
3854.000000	99.654775
3853.000000	99.654545
3852.000000	99.657276
3851.000000	99.660304
3850.000000	99.662144
3849.000000	99.662891
3848.000000	99.663614
3847.000000	99.666819
3846.000000	99.674002
3845.000000	99.683754
3844.000000	99.692112
3843.000000	99.695529
3842.000000	99.694225
3841.000000	99.692253
3840.000000	99.692867
3839.000000	99.694717
3838.000000	99.694960
3837.000000	99.692935
3836.000000	99.691012
3835.000000	99.692158
3834.000000	99.697559
3833.000000	99.705943
3832.000000	99.713921
3831.000000	99.717563
3830.000000	99.716363
3829.000000	99.713406
3828.000000	99.711459
3827.000000	99.709480
3826.000000	99.704353
3825.000000	99.696876
3824.000000	99.692899
3823.000000	99.697580
3822.000000	99.707851
3821.000000	99.712727
3820.000000	99.706014
3819.000000	99.694102
3818.000000	99.686268
3817.000000	99.683529
3816.000000	99.682041
3815.000000	99.680490
3814.000000	99.682166
3813.000000	99.689122
3812.000000	99.697903
3811.000000	99.704436
3810.000000	99.708263
3809.000000	99.710936
3808.000000	99.710985
3807.000000	99.704400
3806.000000	99.691487
3805.000000	99.680127
3804.000000	99.677889
3803.000000	99.685182
3802.000000	99.695015
3801.000000	99.699305
3800.000000	99.697604
3799.000000	99.697705
3798.000000	99.703167
3797.000000	99.709348
3796.000000	99.710192
3795.000000	99.705942
3794.000000	99.702076
3793.000000	99.702157
3792.000000	99.704912
3791.000000	99.707647
3790.000000	99.708995
3789.000000	99.708858
3788.000000	99.707802
3787.000000	99.706571
3786.000000	99.705761
3785.000000	99.705661
3784.000000	99.706469
3783.000000	99.708651
3782.000000	99.712205
3781.000000	99.714770
3780.000000	99.712596
3779.000000	99.705134
3778.000000	99.697048
3777.000000	99.693922
3776.000000	99.696751
3775.000000	99.701413
3774.000000	99.702918
3773.000000	99.699479
3772.000000	99.692700
3771.000000	99.685340
3770.000000	99.680173
3769.000000	99.678910
3768.000000	99.682221
3767.000000	99.689118
3766.000000	99.696704
3765.000000	99.701209
3764.000000	99.700889
3763.000000	99.697710
3762.000000	99.694875
3761.000000	99.693788
3760.000000	99.694060
3759.000000	99.694228
3758.000000	99.691568
3757.000000	99.684320
3756.000000	99.674981
3755.000000	99.668250
3754.000000	99.665266
3753.000000	99.661815
3752.000000	99.654096
3751.000000	99.645582
3750.000000	99.641942
3749.000000	99.642245
3748.000000	99.644684
3747.000000	99.650941
3746.000000	99.661342
3745.000000	99.671839
3744.000000	99.677879
3743.000000	99.682030
3742.000000	99.690289
3741.000000	99.702006
3740.000000	99.713088
3739.000000	99.721539
3738.000000	99.727765
3737.000000	99.730069
3736.000000	99.728388
3735.000000	99.729098
3734.000000	99.735779
3733.000000	99.743451
3732.000000	99.745278
3731.000000	99.739603
3730.000000	99.729719
3729.000000	99.719215
3728.000000	99.709844
3727.000000	99.702128
3726.000000	99.696493
3725.000000	99.693491
3724.000000	99.693468
3723.000000	99.697201
3722.000000	99.704878
3721.000000	99.715416
3720.000000	99.725585
3719.000000	99.730494
3718.000000	99.726905
3717.000000	99.716253
3716.000000	99.705257
3715.000000	99.700709
3714.000000	99.702303
3713.000000	99.702846
3712.000000	99.697117
3711.000000	99.690535
3710.000000	99.692457
3709.000000	99.703800
3708.000000	99.718354
3707.000000	99.729271
3706.000000	99.733645
3705.000000	99.734339
3704.000000	99.736817
3703.000000	99.743426
3702.000000	99.750521
3701.000000	99.751741
3700.000000	99.745736
3699.000000	99.737286
3698.000000	99.730639
3697.000000	99.724909
3696.000000	99.716297
3695.000000	99.703394
3694.000000	99.689051
3693.000000	99.679166
3692.000000	99.679647
3691.000000	99.693123
3690.000000	99.714743
3689.000000	99.732381
3688.000000	99.736482
3687.000000	99.730159
3686.000000	99.724277
3685.000000	99.724276
3684.000000	99.727354
3683.000000	99.728295
3682.000000	99.725339
3681.000000	99.719374
3680.000000	99.711272
3679.000000	99.702645
3678.000000	99.696956
3677.000000	99.698112
3676.000000	99.705514
3675.000000	99.712006
3674.000000	99.711125
3673.000000	99.708192
3672.000000	99.709115
3671.000000	99.712863
3670.000000	99.715969
3669.000000	99.716908
3668.000000	99.716681
3667.000000	99.717410
3666.000000	99.719179
3665.000000	99.721240
3664.000000	99.723758
3663.000000	99.727206
3662.000000	99.730637
3661.000000	99.732157
3660.000000	99.731957
3659.000000	99.732781
3658.000000	99.736272
3657.000000	99.739611
3656.000000	99.737045
3655.000000	99.727395
3654.000000	99.716259
3653.000000	99.709732
3652.000000	99.708454
3651.000000	99.708559
3650.000000	99.708590
3649.000000	99.713501
3648.000000	99.723267
3647.000000	99.728163
3646.000000	99.723293
3645.000000	99.713282
3644.000000	99.704510
3643.000000	99.699854
3642.000000	99.699126
3641.000000	99.700750
3640.000000	99.703244
3639.000000	99.704898
3638.000000	99.703969
3637.000000	99.700953
3636.000000	99.698588
3635.000000	99.698334
3634.000000	99.697881
3633.000000	99.694438
3632.000000	99.688573
3631.000000	99.683186
3630.000000	99.679808
3629.000000	99.679061
3628.000000	99.680540
3627.000000	99.682924
3626.000000	99.687801
3625.000000	99.695118
3624.000000	99.703495
3623.000000	99.713069
3622.000000	99.725154
3621.000000	99.739100
3620.000000	99.750319
3619.000000	99.752183
3618.000000	99.741969
3617.000000	99.724401
3616.000000	99.707909
3615.000000	99.697629
3614.000000	99.691639
3613.000000	99.683064
3612.000000	99.667149
3611.000000	99.647018
3610.000000	99.630818
3609.000000	99.626563
3608.000000	99.636964
3607.000000	99.655761
3606.000000	99.673008
3605.000000	99.682951
3604.000000	99.686401
3603.000000	99.687029
3602.000000	99.687701
3601.000000	99.688961
3600.000000	99.689453
3599.000000	99.687957
3598.000000	99.684172
3597.000000	99.678220
3596.000000	99.670054
3595.000000	99.661441
3594.000000	99.655859
3593.000000	99.656708
3592.000000	99.663692
3591.000000	99.673235
3590.000000	99.680512
3589.000000	99.682441
3588.000000	99.679938
3587.000000	99.676901
3586.000000	99.674095
3585.000000	99.670284
3584.000000	99.666037
3583.000000	99.661732
3582.000000	99.656125
3581.000000	99.648345
3580.000000	99.639431
3579.000000	99.632062
3578.000000	99.627763
3577.000000	99.625941
3576.000000	99.624840
3575.000000	99.623656
3574.000000	99.622894
3573.000000	99.623314
3572.000000	99.625428
3571.000000	99.629534
3570.000000	99.635708
3569.000000	99.642787
3568.000000	99.648918
3567.000000	99.652502
3566.000000	99.651233
3565.000000	99.643688
3564.000000	99.634103
3563.000000	99.628894
3562.000000	99.630397
3561.000000	99.635695
3560.000000	99.640091
3559.000000	99.640753
3558.000000	99.637742
3557.000000	99.632391
3556.000000	99.626334
3555.000000	99.621472
3554.000000	99.619567
3553.000000	99.620490
3552.000000	99.621389
3551.000000	99.618379
3550.000000	99.609658
3549.000000	99.596793
3548.000000	99.584119
3547.000000	99.577474
3546.000000	99.580965
3545.000000	99.592704
3544.000000	99.605650
3543.000000	99.613913
3542.000000	99.616279
3541.000000	99.614773
3540.000000	99.612004
3539.000000	99.609183
3538.000000	99.605546
3537.000000	99.599267
3536.000000	99.590067
3535.000000	99.580948
3534.000000	99.576314
3533.000000	99.578558
3532.000000	99.586151
3531.000000	99.595054
3530.000000	99.601093
3529.000000	99.601703
3528.000000	99.596630
3527.000000	99.588238
3526.000000	99.580711
3525.000000	99.577851
3524.000000	99.580261
3523.000000	99.584354
3522.000000	99.585431
3521.000000	99.582493
3520.000000	99.579245
3519.000000	99.579532
3518.000000	99.582729
3517.000000	99.584448
3516.000000	99.581344
3515.000000	99.574349
3514.000000	99.566911
3513.000000	99.561895
3512.000000	99.560621
3511.000000	99.563429
3510.000000	99.569220
3509.000000	99.574686
3508.000000	99.575853
3507.000000	99.571261
3506.000000	99.563079
3505.000000	99.555152
3504.000000	99.550981
3503.000000	99.552027
3502.000000	99.556204
3501.000000	99.558873
3500.000000	99.556665
3499.000000	99.550526
3498.000000	99.544863
3497.000000	99.543887
3496.000000	99.547583
3495.000000	99.551410
3494.000000	99.550304
3493.000000	99.543243
3492.000000	99.533688
3491.000000	99.525974
3490.000000	99.521859
3489.000000	99.520499
3488.000000	99.520520
3487.000000	99.520870
3486.000000	99.520163
3485.000000	99.517037
3484.000000	99.511975
3483.000000	99.508053
3482.000000	99.508631
3481.000000	99.514055
3480.000000	99.521339
3479.000000	99.526916
3478.000000	99.528970
3477.000000	99.527278
3476.000000	99.522182
3475.000000	99.514252
3474.000000	99.504723
3473.000000	99.495902
3472.000000	99.490666
3471.000000	99.490810
3470.000000	99.495325
3469.000000	99.500593
3468.000000	99.502826
3467.000000	99.500727
3466.000000	99.496275
3465.000000	99.493167
3464.000000	99.494316
3463.000000	99.499975
3462.000000	99.507503
3461.000000	99.513125
3460.000000	99.514396
3459.000000	99.511273
3458.000000	99.505217
3457.000000	99.497686
3456.000000	99.489663
3455.000000	99.482006
3454.000000	99.475513
3453.000000	99.470822
3452.000000	99.468129
3451.000000	99.467176
3450.000000	99.467260
3449.000000	99.467779
3448.000000	99.469105
3447.000000	99.472252
3446.000000	99.476686
3445.000000	99.479456
3444.000000	99.477601
3443.000000	99.471090
3442.000000	99.463001
3441.000000	99.456870
3440.000000	99.454314
3439.000000	99.454746
3438.000000	99.456276
3437.000000	99.456721
3436.000000	99.454806
3435.000000	99.451014
3434.000000	99.446763
3433.000000	99.443041
3432.000000	99.440079
3431.000000	99.438270
3430.000000	99.438029
3429.000000	99.438923
3428.000000	99.440134
3427.000000	99.441774
3426.000000	99.444356
3425.000000	99.446612
3424.000000	99.445458
3423.000000	99.439156
3422.000000	99.429671
3421.000000	99.421033
3420.000000	99.415573
3419.000000	99.412327
3418.000000	99.408704
3417.000000	99.403146
3416.000000	99.396651
3415.000000	99.392317
3414.000000	99.392738
3413.000000	99.397169
3412.000000	99.401915
3411.000000	99.403898
3410.000000	99.403214
3409.000000	99.401854
3408.000000	99.400888
3407.000000	99.399731
3406.000000	99.397715
3405.000000	99.395311
3404.000000	99.393681
3403.000000	99.393406
3402.000000	99.393699
3401.000000	99.393065
3400.000000	99.390713
3399.000000	99.387384
3398.000000	99.384461
3397.000000	99.382332
3396.000000	99.380147
3395.000000	99.377278
3394.000000	99.374396
3393.000000	99.372674
3392.000000	99.372328
3391.000000	99.372437
3390.000000	99.372095
3389.000000	99.371013
3388.000000	99.368874
3387.000000	99.364908
3386.000000	99.358738
3385.000000	99.351459
3384.000000	99.345080
3383.000000	99.340741
3382.000000	99.338016
3381.000000	99.336376
3380.000000	99.336423
3379.000000	99.338800
3378.000000	99.342199
3377.000000	99.343790
3376.000000	99.342018
3375.000000	99.338253
3374.000000	99.335237
3373.000000	99.334384
3372.000000	99.334777
3371.000000	99.334065
3370.000000	99.329959
3369.000000	99.321701
3368.000000	99.311125
3367.000000	99.301857
3366.000000	99.296271
3365.000000	99.293106
3364.000000	99.288969
3363.000000	99.282369
3362.000000	99.275582
3361.000000	99.272227
3360.000000	99.273425
3359.000000	99.276686
3358.000000	99.278243
3357.000000	99.276119
3356.000000	99.271189
3355.000000	99.265714
3354.000000	99.261152
3353.000000	99.257410
3352.000000	99.253976
3351.000000	99.251036
3350.000000	99.249059
3349.000000	99.247622
3348.000000	99.245414
3347.000000	99.241339
3346.000000	99.235171
3345.000000	99.227295
3344.000000	99.218412
3343.000000	99.209725
3342.000000	99.202626
3341.000000	99.197707
3340.000000	99.194420
3339.000000	99.192000
3338.000000	99.190322
3337.000000	99.189442
3336.000000	99.188747
3335.000000	99.187328
3334.000000	99.185236
3333.000000	99.183827
3332.000000	99.184491
3331.000000	99.187312
3330.000000	99.190947
3329.000000	99.193486
3328.000000	99.193442
3327.000000	99.190488
3326.000000	99.185768
3325.000000	99.181364
3324.000000	99.178791
3323.000000	99.177773
3322.000000	99.176698
3321.000000	99.174500
3320.000000	99.171844
3319.000000	99.170276
3318.000000	99.170396
3317.000000	99.171198
3316.000000	99.171007
3315.000000	99.168698
3314.000000	99.164069
3313.000000	99.157562
3312.000000	99.149952
3311.000000	99.142139
3310.000000	99.135125
3309.000000	99.130239
3308.000000	99.128925
3307.000000	99.131495
3306.000000	99.135889
3305.000000	99.138332
3304.000000	99.136043
3303.000000	99.129575
3302.000000	99.122323
3301.000000	99.117596
3300.000000	99.116076
3299.000000	99.115929
3298.000000	99.115096
3297.000000	99.113488
3296.000000	99.112889
3295.000000	99.114805
3294.000000	99.118781
3293.000000	99.123105
3292.000000	99.126588
3291.000000	99.128955
3290.000000	99.129784
3289.000000	99.128183
3288.000000	99.123978
3287.000000	99.118489
3286.000000	99.113586
3285.000000	99.110324
3284.000000	99.108568
3283.000000	99.107230
3282.000000	99.104741
3281.000000	99.100273
3280.000000	99.095149
3279.000000	99.092111
3278.000000	99.092363
3277.000000	99.093846
3276.000000	99.093213
3275.000000	99.089195
3274.000000	99.083170
3273.000000	99.077261
3272.000000	99.073059
3271.000000	99.071838
3270.000000	99.074389
3269.000000	99.079966
3268.000000	99.086241
3267.000000	99.090909
3266.000000	99.093300
3265.000000	99.094693
3264.000000	99.097379
3263.000000	99.103033
3262.000000	99.111090
3261.000000	99.118527
3260.000000	99.121999
3259.000000	99.120546
3258.000000	99.116051
3257.000000	99.111208
3256.000000	99.107580
3255.000000	99.105486
3254.000000	99.104956
3253.000000	99.106250
3252.000000	99.109517
3251.000000	99.114156
3250.000000	99.118354
3249.000000	99.119661
3248.000000	99.116752
3247.000000	99.110803
3246.000000	99.104859
3245.000000	99.101633
3244.000000	99.101819
3243.000000	99.104165
3242.000000	99.106575
3241.000000	99.107427
3240.000000	99.106905
3239.000000	99.107272
3238.000000	99.111075
3237.000000	99.118438
3236.000000	99.126416
3235.000000	99.131364
3234.000000	99.131633
3233.000000	99.128017
3232.000000	99.122535
3231.000000	99.117609
3230.000000	99.115657
3229.000000	99.117946
3228.000000	99.123192
3227.000000	99.127819
3226.000000	99.128491
3225.000000	99.124598
3224.000000	99.118428
3223.000000	99.113150
3222.000000	99.110739
3221.000000	99.111453
3220.000000	99.114462
3219.000000	99.118408
3218.000000	99.121755
3217.000000	99.123462
3216.000000	99.123787
3215.000000	99.124072
3214.000000	99.125124
3213.000000	99.125924
3212.000000	99.124598
3211.000000	99.120758
3210.000000	99.116296
3209.000000	99.113450
3208.000000	99.112727
3207.000000	99.113064
3206.000000	99.113618
3205.000000	99.114558
3204.000000	99.116369
3203.000000	99.119046
3202.000000	99.122225
3201.000000	99.125664
3200.000000	99.129417
3199.000000	99.133447
3198.000000	99.136888
3197.000000	99.137638
3196.000000	99.133576
3195.000000	99.125198
3194.000000	99.116746
3193.000000	99.113549
3192.000000	99.117509
3191.000000	99.125537
3190.000000	99.132641
3189.000000	99.135938
3188.000000	99.135636
3187.000000	99.133178
3186.000000	99.129684
3185.000000	99.125692
3184.000000	99.121516
3183.000000	99.117670
3182.000000	99.115365
3181.000000	99.116124
3180.000000	99.120066
3179.000000	99.124890
3178.000000	99.127707
3177.000000	99.128246
3176.000000	99.129386
3175.000000	99.133994
3174.000000	99.141741
3173.000000	99.149336
3172.000000	99.153303
3171.000000	99.152468
3170.000000	99.148427
3169.000000	99.144464
3168.000000	99.143605
3167.000000	99.146763
3166.000000	99.152291
3165.000000	99.157320
3164.000000	99.159691
3163.000000	99.158851
3162.000000	99.155745
3161.000000	99.152294
3160.000000	99.150548
3159.000000	99.151352
3158.000000	99.153519
3157.000000	99.154935
3156.000000	99.154817
3155.000000	99.154444
3154.000000	99.155177
3153.000000	99.156344
3152.000000	99.156063
3151.000000	99.154180
3150.000000	99.153188
3149.000000	99.155431
3148.000000	99.159982
3147.000000	99.163246
3146.000000	99.162671
3145.000000	99.159106
3144.000000	99.155587
3143.000000	99.154514
3142.000000	99.156274
3141.000000	99.159801
3140.000000	99.163713
3139.000000	99.167231
3138.000000	99.170661
3137.000000	99.174933
3136.000000	99.180146
3135.000000	99.184679
3134.000000	99.186341
3133.000000	99.184599
3132.000000	99.181412
3131.000000	99.179921
3130.000000	99.182407
3129.000000	99.188763
3128.000000	99.196054
3127.000000	99.200039
3126.000000	99.198601
3125.000000	99.194022
3124.000000	99.191215
3123.000000	99.193134
3122.000000	99.198274
3121.000000	99.202551
3120.000000	99.203109
3119.000000	99.200195
3118.000000	99.196463
3117.000000	99.195110
3116.000000	99.197868
3115.000000	99.203510
3114.000000	99.208442
3113.000000	99.209505
3112.000000	99.206452
3111.000000	99.201617
3110.000000	99.197406
3109.000000	99.194591
3108.000000	99.192745
3107.000000	99.191547
3106.000000	99.190935
3105.000000	99.190468
3104.000000	99.189444
3103.000000	99.187829
3102.000000	99.186556
3101.000000	99.186463
3100.000000	99.187276
3099.000000	99.187927
3098.000000	99.187571
3097.000000	99.185981
3096.000000	99.183323
3095.000000	99.180292
3094.000000	99.178430
3093.000000	99.179459
3092.000000	99.183592
3091.000000	99.188757
3090.000000	99.192069
3089.000000	99.192136
3088.000000	99.189758
3087.000000	99.186791
3086.000000	99.184963
3085.000000	99.185439
3084.000000	99.188364
3083.000000	99.192200
3082.000000	99.194377
3081.000000	99.193467
3080.000000	99.190635
3079.000000	99.188386
3078.000000	99.188005
3077.000000	99.188622
3076.000000	99.188399
3075.000000	99.186002
3074.000000	99.181156
3073.000000	99.174768
3072.000000	99.168831
3071.000000	99.165509
3070.000000	99.165506
3069.000000	99.167228
3068.000000	99.167994
3067.000000	99.166332
3066.000000	99.163182
3065.000000	99.160947
3064.000000	99.161458
3063.000000	99.164833
3062.000000	99.169956
3061.000000	99.175437
3060.000000	99.179947
3059.000000	99.182206
3058.000000	99.181776
3057.000000	99.180102
3056.000000	99.179830
3055.000000	99.182492
3054.000000	99.187107
3053.000000	99.191444
3052.000000	99.193828
3051.000000	99.193414
3050.000000	99.190042
3049.000000	99.185292
3048.000000	99.182885
3047.000000	99.185822
3046.000000	99.192737
3045.000000	99.198523
3044.000000	99.199325
3043.000000	99.195998
3042.000000	99.192412
3041.000000	99.191384
3040.000000	99.193131
3039.000000	99.196492
3038.000000	99.200295
3037.000000	99.203499
3036.000000	99.205098
3035.000000	99.204484
3034.000000	99.201943
3033.000000	99.198741
3032.000000	99.196559
3031.000000	99.196351
3030.000000	99.197704
3029.000000	99.199707
3028.000000	99.202191
3027.000000	99.205491
3026.000000	99.208942
3025.000000	99.210480
3024.000000	99.208282
3023.000000	99.202621
3022.000000	99.196068
3021.000000	99.192279
3020.000000	99.194274
3019.000000	99.202434
3018.000000	99.213331
3017.000000	99.221261
3016.000000	99.222363
3015.000000	99.217548
3014.000000	99.211371
3013.000000	99.208091
3012.000000	99.208761
3011.000000	99.210994
3010.000000	99.211083
3009.000000	99.206997
3008.000000	99.200106
3007.000000	99.193700
3006.000000	99.189511
3005.000000	99.186307
3004.000000	99.182447
3003.000000	99.178887
3002.000000	99.178431
3001.000000	99.182320
3000.000000	99.188696
2999.000000	99.194290
2998.000000	99.196859
2997.000000	99.196174
2996.000000	99.193898
2995.000000	99.192570
2994.000000	99.193504
2993.000000	99.195009
2992.000000	99.193320
2991.000000	99.185975
2990.000000	99.174119
2989.000000	99.161470
2988.000000	99.151597
2987.000000	99.146198
2986.000000	99.144877
2985.000000	99.145460
2984.000000	99.144594
2983.000000	99.139339
2982.000000	99.129062
2981.000000	99.116030
2980.000000	99.103695
2979.000000	99.094070
2978.000000	99.086429
2977.000000	99.078503
2976.000000	99.068792
2975.000000	99.057636
2974.000000	99.046005
2973.000000	99.033755
2972.000000	99.019720
2971.000000	99.003483
2970.000000	98.986343
2969.000000	98.970061
2968.000000	98.955044
2967.000000	98.940219
2966.000000	98.924312
2965.000000	98.906571
2964.000000	98.886478
2963.000000	98.863929
2962.000000	98.840223
2961.000000	98.817974
2960.000000	98.799100
2959.000000	98.783089
2958.000000	98.768197
2957.000000	98.754105
2956.000000	98.742573
2955.000000	98.735330
2954.000000	98.732248
2953.000000	98.731993
2952.000000	98.733494
2951.000000	98.736092
2950.000000	98.738621
2949.000000	98.739391
2948.000000	98.737171
2947.000000	98.731777
2946.000000	98.723469
2945.000000	98.711909
2944.000000	98.695935
2943.000000	98.674452
2942.000000	98.647756
2941.000000	98.617832
2940.000000	98.586920
2939.000000	98.555641
2938.000000	98.522676
2937.000000	98.486362
2936.000000	98.446103
2935.000000	98.402343
2934.000000	98.355908
2933.000000	98.307613
2932.000000	98.257851
2931.000000	98.206182
2930.000000	98.151953
2929.000000	98.095573
2928.000000	98.038366
2927.000000	97.980862
2926.000000	97.922496
2925.000000	97.864207
2924.000000	97.810206
2923.000000	97.765565
2922.000000	97.732287
2921.000000	97.709373
2920.000000	97.696982
2919.000000	97.698621
2918.000000	97.718491
2917.000000	97.757432
2916.000000	97.812113
2915.000000	97.877642
2914.000000	97.949978
2913.000000	98.026322
2912.000000	98.103712
2911.000000	98.178049
2910.000000	98.244668
2909.000000	98.300694
2908.000000	98.346977
2907.000000	98.387242
2906.000000	98.424958
2905.000000	98.461051
2904.000000	98.494291
2903.000000	98.522947
2902.000000	98.545687
2901.000000	98.562583
2900.000000	98.575339
2899.000000	98.587708
2898.000000	98.603303
2897.000000	98.622953
2896.000000	98.644358
2895.000000	98.664276
2894.000000	98.680908
2893.000000	98.694390
2892.000000	98.706018
2891.000000	98.717499
2890.000000	98.730323
2889.000000	98.744824
2888.000000	98.759476
2887.000000	98.771609
2886.000000	98.779427
2885.000000	98.783355
2884.000000	98.785374
2883.000000	98.787235
2882.000000	98.789595
2881.000000	98.792384
2880.000000	98.795117
2879.000000	98.796717
2878.000000	98.795919
2877.000000	98.792488
2876.000000	98.787666
2875.000000	98.782948
2874.000000	98.778694
2873.000000	98.774184
2872.000000	98.768639
2871.000000	98.761903
2870.000000	98.754574
2869.000000	98.747732
2868.000000	98.741860
2867.000000	98.735465
2866.000000	98.725492
2865.000000	98.710131
2864.000000	98.690633
2863.000000	98.669333
2862.000000	98.646239
2861.000000	98.618813
2860.000000	98.584931
2859.000000	98.544497
2858.000000	98.498195
2857.000000	98.446513
2856.000000	98.390924
2855.000000	98.334717
2854.000000	98.281833
2853.000000	98.235589
2852.000000	98.199527
2851.000000	98.178986
2850.000000	98.180227
2849.000000	98.207471
2848.000000	98.260111
2847.000000	98.332260
2846.000000	98.414800
2845.000000	98.498868
2844.000000	98.578273
2843.000000	98.649728
2842.000000	98.711810
2841.000000	98.764651
2840.000000	98.810344
2839.000000	98.851560
2838.000000	98.888994
2837.000000	98.921020
2836.000000	98.946446
2835.000000	98.966442
2834.000000	98.982938
2833.000000	98.996385
2832.000000	99.006598
2831.000000	99.014978
2830.000000	99.023959
2829.000000	99.034291
2828.000000	99.044362
2827.000000	99.052435
2826.000000	99.058322
2825.000000	99.062486
2824.000000	99.065103
2823.000000	99.067065
2822.000000	99.070831
2821.000000	99.078470
2820.000000	99.088811
2819.000000	99.097908
2818.000000	99.103107
2817.000000	99.105947
2816.000000	99.110161
2815.000000	99.117177
2814.000000	99.124553
2813.000000	99.129087
2812.000000	99.130385
2811.000000	99.130614
2810.000000	99.131400
2809.000000	99.132141
2808.000000	99.131536
2807.000000	99.129759
2806.000000	99.128504
2805.000000	99.129346
2804.000000	99.132555
2803.000000	99.137237
2802.000000	99.142117
2801.000000	99.146199
2800.000000	99.149101
2799.000000	99.150946
2798.000000	99.152024
2797.000000	99.152675
2796.000000	99.153360
2795.000000	99.154421
2794.000000	99.155674
2793.000000	99.156690
2792.000000	99.157708
2791.000000	99.159883
2790.000000	99.164169
2789.000000	99.170095
2788.000000	99.175920
2787.000000	99.179868
2786.000000	99.181042
2785.000000	99.179430
2784.000000	99.175670
2783.000000	99.170992
2782.000000	99.166982
2781.000000	99.164861
2780.000000	99.164783
2779.000000	99.165857
2778.000000	99.166938
2777.000000	99.167460
2776.000000	99.167728
2775.000000	99.168714
2774.000000	99.171601
2773.000000	99.176987
2772.000000	99.183933
2771.000000	99.189989
2770.000000	99.193103
2769.000000	99.193849
2768.000000	99.194996
2767.000000	99.198294
2766.000000	99.202302
2765.000000	99.204251
2764.000000	99.203584
2763.000000	99.202629
2762.000000	99.203830
2761.000000	99.207295
2760.000000	99.211324
2759.000000	99.214473
2758.000000	99.216579
2757.000000	99.218193
2756.000000	99.219632
2755.000000	99.220759
2754.000000	99.221602
2753.000000	99.222843
2752.000000	99.225136
2751.000000	99.227756
2750.000000	99.228699
2749.000000	99.226762
2748.000000	99.223100
2747.000000	99.219857
2746.000000	99.217633
2745.000000	99.215191
2744.000000	99.211531
2743.000000	99.207264
2742.000000	99.203864
2741.000000	99.202334
2740.000000	99.202684
2739.000000	99.204058
2738.000000	99.205374
2737.000000	99.206692
2736.000000	99.209769
2735.000000	99.216113
2734.000000	99.224320
2733.000000	99.230576
2732.000000	99.232539
2731.000000	99.231796
2730.000000	99.231704
2729.000000	99.233420
2728.000000	99.235017
2727.000000	99.234245
2726.000000	99.231237
2725.000000	99.228304
2724.000000	99.227546
2723.000000	99.229105
2722.000000	99.231650
2721.000000	99.234037
2720.000000	99.235876
2719.000000	99.236716
2718.000000	99.235984
2717.000000	99.234444
2716.000000	99.234554
2715.000000	99.237813
2714.000000	99.242345
2713.000000	99.244770
2712.000000	99.244311
2711.000000	99.243297
2710.000000	99.243485
2709.000000	99.243928
2708.000000	99.243291
2707.000000	99.242465
2706.000000	99.243356
2705.000000	99.246101
2704.000000	99.248950
2703.000000	99.250445
2702.000000	99.250591
2701.000000	99.250182
2700.000000	99.249850
2699.000000	99.249508
2698.000000	99.248190
2697.000000	99.244906
2696.000000	99.240283
2695.000000	99.236789
2694.000000	99.236585
2693.000000	99.239619
2692.000000	99.244299
2691.000000	99.249212
2690.000000	99.253173
2689.000000	99.254491
2688.000000	99.251953
2687.000000	99.246801
2686.000000	99.242456
2685.000000	99.241597
2684.000000	99.243877
2683.000000	99.246758
2682.000000	99.248129
2681.000000	99.247936
2680.000000	99.247708
2679.000000	99.248782
2678.000000	99.250909
2677.000000	99.252508
2676.000000	99.252305
2675.000000	99.250614
2674.000000	99.248976
2673.000000	99.248861
2672.000000	99.250756
2671.000000	99.253961
2670.000000	99.256864
2669.000000	99.257843
2668.000000	99.256579
2667.000000	99.254427
2666.000000	99.252970
2665.000000	99.252160
2664.000000	99.250220
2663.000000	99.245506
2662.000000	99.238364
2661.000000	99.231107
2660.000000	99.226187
2659.000000	99.224374
2658.000000	99.224784
2657.000000	99.226664
2656.000000	99.230610
2655.000000	99.237407
2654.000000	99.246038
2653.000000	99.254034
2652.000000	99.259942
2651.000000	99.264372
2650.000000	99.268141
2649.000000	99.270549
2648.000000	99.270538
2647.000000	99.268718
2646.000000	99.266924
2645.000000	99.266013
2644.000000	99.265393
2643.000000	99.264629
2642.000000	99.264319
2641.000000	99.265100
2640.000000	99.266891
2639.000000	99.269789
2638.000000	99.274784
2637.000000	99.282390
2636.000000	99.290669
2635.000000	99.295785
2634.000000	99.295312
2633.000000	99.290837
2632.000000	99.286763
2631.000000	99.286505
2630.000000	99.290221
2629.000000	99.296048
2628.000000	99.302352
2627.000000	99.308070
2626.000000	99.311738
2625.000000	99.311897
2624.000000	99.308925
2623.000000	99.305646
2622.000000	99.305467
2621.000000	99.309962
2620.000000	99.317909
2619.000000	99.325879
2618.000000	99.329790
2617.000000	99.327157
2616.000000	99.318883
2615.000000	99.308936
2614.000000	99.302032
2613.000000	99.301166
2612.000000	99.306137
2611.000000	99.313308
2610.000000	99.317432
2609.000000	99.315567
2608.000000	99.309784
2607.000000	99.305207
2606.000000	99.305223
2605.000000	99.309585
2604.000000	99.316618
2603.000000	99.325207
2602.000000	99.333934
2601.000000	99.340167
2600.000000	99.341777
2599.000000	99.339208
2598.000000	99.334951
2597.000000	99.331398
2596.000000	99.329703
2595.000000	99.329833
2594.000000	99.330864
2593.000000	99.331551
2592.000000	99.331140
2591.000000	99.329523
2590.000000	99.326893
2589.000000	99.324132
2588.000000	99.323294
2587.000000	99.326209
2586.000000	99.332106
2585.000000	99.337914
2584.000000	99.341492
2583.000000	99.343621
2582.000000	99.346404
2581.000000	99.350847
2580.000000	99.356340
2579.000000	99.361244
2578.000000	99.363545
2577.000000	99.362388
2576.000000	99.359593
2575.000000	99.358272
2574.000000	99.359213
2573.000000	99.360088
2572.000000	99.358913
2571.000000	99.356813
2570.000000	99.356314
2569.000000	99.358291
2568.000000	99.361748
2567.000000	99.365527
2566.000000	99.369058
2565.000000	99.372180
2564.000000	99.374889
2563.000000	99.376509
2562.000000	99.375210
2561.000000	99.370121
2560.000000	99.364209
2559.000000	99.362407
2558.000000	99.365658
2557.000000	99.369048
2556.000000	99.367647
2555.000000	99.362115
2554.000000	99.356657
2553.000000	99.353641
2552.000000	99.353018
2551.000000	99.354949
2550.000000	99.359161
2549.000000	99.361954
2548.000000	99.357778
2547.000000	99.345101
2546.000000	99.329100
2545.000000	99.317792
2544.000000	99.316681
2543.000000	99.326422
2542.000000	99.342960
2541.000000	99.358934
2540.000000	99.367271
2539.000000	99.365390
2538.000000	99.355760
2537.000000	99.342245
2536.000000	99.327308
2535.000000	99.313317
2534.000000	99.304321
2533.000000	99.303759
2532.000000	99.310135
2531.000000	99.316744
2530.000000	99.317178
2529.000000	99.310652
2528.000000	99.301344
2527.000000	99.293007
2526.000000	99.285652
2525.000000	99.277911
2524.000000	99.270987
2523.000000	99.268372
2522.000000	99.271580
2521.000000	99.277568
2520.000000	99.280856
2519.000000	99.277503
2518.000000	99.267010
2517.000000	99.252028
2516.000000	99.237429
2515.000000	99.228690
2514.000000	99.229015
2513.000000	99.236809
2512.000000	99.246156
2511.000000	99.250760
2510.000000	99.248061
2509.000000	99.240061
2508.000000	99.230525
2507.000000	99.222024
2506.000000	99.215923
2505.000000	99.213853
2504.000000	99.217045
2503.000000	99.223900
2502.000000	99.230443
2501.000000	99.234833
2500.000000	99.239708
2499.000000	99.248254
2498.000000	99.258836
2497.000000	99.266176
2496.000000	99.267652
2495.000000	99.266227
2494.000000	99.267018
2493.000000	99.272728
2492.000000	99.282684
2491.000000	99.294288
2490.000000	99.304556
2489.000000	99.311858
2488.000000	99.316904
2487.000000	99.321056
2486.000000	99.323585
2485.000000	99.322342
2484.000000	99.317511
2483.000000	99.312876
2482.000000	99.312569
2481.000000	99.318162
2480.000000	99.329146
2479.000000	99.344016
2478.000000	99.359604
2477.000000	99.371562
2476.000000	99.377796
2475.000000	99.380468
2474.000000	99.382857
2473.000000	99.385255
2472.000000	99.385988
2471.000000	99.385414
2470.000000	99.386061
2469.000000	99.388351
2468.000000	99.388882
2467.000000	99.384915
2466.000000	99.379076
2465.000000	99.377212
2464.000000	99.381431
2463.000000	99.387709
2462.000000	99.391442
2461.000000	99.393219
2460.000000	99.396786
2459.000000	99.402355
2458.000000	99.405382
2457.000000	99.402589
2456.000000	99.396584
2455.000000	99.392921
2454.000000	99.394446
2453.000000	99.399788
2452.000000	99.405211
2451.000000	99.406317
2450.000000	99.400677
2449.000000	99.391608
2448.000000	99.387391
2447.000000	99.393293
2446.000000	99.405138
2445.000000	99.413780
2444.000000	99.415078
2443.000000	99.412461
2442.000000	99.410877
2441.000000	99.412275
2440.000000	99.416527
2439.000000	99.422149
2438.000000	99.425128
2437.000000	99.421470
2436.000000	99.413032
2435.000000	99.407456
2434.000000	99.409830
2433.000000	99.416862
2432.000000	99.421640
2431.000000	99.422395
2430.000000	99.423682
2429.000000	99.429779
2428.000000	99.439308
2427.000000	99.446455
2426.000000	99.446377
2425.000000	99.439368
2424.000000	99.430520
2423.000000	99.425351
2422.000000	99.425382
2421.000000	99.427985
2420.000000	99.429683
2419.000000	99.428661
2418.000000	99.424493
2417.000000	99.417242
2416.000000	99.407672
2415.000000	99.397816
2414.000000	99.390675
2413.000000	99.388914
2412.000000	99.392878
2411.000000	99.399642
2410.000000	99.405309
2409.000000	99.408946
2408.000000	99.413076
2407.000000	99.419557
2406.000000	99.426724
2405.000000	99.431877
2404.000000	99.434619
2403.000000	99.436094
2402.000000	99.436960
2401.000000	99.438209
2400.000000	99.441790
2399.000000	99.447526
2398.000000	99.451273
2397.000000	99.449447
2396.000000	99.444130
2395.000000	99.440354
2394.000000	99.439442
2393.000000	99.438779
2392.000000	99.437145
2391.000000	99.436225
2390.000000	99.436772
2389.000000	99.437322
2388.000000	99.437829
2387.000000	99.439988
2386.000000	99.443740
2385.000000	99.446113
2384.000000	99.445204
2383.000000	99.443753
2382.000000	99.445584
2381.000000	99.451812
2380.000000	99.459771
2379.000000	99.464565
2378.000000	99.462366
2377.000000	99.453820
2376.000000	99.444551
2375.000000	99.439774
2374.000000	99.440426
2373.000000	99.445381
2372.000000	99.454802
2371.000000	99.466814
2370.000000	99.475033
2369.000000	99.475439
2368.000000	99.469854
2367.000000	99.461630
2366.000000	99.451496
2365.000000	99.441030
2364.000000	99.433827
2363.000000	99.427348
2362.000000	99.414806
2361.000000	99.400005
2360.000000	99.398292
2359.000000	99.418686
2358.000000	99.452012
2357.000000	99.479220
2356.000000	99.484608
2355.000000	99.463642
2354.000000	99.436172
2353.000000	99.427356
2352.000000	99.438841
2351.000000	99.449226
2350.000000	99.444135
2349.000000	99.426737
2348.000000	99.410316
2347.000000	99.408615
2346.000000	99.421274
2345.000000	99.428573
2344.000000	99.416996
2343.000000	99.397811
2342.000000	99.389995
2341.000000	99.397157
2340.000000	99.406217
2339.000000	99.405219
2338.000000	99.396187
2337.000000	99.388813
2336.000000	99.386200
2335.000000	99.388205
2334.000000	99.398421
2333.000000	99.421196
2332.000000	99.446685
2331.000000	99.460860
2330.000000	99.457088
2329.000000	99.441723
2328.000000	99.419693
2327.000000	99.395381
2326.000000	99.373078
2325.000000	99.358007
2324.000000	99.351790
2323.000000	99.353945
2322.000000	99.359384
2321.000000	99.359537
2320.000000	99.347081
2319.000000	99.326396
2318.000000	99.307012
2317.000000	99.295804
2316.000000	99.291681
2315.000000	99.295694
2314.000000	99.309174
2313.000000	99.330835
2312.000000	99.352229
2311.000000	99.367724
2310.000000	99.376366
2309.000000	99.379892
2308.000000	99.378268
2307.000000	99.374341
2306.000000	99.373466
2305.000000	99.380024
2304.000000	99.392830
2303.000000	99.407964
2302.000000	99.420532
2301.000000	99.427610
2300.000000	99.429387
2299.000000	99.431072
2298.000000	99.435594
2297.000000	99.439637
2296.000000	99.435152
2295.000000	99.420559
2294.000000	99.402912
2293.000000	99.391763
2292.000000	99.390418
2291.000000	99.396034
2290.000000	99.403249
2289.000000	99.406757
2288.000000	99.402752
2287.000000	99.391029
2286.000000	99.376017
2285.000000	99.364002
2284.000000	99.359711
2283.000000	99.363125
2282.000000	99.369972
2281.000000	99.375604
2280.000000	99.380622
2279.000000	99.390060
2278.000000	99.405578
2277.000000	99.420632
2276.000000	99.426289
2275.000000	99.421341
2274.000000	99.413958
2273.000000	99.414280
2272.000000	99.426179
2271.000000	99.444849
2270.000000	99.459779
2269.000000	99.462466
2268.000000	99.454059
2267.000000	99.444591
2266.000000	99.442073
2265.000000	99.444548
2264.000000	99.445565
2263.000000	99.444668
2262.000000	99.447691
2261.000000	99.457623
2260.000000	99.470190
2259.000000	99.478921
2258.000000	99.481674
2257.000000	99.480886
2256.000000	99.479473
2255.000000	99.476878
2254.000000	99.469403
2253.000000	99.455842
2252.000000	99.441849
2251.000000	99.435166
2250.000000	99.436255
2249.000000	99.438993
2248.000000	99.441456
2247.000000	99.450798
2246.000000	99.472153
2245.000000	99.498531
2244.000000	99.517014
2243.000000	99.522129
2242.000000	99.517891
2241.000000	99.509962
2240.000000	99.501342
2239.000000	99.493765
2238.000000	99.487977
2237.000000	99.482973
2236.000000	99.478102
2235.000000	99.474596
2234.000000	99.472979
2233.000000	99.471709
2232.000000	99.470733
2231.000000	99.472634
2230.000000	99.477342
2229.000000	99.480104
2228.000000	99.478771
2227.000000	99.479087
2226.000000	99.488347
2225.000000	99.506778
2224.000000	99.527970
2223.000000	99.543734
2222.000000	99.545774
2221.000000	99.528719
2220.000000	99.496595
2219.000000	99.462032
2218.000000	99.435549
2217.000000	99.421003
2216.000000	99.422838
2215.000000	99.448229
2214.000000	99.495556
2213.000000	99.548943
2212.000000	99.592422
2211.000000	99.623104
2210.000000	99.642448
2209.000000	99.644104
2208.000000	99.623148
2207.000000	99.590722
2206.000000	99.565733
2205.000000	99.553622
2204.000000	99.544067
2203.000000	99.528136
2202.000000	99.508115
2201.000000	99.491300
2200.000000	99.483391
2199.000000	99.487230
2198.000000	99.498798
2197.000000	99.504318
2196.000000	99.491329
2195.000000	99.465038
2194.000000	99.445662
2193.000000	99.446721
2192.000000	99.461049
2191.000000	99.470898
2190.000000	99.466873
2189.000000	99.454533
2188.000000	99.446056
2187.000000	99.447503
2186.000000	99.453881
2185.000000	99.456397
2184.000000	99.453102
2183.000000	99.449278
2182.000000	99.447486
2181.000000	99.444042
2180.000000	99.437965
2179.000000	99.436022
2178.000000	99.443806
2177.000000	99.457349
2176.000000	99.468492
2175.000000	99.473874
2174.000000	99.473742
2173.000000	99.466471
2172.000000	99.450549
2171.000000	99.429282
2170.000000	99.409592
2169.000000	99.398114
2168.000000	99.398436
2167.000000	99.407494
2166.000000	99.414418
2165.000000	99.409871
2164.000000	99.400054
2163.000000	99.404547
2162.000000	99.437162
2161.000000	99.494834
2160.000000	99.563510
2159.000000	99.624534
2158.000000	99.657708
2157.000000	99.657629
2156.000000	99.646541
2155.000000	99.651239
2154.000000	99.671484
2153.000000	99.686824
2152.000000	99.690493
2151.000000	99.697146
2150.000000	99.713893
2149.000000	99.722725
2148.000000	99.704539
2147.000000	99.667591
2146.000000	99.639681
2145.000000	99.638728
2144.000000	99.658857
2143.000000	99.679533
2142.000000	99.681760
2141.000000	99.661696
2140.000000	99.634811
2139.000000	99.621444
2138.000000	99.624894
2137.000000	99.629869
2136.000000	99.623711
2135.000000	99.611394
2134.000000	99.605624
2133.000000	99.611631
2132.000000	99.626550
2131.000000	99.645289
2130.000000	99.660917
2129.000000	99.665425
2128.000000	99.656349
2127.000000	99.639212
2126.000000	99.620640
2125.000000	99.602986
2124.000000	99.587368
2123.000000	99.575782
2122.000000	99.566851
2121.000000	99.554201
2120.000000	99.533152
2119.000000	99.506116
2118.000000	99.480080
2117.000000	99.463018
2116.000000	99.462810
2115.000000	99.481982
2114.000000	99.510181
2113.000000	99.528627
2112.000000	99.527846
2111.000000	99.516577
2110.000000	99.508895
2109.000000	99.509043
2108.000000	99.513676
2107.000000	99.522080
2106.000000	99.535649
2105.000000	99.550784
2104.000000	99.560265
2103.000000	99.560658
2102.000000	99.553764
2101.000000	99.543046
2100.000000	99.532890
2099.000000	99.528085
2098.000000	99.529626
2097.000000	99.533552
2096.000000	99.537230
2095.000000	99.542793
2094.000000	99.550419
2093.000000	99.553327
2092.000000	99.545515
2091.000000	99.531049
2090.000000	99.519839
2089.000000	99.515898
2088.000000	99.514024
2087.000000	99.508029
2086.000000	99.498860
2085.000000	99.494128
2084.000000	99.500703
2083.000000	99.517105
2082.000000	99.533664
2081.000000	99.541882
2080.000000	99.542461
2079.000000	99.541312
2078.000000	99.540309
2077.000000	99.537839
2076.000000	99.535882
2075.000000	99.538286
2074.000000	99.542741
2073.000000	99.543347
2072.000000	99.540886
2071.000000	99.539913
2070.000000	99.535976
2069.000000	99.519159
2068.000000	99.493732
2067.000000	99.480378
2066.000000	99.492785
2065.000000	99.522297
2064.000000	99.551209
2063.000000	99.570912
2062.000000	99.579255
2061.000000	99.573142
2060.000000	99.554641
2059.000000	99.534494
2058.000000	99.520472
2057.000000	99.511246
2056.000000	99.507864
2055.000000	99.519010
2054.000000	99.544576
2053.000000	99.565320
2052.000000	99.562614
2051.000000	99.540718
2050.000000	99.519869
2049.000000	99.515325
2048.000000	99.531182
2047.000000	99.565433
2046.000000	99.608223
2045.000000	99.640635
2044.000000	99.648837
2043.000000	99.635589
2042.000000	99.610340
2041.000000	99.578684
2040.000000	99.549293
2039.000000	99.536320
2038.000000	99.543003
2037.000000	99.556569
2036.000000	99.573012
2035.000000	99.613007
2034.000000	99.691543
2033.000000	99.781179
2032.000000	99.829340
2031.000000	99.810712
2030.000000	99.746443
2029.000000	99.682770
2028.000000	99.662605
2027.000000	99.699653
2026.000000	99.764396
2025.000000	99.803570
2024.000000	99.789293
2023.000000	99.743241
2022.000000	99.704977
2021.000000	99.691922
2020.000000	99.696692
2019.000000	99.705386
2018.000000	99.705950
2017.000000	99.693219
2016.000000	99.678546
2015.000000	99.680481
2014.000000	99.697266
2013.000000	99.703623
2012.000000	99.683383
2011.000000	99.651209
2010.000000	99.632017
2009.000000	99.634813
2008.000000	99.655065
2007.000000	99.685196
2006.000000	99.709291
2005.000000	99.704398
2004.000000	99.664895
2003.000000	99.613113
2002.000000	99.576401
2001.000000	99.564859
2000.000000	99.574013
1999.000000	99.595400
1998.000000	99.616174
1997.000000	99.621851
1996.000000	99.611077
1995.000000	99.597290
1994.000000	99.589433
1993.000000	99.583804
1992.000000	99.578465
1991.000000	99.578818
1990.000000	99.582478
1989.000000	99.577981
1988.000000	99.565583
1987.000000	99.557917
1986.000000	99.551968
1985.000000	99.525590
1984.000000	99.475803
1983.000000	99.435579
1982.000000	99.433168
1981.000000	99.458191
1980.000000	99.491130
1979.000000	99.544211
1978.000000	99.635505
1977.000000	99.734845
1976.000000	99.784571
1975.000000	99.772556
1974.000000	99.738167
1973.000000	99.716296
1972.000000	99.713018
1971.000000	99.724979
1970.000000	99.748095
1969.000000	99.767447
1968.000000	99.764375
1967.000000	99.740075
1966.000000	99.717336
1965.000000	99.715885
1964.000000	99.735986
1963.000000	99.761160
1962.000000	99.765988
1961.000000	99.731710
1960.000000	99.666998
1959.000000	99.603827
1958.000000	99.566708
1957.000000	99.557035
1956.000000	99.568953
1955.000000	99.603035
1954.000000	99.653991
1953.000000	99.698960
1952.000000	99.713960
1951.000000	99.697871
1950.000000	99.672157
1949.000000	99.661144
1948.000000	99.676162
1947.000000	99.710933
1946.000000	99.745439
1945.000000	99.760109
1944.000000	99.751688
1943.000000	99.731352
1942.000000	99.706375
1941.000000	99.674441
1940.000000	99.640538
1939.000000	99.622336
1938.000000	99.631241
1937.000000	99.658085
1936.000000	99.682879
1935.000000	99.692791
1934.000000	99.685291
1933.000000	99.664700
1932.000000	99.643367
1931.000000	99.636292
1930.000000	99.647368
1929.000000	99.664759
1928.000000	99.676101
1927.000000	99.683071
1926.000000	99.693663
1925.000000	99.707162
1924.000000	99.714062
1923.000000	99.709221
1922.000000	99.697533
1921.000000	99.686169
1920.000000	99.677935
1919.000000	99.671537
1918.000000	99.662461
1917.000000	99.645245
1916.000000	99.619216
1915.000000	99.590886
1914.000000	99.568734
1913.000000	99.559317
1912.000000	99.566034
1911.000000	99.586410
1910.000000	99.610345
1909.000000	99.625346
1908.000000	99.628309
1907.000000	99.627659
1906.000000	99.629997
1905.000000	99.632324
1904.000000	99.629535
1903.000000	99.623896
1902.000000	99.620874
1901.000000	99.620037
1900.000000	99.618077
1899.000000	99.616581
1898.000000	99.618767
1897.000000	99.623003
1896.000000	99.625272
1895.000000	99.626869
1894.000000	99.633165
1893.000000	99.645042
1892.000000	99.658047
1891.000000	99.668411
1890.000000	99.674654
1889.000000	99.675800
1888.000000	99.672224
1887.000000	99.668080
1886.000000	99.667039
1885.000000	99.666877
1884.000000	99.662258
1883.000000	99.651977
1882.000000	99.640976
1881.000000	99.635027
1880.000000	99.636333
1879.000000	99.643071
1878.000000	99.651327
1877.000000	99.659438
1876.000000	99.669523
1875.000000	99.681873
1874.000000	99.689896
1873.000000	99.685917
1872.000000	99.671723
1871.000000	99.658617
1870.000000	99.656692
1869.000000	99.666921
1868.000000	99.681944
1867.000000	99.694486
1866.000000	99.702778
1865.000000	99.706214
1864.000000	99.705135
1863.000000	99.702589
1862.000000	99.700126
1861.000000	99.695001
1860.000000	99.685053
1859.000000	99.673034
1858.000000	99.663479
1857.000000	99.658543
1856.000000	99.659588
1855.000000	99.668724
1854.000000	99.683313
1853.000000	99.693533
1852.000000	99.692359
1851.000000	99.684592
1850.000000	99.679154
1849.000000	99.679076
1848.000000	99.682200
1847.000000	99.687103
1846.000000	99.693382
1845.000000	99.698196
1844.000000	99.698592
1843.000000	99.697645
1842.000000	99.701305
1841.000000	99.708998
1840.000000	99.715993
1839.000000	99.718840
1838.000000	99.715367
1837.000000	99.706416
1836.000000	99.698180
1835.000000	99.698225
1834.000000	99.706583
1833.000000	99.715884
1832.000000	99.722036
1831.000000	99.726771
1830.000000	99.729763
1829.000000	99.727963
1828.000000	99.724057
1827.000000	99.724263
1826.000000	99.727163
1825.000000	99.725482
1824.000000	99.717276
1823.000000	99.708375
1822.000000	99.703420
1821.000000	99.702448
1820.000000	99.706245
1819.000000	99.715965
1818.000000	99.728034
1817.000000	99.736420
1816.000000	99.739821
1815.000000	99.743000
1814.000000	99.749138
1813.000000	99.755250
1812.000000	99.756812
1811.000000	99.750393
1810.000000	99.734787
1809.000000	99.713409
1808.000000	99.692340
1807.000000	99.675833
1806.000000	99.663343
1805.000000	99.650283
1804.000000	99.632180
1803.000000	99.606548
1802.000000	99.571314
1801.000000	99.527277
1800.000000	99.482410
1799.000000	99.446268
1798.000000	99.423078
1797.000000	99.408820
1796.000000	99.395400
1795.000000	99.379071
1794.000000	99.363673
1793.000000	99.359665
1792.000000	99.378006
1791.000000	99.414868
1790.000000	99.455015
1789.000000	99.489044
1788.000000	99.517065
1787.000000	99.544558
1786.000000	99.575419
1785.000000	99.606166
1784.000000	99.629954
1783.000000	99.646837
1782.000000	99.660701
1781.000000	99.670170
1780.000000	99.672840
1779.000000	99.672072
1778.000000	99.674927
1777.000000	99.682503
1776.000000	99.689944
1775.000000	99.694231
1774.000000	99.696028
1773.000000	99.698137
1772.000000	99.706910
1771.000000	99.724676
1770.000000	99.743966
1769.000000	99.754392
1768.000000	99.751513
1767.000000	99.741660
1766.000000	99.734946
1765.000000	99.734761
1764.000000	99.738090
1763.000000	99.741638
1762.000000	99.743024
1761.000000	99.740759
1760.000000	99.738140
1759.000000	99.738073
1758.000000	99.737350
1757.000000	99.728616
1756.000000	99.712445
1755.000000	99.699071
1754.000000	99.692479
1753.000000	99.685271
1752.000000	99.670169
1751.000000	99.650766
1750.000000	99.633882
1749.000000	99.617846
1748.000000	99.602011
1747.000000	99.593519
1746.000000	99.594677
1745.000000	99.598139
1744.000000	99.596461
1743.000000	99.586194
1742.000000	99.564986
1741.000000	99.533456
1740.000000	99.502331
1739.000000	99.486754
1738.000000	99.486462
1737.000000	99.487239
1736.000000	99.481090
1735.000000	99.477326
1734.000000	99.495230
1733.000000	99.527583
1732.000000	99.556920
1731.000000	99.584991
1730.000000	99.614395
1729.000000	99.637817
1728.000000	99.650632
1727.000000	99.659363
1726.000000	99.669065
1725.000000	99.676364
1724.000000	99.678265
1723.000000	99.678835
1722.000000	99.682977
1721.000000	99.689177
1720.000000	99.693507
1719.000000	99.693023
1718.000000	99.684307
1717.000000	99.674443
1716.000000	99.671460
1715.000000	99.673034
1714.000000	99.676070
1713.000000	99.676831
1712.000000	99.673671
1711.000000	99.670335
1710.000000	99.668683
1709.000000	99.663882
1708.000000	99.652219
1707.000000	99.637746
1706.000000	99.628046
1705.000000	99.624851
1704.000000	99.619300
1703.000000	99.601605
1702.000000	99.565230
1701.000000	99.511182
1700.000000	99.459027
1699.000000	99.431722
1698.000000	99.429402
1697.000000	99.431828
1696.000000	99.425426
1695.000000	99.408285
1694.000000	99.391574
1693.000000	99.381752
1692.000000	99.372249
1691.000000	99.358225
1690.000000	99.339042
1689.000000	99.314479
1688.000000	99.286027
1687.000000	99.255176
1686.000000	99.219200
1685.000000	99.175391
1684.000000	99.135794
1683.000000	99.115303
1682.000000	99.109887
1681.000000	99.104083
1680.000000	99.086916
1679.000000	99.059323
1678.000000	99.025967
1677.000000	98.985671
1676.000000	98.938954
1675.000000	98.899042
1674.000000	98.876369
1673.000000	98.861054
1672.000000	98.837965
1671.000000	98.803013
1670.000000	98.765753
1669.000000	98.735664
1668.000000	98.713655
1667.000000	98.698990
1666.000000	98.684568
1665.000000	98.660444
1664.000000	98.624205
1663.000000	98.585670
1662.000000	98.556577
1661.000000	98.534563
1660.000000	98.513196
1659.000000	98.493757
1658.000000	98.478241
1657.000000	98.462660
1656.000000	98.439148
1655.000000	98.406671
1654.000000	98.378837
1653.000000	98.376852
1652.000000	98.374685
1651.000000	98.374205
1650.000000	98.374405
1649.000000	98.364317
1648.000000	98.345155
1647.000000	98.342042
1646.000000	98.368489
1645.000000	98.396957
1644.000000	98.412020
1643.000000	98.418013
1642.000000	98.422099
1641.000000	98.427302
1640.000000	98.432152
1639.000000	98.433274
1638.000000	98.428854
1637.000000	98.423521
1636.000000	98.431300
1635.000000	98.456231
1634.000000	98.480389
1633.000000	98.498325
1632.000000	98.509958
1631.000000	98.517662
1630.000000	98.525852
1629.000000	98.537049
1628.000000	98.550863
1627.000000	98.566047
1626.000000	98.578860
1625.000000	98.586819
1624.000000	98.598279
1623.000000	98.626917
1622.000000	98.667094
1621.000000	98.695955
1620.000000	98.704578
1619.000000	98.700137
1618.000000	98.695416
1617.000000	98.703791
1616.000000	98.730027
1615.000000	98.766920
1614.000000	98.803458
1613.000000	98.829090
1612.000000	98.842600
1611.000000	98.853834
1610.000000	98.871353
1609.000000	98.890119
1608.000000	98.901652
1607.000000	98.907549
1606.000000	98.912631
1605.000000	98.915421
1604.000000	98.915282
1603.000000	98.916785
1602.000000	98.921389
1601.000000	98.923097
1600.000000	98.918494
1599.000000	98.912385
1598.000000	98.907837
1597.000000	98.901087
1596.000000	98.889908
1595.000000	98.878465
1594.000000	98.869468
1593.000000	98.858353
1592.000000	98.842732
1591.000000	98.828426
1590.000000	98.819266
1589.000000	98.808632
1588.000000	98.789335
1587.000000	98.763600
1586.000000	98.736020
1585.000000	98.704930
1584.000000	98.669407
1583.000000	98.635935
1582.000000	98.608812
1581.000000	98.583428
1580.000000	98.555456
1579.000000	98.528503
1578.000000	98.507859
1577.000000	98.497448
1576.000000	98.504964
1575.000000	98.533222
1574.000000	98.568395
1573.000000	98.593084
1572.000000	98.603392
1571.000000	98.610270
1570.000000	98.628825
1569.000000	98.654425
1568.000000	98.672474
1567.000000	98.685295
1566.000000	98.696740
1565.000000	98.703165
1564.000000	98.702381
1563.000000	98.698766
1562.000000	98.691770
1561.000000	98.670531
1560.000000	98.622276
1559.000000	98.563340
1558.000000	98.544871
1557.000000	98.539948
1556.000000	98.536380
1555.000000	98.531300
1554.000000	98.519916
1553.000000	98.499424
1552.000000	98.471904
1551.000000	98.434261
1550.000000	98.377384
1549.000000	98.298851
1548.000000	98.210396
1547.000000	98.121999
1546.000000	98.027153
1545.000000	97.913866
1544.000000	97.787433
1543.000000	97.666535
1542.000000	97.556294
1541.000000	97.455608
1540.000000	97.387628
1539.000000	97.365842
1538.000000	97.358982
1537.000000	97.347601
1536.000000	97.326869
1535.000000	97.300870
1534.000000	97.275264
1533.000000	97.247981
1532.000000	97.211679
1531.000000	97.165000
1530.000000	97.109913
1529.000000	97.046486
1528.000000	96.975351
1527.000000	96.897811
1526.000000	96.811992
1525.000000	96.718464
1524.000000	96.623914
1523.000000	96.531734
1522.000000	96.438908
1521.000000	96.349880
1520.000000	96.272911
1519.000000	96.207407
1518.000000	96.140458
1517.000000	96.059292
1516.000000	95.966461
1515.000000	95.871349
1514.000000	95.774636
1513.000000	95.674858
1512.000000	95.580028
1511.000000	95.498088
1510.000000	95.419488
1509.000000	95.320140
1508.000000	95.186826
1507.000000	95.049472
1506.000000	94.938270
1505.000000	94.836325
1504.000000	94.751717
1503.000000	94.675795
1502.000000	94.590850
1501.000000	94.488775
1500.000000	94.378336
1499.000000	94.272964
1498.000000	94.168819
1497.000000	94.057484
1496.000000	93.951330
1495.000000	93.863570
1494.000000	93.784334
1493.000000	93.698080
1492.000000	93.602391
1491.000000	93.506210
1490.000000	93.415689
1489.000000	93.329165
1488.000000	93.242872
1487.000000	93.155742
1486.000000	93.068376
1485.000000	92.977879
1484.000000	92.883783
1483.000000	92.790081
1482.000000	92.696413
1481.000000	92.601142
1480.000000	92.507677
1479.000000	92.419802
1478.000000	92.332871
1477.000000	92.237275
1476.000000	92.130026
1475.000000	92.015029
1474.000000	91.895858
1473.000000	91.781508
1472.000000	91.689564
1471.000000	91.614575
1470.000000	91.536686
1469.000000	91.448414
1468.000000	91.354794
1467.000000	91.262877
1466.000000	91.174003
1465.000000	91.086475
1464.000000	91.003834
1463.000000	90.927693
1462.000000	90.850647
1461.000000	90.765033
1460.000000	90.670161
1459.000000	90.569722
1458.000000	90.466216
1457.000000	90.372811
1456.000000	90.302447
1455.000000	90.242026
1454.000000	90.171206
1453.000000	90.083174
1452.000000	89.989171
1451.000000	89.902792
1450.000000	89.823164
1449.000000	89.742997
1448.000000	89.664602
1447.000000	89.592706
1446.000000	89.519419
1445.000000	89.436944
1444.000000	89.351207
1443.000000	89.271213
1442.000000	89.195702
1441.000000	89.116900
1440.000000	89.033862
1439.000000	88.952285
1438.000000	88.876095
1437.000000	88.808944
1436.000000	88.753049
1435.000000	88.697506
1434.000000	88.625800
1433.000000	88.534326
1432.000000	88.433762
1431.000000	88.337618
1430.000000	88.245717
1429.000000	88.149981
1428.000000	88.052870
1427.000000	87.960482
1426.000000	87.867182
1425.000000	87.762827
1424.000000	87.652184
1423.000000	87.546532
1422.000000	87.439067
1421.000000	87.316546
1420.000000	87.184740
1419.000000	87.066890
1418.000000	86.961747
1417.000000	86.844720
1416.000000	86.712579
1415.000000	86.574814
1414.000000	86.431549
1413.000000	86.279372
1412.000000	86.126722
1411.000000	85.984889
1410.000000	85.846284
1409.000000	85.696773
1408.000000	85.543021
1407.000000	85.402639
1406.000000	85.276318
1405.000000	85.151648
1404.000000	85.032510
1403.000000	84.931064
1402.000000	84.839825
1401.000000	84.744387
1400.000000	84.648682
1399.000000	84.566829
1398.000000	84.490058
1397.000000	84.399824
1396.000000	84.307616
1395.000000	84.243472
1394.000000	84.208485
1393.000000	84.182555
1392.000000	84.172166
1391.000000	84.195501
1390.000000	84.251877
1389.000000	84.336159
1388.000000	84.464823
1387.000000	84.650857
1386.000000	84.861302
1385.000000	85.059848
1384.000000	85.260088
1383.000000	85.489324
1382.000000	85.742555
1381.000000	85.998795
1380.000000	86.258071
1379.000000	86.528490
1378.000000	86.796484
1377.000000	87.048082
1376.000000	87.304426
1375.000000	87.599411
1374.000000	87.922766
1373.000000	88.223926
1372.000000	88.482160
1371.000000	88.720026
1370.000000	88.961027
1369.000000	89.211363
1368.000000	89.466306
1367.000000	89.712762
1366.000000	89.939282
1365.000000	90.155597
1364.000000	90.389581
1363.000000	90.652808
1362.000000	90.915699
1361.000000	91.143159
1360.000000	91.338182
1359.000000	91.519971
1358.000000	91.694819
1357.000000	91.864032
1356.000000	92.034634
1355.000000	92.207166
1354.000000	92.369018
1353.000000	92.512821
1352.000000	92.646752
1351.000000	92.777367
1350.000000	92.899846
1349.000000	93.009107
1348.000000	93.110159
1347.000000	93.207698
1346.000000	93.298591
1345.000000	93.381516
1344.000000	93.462714
1343.000000	93.546081
1342.000000	93.629416
1341.000000	93.714057
1340.000000	93.806004
1339.000000	93.900469
1338.000000	93.979790
1337.000000	94.039705
1336.000000	94.096279
1335.000000	94.161246
1334.000000	94.230528
1333.000000	94.298461
1332.000000	94.367919
1331.000000	94.441327
1330.000000	94.514168
1329.000000	94.583041
1328.000000	94.650710
1327.000000	94.718149
1326.000000	94.781277
1325.000000	94.838241
1324.000000	94.893283
1323.000000	94.948193
1322.000000	94.999370
1321.000000	95.046796
1320.000000	95.096747
1319.000000	95.151362
1318.000000	95.203843
1317.000000	95.249588
1316.000000	95.292500
1315.000000	95.336757
1314.000000	95.381839
1313.000000	95.428529
1312.000000	95.480087
1311.000000	95.534792
1310.000000	95.586290
1309.000000	95.633367
1308.000000	95.680832
1307.000000	95.729673
1306.000000	95.775607
1305.000000	95.817576
1304.000000	95.860142
1303.000000	95.904405
1302.000000	95.945967
1301.000000	95.983774
1300.000000	96.022979
1299.000000	96.066724
1298.000000	96.112442
1297.000000	96.157203
1296.000000	96.199153
1295.000000	96.234049
1294.000000	96.258763
1293.000000	96.278112
1292.000000	96.299610
1291.000000	96.321805
1290.000000	96.336587
1289.000000	96.343253
1288.000000	96.349934
1287.000000	96.360551
1286.000000	96.370507
1285.000000	96.377383
1284.000000	96.385876
1283.000000	96.399232
1282.000000	96.414563
1281.000000	96.429126
1280.000000	96.443869
1279.000000	96.459096
1278.000000	96.473754
1277.000000	96.490500
1276.000000	96.513710
1275.000000	96.541234
1274.000000	96.565247
1273.000000	96.582496
1272.000000	96.596909
1271.000000	96.611252
1270.000000	96.623553
1269.000000	96.633033
1268.000000	96.641857
1267.000000	96.649524
1266.000000	96.652787
1265.000000	96.653198
1264.000000	96.657538
1263.000000	96.668720
1262.000000	96.682533
1261.000000	96.694927
1260.000000	96.705898
1259.000000	96.715545
1258.000000	96.722727
1257.000000	96.728811
1256.000000	96.736001
1255.000000	96.741592
1254.000000	96.740325
1253.000000	96.732715
1252.000000	96.724286
1251.000000	96.716889
1250.000000	96.707414
1249.000000	96.695001
1248.000000	96.682608
1247.000000	96.670824
1246.000000	96.657354
1245.000000	96.643860
1244.000000	96.635948
1243.000000	96.634288
1242.000000	96.632454
1241.000000	96.625756
1240.000000	96.615823
1239.000000	96.605122
1238.000000	96.593541
1237.000000	96.582538
1236.000000	96.576198
1235.000000	96.575715
1234.000000	96.578371
1233.000000	96.583813
1232.000000	96.595768
1231.000000	96.615340
1230.000000	96.638548
1229.000000	96.663272
1228.000000	96.692530
1227.000000	96.728454
1226.000000	96.768355
1225.000000	96.809333
1224.000000	96.851817
1223.000000	96.895712
1222.000000	96.938084
1221.000000	96.977136
1220.000000	97.014506
1219.000000	97.051925
1218.000000	97.089089
1217.000000	97.125345
1216.000000	97.159151
1215.000000	97.185994
1214.000000	97.202067
1213.000000	97.210966
1212.000000	97.221185
1211.000000	97.235664
1210.000000	97.248875
1209.000000	97.254974
1208.000000	97.253925
1207.000000	97.248521
1206.000000	97.241029
1205.000000	97.234472
1204.000000	97.232434
1203.000000	97.235546
1202.000000	97.241354
1201.000000	97.248573
1200.000000	97.258046
1199.000000	97.269461
1198.000000	97.281135
1197.000000	97.293731
1196.000000	97.310171
1195.000000	97.330942
1194.000000	97.353419
1193.000000	97.375785
1192.000000	97.397843
1191.000000	97.418193
1190.000000	97.435049
1189.000000	97.449984
1188.000000	97.466269
1187.000000	97.483084
1186.000000	97.495304
1185.000000	97.499765
1184.000000	97.497813
1183.000000	97.492175
1182.000000	97.485638
1181.000000	97.482276
1180.000000	97.485179
1179.000000	97.492187
1178.000000	97.497909
1177.000000	97.500193
1176.000000	97.500767
1175.000000	97.500166
1174.000000	97.496343
1173.000000	97.488352
1172.000000	97.477977
1171.000000	97.467492
1170.000000	97.458592
1169.000000	97.452741
1168.000000	97.449550
1167.000000	97.445855
1166.000000	97.439677
1165.000000	97.433841
1164.000000	97.432283
1163.000000	97.434520
1162.000000	97.437650
1161.000000	97.442176
1160.000000	97.450879
1159.000000	97.463144
1158.000000	97.475233
1157.000000	97.485532
1156.000000	97.495528
1155.000000	97.506440
1154.000000	97.519115
1153.000000	97.536105
1152.000000	97.559154
1151.000000	97.585408
1150.000000	97.610164
1149.000000	97.632433
1148.000000	97.653873
1147.000000	97.674069
1146.000000	97.691471
1145.000000	97.707103
1144.000000	97.722606
1143.000000	97.736528
1142.000000	97.747386
1141.000000	97.758353
1140.000000	97.773815
1139.000000	97.793026
1138.000000	97.811843
1137.000000	97.828724
1136.000000	97.844150
1135.000000	97.856865
1134.000000	97.866351
1133.000000	97.876257
1132.000000	97.889201
1131.000000	97.900318
1130.000000	97.902591
1129.000000	97.897092
1128.000000	97.891561
1127.000000	97.890528
1126.000000	97.893021
1125.000000	97.898018
1124.000000	97.905107
1123.000000	97.910789
1122.000000	97.911141
1121.000000	97.907840
1120.000000	97.905296
1119.000000	97.902957
1118.000000	97.896920
1117.000000	97.888174
1116.000000	97.882162
1115.000000	97.880597
1114.000000	97.880380
1113.000000	97.880048
1112.000000	97.880267
1111.000000	97.878281
1110.000000	97.869639
1109.000000	97.856161
1108.000000	97.845703
1107.000000	97.842053
1106.000000	97.841406
1105.000000	97.839681
1104.000000	97.837175
1103.000000	97.834673
1102.000000	97.831010
1101.000000	97.825938
1100.000000	97.821679
1099.000000	97.818110
1098.000000	97.813568
1097.000000	97.808147
1096.000000	97.802439
1095.000000	97.793696
1094.000000	97.779167
1093.000000	97.762561
1092.000000	97.750077
1091.000000	97.739914
1090.000000	97.722403
1089.000000	97.692298
1088.000000	97.654616
1087.000000	97.616853
1086.000000	97.581938
1085.000000	97.551129
1084.000000	97.527843
1083.000000	97.514049
1082.000000	97.506126
1081.000000	97.497812
1080.000000	97.486288
1079.000000	97.474294
1078.000000	97.468245
1077.000000	97.474538
1076.000000	97.494401
1075.000000	97.522215
1074.000000	97.550861
1073.000000	97.577509
1072.000000	97.601090
1071.000000	97.617095
1070.000000	97.621252
1069.000000	97.617426
1068.000000	97.615356
1067.000000	97.620063
1066.000000	97.628574
1065.000000	97.637090
1064.000000	97.645518
1063.000000	97.653855
1062.000000	97.659993
1061.000000	97.663484
1060.000000	97.667720
1059.000000	97.676192
1058.000000	97.689033
1057.000000	97.703667
1056.000000	97.716349
1055.000000	97.723517
1054.000000	97.725222
1053.000000	97.726898
1052.000000	97.734437
1051.000000	97.747477
1050.000000	97.760604
1049.000000	97.770292
1048.000000	97.777251
1047.000000	97.783443
1046.000000	97.790437
1045.000000	97.798963
1044.000000	97.806590
1043.000000	97.808412
1042.000000	97.803838
1041.000000	97.800044
1040.000000	97.803808
1039.000000	97.812410
1038.000000	97.817479
1037.000000	97.815661
1036.000000	97.810226
1035.000000	97.804274
1034.000000	97.798487
1033.000000	97.794006
1032.000000	97.791750
1031.000000	97.789979
1030.000000	97.787884
1029.000000	97.790063
1028.000000	97.801514
1027.000000	97.819295
1026.000000	97.835445
1025.000000	97.847397
1024.000000	97.859818
1023.000000	97.876865
1022.000000	97.898642
1021.000000	97.924370
1020.000000	97.952364
1019.000000	97.977249
1018.000000	97.993860
1017.000000	98.004410
1016.000000	98.015832
1015.000000	98.030375
1014.000000	98.044861
1013.000000	98.059023
1012.000000	98.077605
1011.000000	98.103177
1010.000000	98.132968
1009.000000	98.164027
1008.000000	98.195833
1007.000000	98.226083
1006.000000	98.249851
1005.000000	98.265661
1004.000000	98.279039
1003.000000	98.297905
1002.000000	98.326491
1001.000000	98.363492
1000.000000	98.402851
999.000000	98.436452
998.000000	98.459972
997.000000	98.476462
996.000000	98.491745
995.000000	98.507555
994.000000	98.522596
993.000000	98.538893
992.000000	98.561924
991.000000	98.594028
990.000000	98.631042
989.000000	98.665859
988.000000	98.693202
987.000000	98.712193
986.000000	98.727263
985.000000	98.744859
984.000000	98.766011
983.000000	98.784064
982.000000	98.793035
981.000000	98.795607
980.000000	98.799224
979.000000	98.806463
978.000000	98.813538
977.000000	98.816105
976.000000	98.812510
975.000000	98.804002
974.000000	98.795810
973.000000	98.795030
972.000000	98.802809
971.000000	98.811198
970.000000	98.812763
969.000000	98.810353
968.000000	98.812328
967.000000	98.821721
966.000000	98.836096
965.000000	98.854810
964.000000	98.878676
963.000000	98.904489
962.000000	98.927226
961.000000	98.946989
960.000000	98.967118
959.000000	98.986953
958.000000	99.003526
957.000000	99.018795
956.000000	99.037698
955.000000	99.059695
954.000000	99.079888
953.000000	99.097537
952.000000	99.115760
951.000000	99.132853
950.000000	99.142637
949.000000	99.144683
948.000000	99.146447
947.000000	99.153283
946.000000	99.162615
945.000000	99.170000
944.000000	99.174837
943.000000	99.178527
942.000000	99.182530
941.000000	99.189687
940.000000	99.202059
939.000000	99.216220
938.000000	99.225764
937.000000	99.230059
936.000000	99.235718
935.000000	99.248336
934.000000	99.266949
933.000000	99.286595
932.000000	99.301962
931.000000	99.309037
930.000000	99.309015
929.000000	99.310435
928.000000	99.321739
927.000000	99.341175
926.000000	99.359735
925.000000	99.373370
924.000000	99.385922
923.000000	99.399869
922.000000	99.411800
921.000000	99.419202
920.000000	99.425220
919.000000	99.434260
918.000000	99.447478
917.000000	99.464018
916.000000	99.481833
915.000000	99.496489
914.000000	99.504614
913.000000	99.509494
912.000000	99.517505
911.000000	99.528519
910.000000	99.535740
909.000000	99.536297
908.000000	99.535866
907.000000	99.540795
906.000000	99.551593
905.000000	99.565928
904.000000	99.582586
903.000000	99.600017
902.000000	99.615775
901.000000	99.629574
900.000000	99.643566
899.000000	99.658743
898.000000	99.674834
897.000000	99.692261
896.000000	99.709730
895.000000	99.721972
894.000000	99.726825
893.000000	99.732775
892.000000	99.751258
891.000000	99.782006
890.000000	99.812937
889.000000	99.832442
888.000000	99.831594
887.000000	99.793029
886.000000	99.689689
885.000000	99.495073
884.000000	99.183962
883.000000	98.726163
882.000000	98.088149
881.000000	97.248660
880.000000	96.204272
879.000000	94.965249
878.000000	93.562979
877.000000	92.050810
876.000000	90.484027
875.000000	88.909182
874.000000	87.441798
873.000000	86.374660
872.000000	86.148631
871.000000	87.069496
870.000000	88.990967
869.000000	91.335753
868.000000	93.465441
867.000000	95.044246
866.000000	96.093744
865.000000	96.792849
864.000000	97.287235
863.000000	97.649672
862.000000	97.919888
861.000000	98.128233
860.000000	98.294179
859.000000	98.428231
858.000000	98.541412
857.000000	98.641535
856.000000	98.727507
855.000000	98.796590
854.000000	98.852647
853.000000	98.898523
852.000000	98.921641
851.000000	98.901299
850.000000	98.838396
849.000000	98.772312
848.000000	98.758022
847.000000	98.820531
846.000000	98.933686
845.000000	99.046745
844.000000	99.128377
843.000000	99.182428
842.000000	99.226876
841.000000	99.268978
840.000000	99.304594
839.000000	99.331439
838.000000	99.353509
837.000000	99.374586
836.000000	99.395415
835.000000	99.417718
834.000000	99.444235
833.000000	99.473078
832.000000	99.497359
831.000000	99.513421
830.000000	99.525894
829.000000	99.541643
828.000000	99.561061
827.000000	99.578499
826.000000	99.589502
825.000000	99.594564
824.000000	99.596669
823.000000	99.598074
822.000000	99.599910
821.000000	99.603407
820.000000	99.610757
819.000000	99.624364
818.000000	99.643988
817.000000	99.664449
816.000000	99.678031
815.000000	99.680800
814.000000	99.676362
813.000000	99.672627
812.000000	99.675190
811.000000	99.683873
810.000000	99.694244
809.000000	99.701803
808.000000	99.705958
807.000000	99.710419
806.000000	99.718767
805.000000	99.729203
804.000000	99.735044
803.000000	99.731137
802.000000	99.718647
801.000000	99.703600
800.000000	99.692534
799.000000	99.689490
798.000000	99.694147
797.000000	99.701357
796.000000	99.704498
795.000000	99.701154
794.000000	99.694421
793.000000	99.688301
792.000000	99.683995
791.000000	99.681407
790.000000	99.681665
789.000000	99.686241
788.000000	99.694613
787.000000	99.703515
786.000000	99.707563
785.000000	99.701606
784.000000	99.685568
783.000000	99.667199
782.000000	99.656474
781.000000	99.656648
780.000000	99.663772
779.000000	99.674154
778.000000	99.686118
777.000000	99.693707
776.000000	99.687031
775.000000	99.664730
774.000000	99.640854
773.000000	99.632584
772.000000	99.643145
771.000000	99.661215
770.000000	99.673930
769.000000	99.675571
768.000000	99.667083
767.000000	99.654297
766.000000	99.645768
765.000000	99.646150
764.000000	99.651511
763.000000	99.655151
762.000000	99.656859
761.000000	99.661826
760.000000	99.672159
759.000000	99.684838
758.000000	99.697254
757.000000	99.709191
756.000000	99.719459
755.000000	99.726005
754.000000	99.729576
753.000000	99.732587
752.000000	99.734887
751.000000	99.735271
750.000000	99.736153
749.000000	99.741309
748.000000	99.748937
747.000000	99.752144
746.000000	99.747520
745.000000	99.739252
744.000000	99.734107
743.000000	99.736049
742.000000	99.744769
741.000000	99.754695
740.000000	99.756611
739.000000	99.745821
738.000000	99.727703
737.000000	99.710016
736.000000	99.692070
735.000000	99.668666
734.000000	99.642947
733.000000	99.625028
732.000000	99.617196
731.000000	99.609898
730.000000	99.595431
729.000000	99.576047
728.000000	99.558336
727.000000	99.545905
726.000000	99.536650
725.000000	99.525241
724.000000	99.506219
723.000000	99.475478
722.000000	99.427724
721.000000	99.352684
720.000000	99.237541
719.000000	99.072601
718.000000	98.846740
717.000000	98.535491
716.000000	98.113162
715.000000	97.603474
714.000000	97.118997
713.000000	96.820626
712.000000	96.811595
711.000000	97.064287
710.000000	97.451662
709.000000	97.840276
708.000000	98.155347
707.000000	98.384594
706.000000	98.543591
705.000000	98.650275
704.000000	98.722167
703.000000	98.776902
702.000000	98.828580
701.000000	98.882832
700.000000	98.933772
699.000000	98.973069
698.000000	98.998278
697.000000	99.013655
696.000000	99.027493
695.000000	99.045790
694.000000	99.072357
693.000000	99.107264
692.000000	99.142106
691.000000	99.169104
690.000000	99.188219
689.000000	99.203111
688.000000	99.213081
687.000000	99.213556
686.000000	99.209206
685.000000	99.210887
684.000000	99.217707
683.000000	99.220371
682.000000	99.219859
681.000000	99.225446
680.000000	99.233452
679.000000	99.229874
678.000000	99.215471
677.000000	99.199236
676.000000	99.184341
675.000000	99.171247
674.000000	99.171124
673.000000	99.196235
672.000000	99.243544
671.000000	99.307428
670.000000	99.400310
669.000000	99.529417
668.000000	99.604116
667.000000	99.518415
666.000000	99.377859
665.000000	99.244171
664.000000	99.136487
663.000000	99.076788
662.000000	99.064473
661.000000	99.074746
660.000000	99.084917
659.000000	99.091457
658.000000	99.097496
657.000000	99.093777
656.000000	99.078081
655.000000	99.064642
654.000000	99.060315
653.000000	99.054853
652.000000	99.047657
651.000000	99.053329
650.000000	99.074926
649.000000	99.092971
648.000000	99.094734
647.000000	99.088851
646.000000	99.081353
645.000000	99.068320
644.000000	99.053937
643.000000	99.050052
642.000000	99.057005
641.000000	99.060063
640.000000	99.053327
639.000000	99.049386
638.000000	99.054824
637.000000	99.058009
636.000000	99.051865
635.000000	99.044877
634.000000	99.043115
633.000000	99.040736
632.000000	99.034571
631.000000	99.031642
630.000000	99.034010
629.000000	99.032041
628.000000	99.023260
627.000000	99.022265
626.000000	99.038056
625.000000	99.060631
624.000000	99.075435
623.000000	99.077927
622.000000	99.068941
621.000000	99.048616
620.000000	99.022207
619.000000	98.999653
618.000000	98.983804
617.000000	98.969115
616.000000	98.955386
615.000000	98.949639
614.000000	98.950196
613.000000	98.944581
612.000000	98.930356
611.000000	98.923263
610.000000	98.936093
609.000000	98.960915
608.000000	98.981057
607.000000	98.990803
606.000000	98.991192
605.000000	98.983980
604.000000	98.976181
603.000000	98.979229
602.000000	98.995710
601.000000	99.013838
600.000000	99.022031
599.000000	99.023265
598.000000	99.025747
597.000000	99.027169
596.000000	99.019087
595.000000	99.001404
594.000000	98.982534
593.000000	98.968093
592.000000	98.958306
591.000000	98.953521
590.000000	98.955166
589.000000	98.962928
588.000000	98.975994
587.000000	98.991211
586.000000	98.996480
585.000000	98.977264
584.000000	98.936097
583.000000	98.897571
582.000000	98.884293
581.000000	98.895374
580.000000	98.914554
579.000000	98.933221
578.000000	98.953668
577.000000	98.976455
576.000000	98.995548
575.000000	99.001495
574.000000	98.985586
573.000000	98.946565
572.000000	98.898218
571.000000	98.861969
570.000000	98.844999
569.000000	98.831521
568.000000	98.807582
567.000000	98.780847
566.000000	98.763675
565.000000	98.751335
564.000000	98.731381
563.000000	98.705397
562.000000	98.685617
561.000000	98.678922
560.000000	98.686445
559.000000	98.710122
558.000000	98.745510
557.000000	98.777840
556.000000	98.796712
555.000000	98.808191
554.000000	98.821624
553.000000	98.831608
552.000000	98.826101
551.000000	98.805792
550.000000	98.785660
549.000000	98.780764
548.000000	98.799555
547.000000	98.842387
546.000000	98.892110
545.000000	98.915891
544.000000	98.895107
543.000000	98.847554
542.000000	98.808812
541.000000	98.797022
540.000000	98.803982
539.000000	98.812636
538.000000	98.809017
537.000000	98.784669
536.000000	98.742702
535.000000	98.703018
534.000000	98.686801
533.000000	98.695992
532.000000	98.713228
531.000000	98.721149
530.000000	98.715228
529.000000	98.700833
528.000000	98.685625
527.000000	98.679286
526.000000	98.690351
525.000000	98.716485
524.000000	98.745361
523.000000	98.762645
522.000000	98.759082
521.000000	98.740965
520.000000	98.734190
519.000000	98.764190
518.000000	98.824695
517.000000	98.882068
516.000000	98.919475
515.000000	98.948454
514.000000	98.974299
513.000000	98.982037
512.000000	98.966841
511.000000	98.956558
510.000000	98.980817
509.000000	99.031979
508.000000	99.075946
507.000000	99.096295
506.000000	99.104373
505.000000	99.109934
504.000000	99.108667
503.000000	99.100124
502.000000	99.097521
501.000000	99.105622
500.000000	99.109179
499.000000	99.101595
498.000000	99.101427
497.000000	99.130731
496.000000	99.183684
495.000000	99.227394
494.000000	99.236624
493.000000	99.217543
492.000000	99.196033
491.000000	99.191935
490.000000	99.208145
489.000000	99.243785
488.000000	99.297710
487.000000	99.354008
486.000000	99.379468
485.000000	99.354742
484.000000	99.308153
483.000000	99.292970
482.000000	99.321545
481.000000	99.347781
480.000000	99.324311
479.000000	99.256451
478.000000	99.192028
477.000000	99.175008
476.000000	99.215319
475.000000	99.291206
474.000000	99.362509
473.000000	99.396625
472.000000	99.398313
471.000000	99.399973
470.000000	99.408149
469.000000	99.401589
468.000000	99.377462
467.000000	99.361079
466.000000	99.361123
465.000000	99.355227
464.000000	99.339410
463.000000	99.349807
462.000000	99.411014
461.000000	99.489943
460.000000	99.544005
459.000000	99.579815
458.000000	99.625960
457.000000	99.670330
456.000000	99.675422
455.000000	99.552192
454.000000	99.531152
453.000000	99.532458
452.000000	99.598944
451.000000	99.712550
450.000000	99.799645
