PE IR       SUBTECH     SPECTRUM    ASCII       PEDS        4.00        
   -1
AD10-C006_1.ASC
23/09/08
11:03:05.00
23/09/08
11:14:38.00
uco
Sample 006 By uco Date Friday, September 08 2023
450.000000
#HDR
-1
-1
#GR
cm-1
%T
1.0
0.0
4000.000000
-1.000000
3551
8
100.326037
93.908693
#DATA
4000.000000	100.077049
3999.000000	100.076032
3998.000000	100.073782
3997.000000	100.070101
3996.000000	100.066129
3995.000000	100.078302
3994.000000	100.077902
3993.000000	100.079114
3992.000000	100.080946
3991.000000	100.081628
3990.000000	100.080210
3989.000000	100.077547
3988.000000	100.075284
3987.000000	100.074253
3986.000000	100.073945
3985.000000	100.073252
3984.000000	100.071445
3983.000000	100.068620
3982.000000	100.065765
3981.000000	100.064491
3980.000000	100.066209
3979.000000	100.070967
3978.000000	100.077080
3977.000000	100.082145
3976.000000	100.084584
3975.000000	100.084225
3974.000000	100.081487
3973.000000	100.076679
3972.000000	100.070147
3971.000000	100.062773
3970.000000	100.055733
3969.000000	100.049894
3968.000000	100.045878
3967.000000	100.044508
3966.000000	100.046706
3965.000000	100.052152
3964.000000	100.058253
3963.000000	100.061279
3962.000000	100.059342
3961.000000	100.054359
3960.000000	100.050213
3959.000000	100.049450
3958.000000	100.051770
3957.000000	100.055088
3956.000000	100.057402
3955.000000	100.057425
3954.000000	100.055051
3953.000000	100.051335
3952.000000	100.047723
3951.000000	100.044944
3950.000000	100.042215
3949.000000	100.038219
3948.000000	100.033109
3947.000000	100.029624
3946.000000	100.031772
3945.000000	100.040676
3944.000000	100.051668
3943.000000	100.057390
3942.000000	100.054487
3941.000000	100.046518
3940.000000	100.039367
3939.000000	100.035771
3938.000000	100.034743
3937.000000	100.034622
3936.000000	100.035059
3935.000000	100.035226
3934.000000	100.032846
3933.000000	100.026816
3932.000000	100.019850
3931.000000	100.016566
3930.000000	100.018212
3929.000000	100.022448
3928.000000	100.027348
3927.000000	100.031781
3926.000000	100.033417
3925.000000	100.030105
3924.000000	100.023952
3923.000000	100.019602
3922.000000	100.018172
3921.000000	100.016237
3920.000000	100.011371
3919.000000	100.006346
3918.000000	100.006346
3917.000000	100.012724
3916.000000	100.021389
3915.000000	100.027610
3914.000000	100.029036
3913.000000	100.026101
3912.000000	100.021042
3911.000000	100.017014
3910.000000	100.015954
3909.000000	100.017195
3908.000000	100.018999
3907.000000	100.018914
3906.000000	100.013226
3905.000000	99.998054
3904.000000	99.975979
3903.000000	99.958679
3902.000000	99.957011
3901.000000	99.970240
3900.000000	99.987928
3899.000000	100.000543
3898.000000	100.006250
3897.000000	100.007793
3896.000000	100.006344
3895.000000	100.002397
3894.000000	99.997710
3893.000000	99.994061
3892.000000	99.990120
3891.000000	99.983453
3890.000000	99.975656
3889.000000	99.972714
3888.000000	99.978289
3887.000000	99.986106
3886.000000	99.985721
3885.000000	99.978194
3884.000000	99.976226
3883.000000	99.987546
3882.000000	100.006102
3881.000000	100.018052
3880.000000	100.016247
3879.000000	100.006696
3878.000000	100.000119
3877.000000	100.001592
3876.000000	100.006516
3875.000000	100.004000
3874.000000	99.989981
3873.000000	99.975064
3872.000000	99.971450
3871.000000	99.975820
3870.000000	99.974260
3869.000000	99.964625
3868.000000	99.959445
3867.000000	99.966597
3866.000000	99.978385
3865.000000	99.982370
3864.000000	99.977641
3863.000000	99.973688
3862.000000	99.975420
3861.000000	99.979787
3860.000000	99.982085
3859.000000	99.978632
3858.000000	99.969414
3857.000000	99.959597
3856.000000	99.957590
3855.000000	99.964388
3854.000000	99.963657
3853.000000	99.952511
3852.000000	99.948073
3851.000000	99.955383
3850.000000	99.967122
3849.000000	99.976876
3848.000000	99.982719
3847.000000	99.987375
3846.000000	99.993267
3845.000000	100.000111
3844.000000	100.004004
3843.000000	100.000497
3842.000000	99.989823
3841.000000	99.977166
3840.000000	99.966105
3839.000000	99.956483
3838.000000	99.949047
3837.000000	99.945911
3836.000000	99.948958
3835.000000	99.959255
3834.000000	99.976314
3833.000000	99.995989
3832.000000	100.011430
3831.000000	100.018266
3830.000000	100.018438
3829.000000	100.017327
3828.000000	100.016706
3827.000000	100.012026
3826.000000	99.999177
3825.000000	99.983380
3824.000000	99.975543
3823.000000	99.979656
3822.000000	99.983324
3821.000000	99.972934
3820.000000	99.956089
3819.000000	99.948875
3818.000000	99.956178
3817.000000	99.966425
3816.000000	99.966811
3815.000000	99.962047
3814.000000	99.965283
3813.000000	99.977779
3812.000000	99.989225
3811.000000	99.992819
3810.000000	99.992097
3809.000000	99.992989
3808.000000	99.991037
3807.000000	99.977333
3806.000000	99.956415
3805.000000	99.945503
3804.000000	99.955505
3803.000000	99.979025
3802.000000	99.993883
3801.000000	99.989795
3800.000000	99.979608
3799.000000	99.977839
3798.000000	99.984543
3797.000000	99.990700
3796.000000	99.991629
3795.000000	99.991956
3794.000000	99.996630
3793.000000	100.003530
3792.000000	100.007362
3791.000000	100.006581
3790.000000	100.003844
3789.000000	100.002110
3788.000000	100.002470
3787.000000	100.004260
3786.000000	100.005369
3785.000000	100.003719
3784.000000	100.000018
3783.000000	99.998217
3782.000000	100.000909
3781.000000	100.004806
3780.000000	100.002873
3779.000000	99.993980
3778.000000	99.985681
3777.000000	99.985037
3776.000000	99.990626
3775.000000	99.995146
3774.000000	99.994054
3773.000000	99.989768
3772.000000	99.986310
3771.000000	99.983139
3770.000000	99.978697
3769.000000	99.975915
3768.000000	99.979199
3767.000000	99.987456
3766.000000	99.993681
3765.000000	99.991788
3764.000000	99.983413
3763.000000	99.975707
3762.000000	99.972096
3761.000000	99.969684
3760.000000	99.965674
3759.000000	99.961926
3758.000000	99.959317
3757.000000	99.955333
3756.000000	99.950571
3755.000000	99.949054
3754.000000	99.950324
3753.000000	99.946328
3752.000000	99.930375
3751.000000	99.908035
3750.000000	99.890070
3749.000000	99.876786
3748.000000	99.868264
3747.000000	99.872490
3746.000000	99.891694
3745.000000	99.912230
3744.000000	99.925466
3743.000000	99.940283
3742.000000	99.961369
3741.000000	99.979819
3740.000000	99.986497
3739.000000	99.981799
3738.000000	99.972028
3737.000000	99.957451
3736.000000	99.938695
3735.000000	99.928396
3734.000000	99.936560
3733.000000	99.954430
3732.000000	99.966420
3731.000000	99.967892
3730.000000	99.965790
3729.000000	99.967561
3728.000000	99.973489
3727.000000	99.978655
3726.000000	99.981425
3725.000000	99.984947
3724.000000	99.989883
3723.000000	99.993237
3722.000000	99.993346
3721.000000	99.992935
3720.000000	99.994927
3719.000000	99.997603
3718.000000	99.995379
3717.000000	99.985266
3716.000000	99.972197
3715.000000	99.963813
3714.000000	99.960810
3713.000000	99.955612
3712.000000	99.942631
3711.000000	99.930249
3710.000000	99.932082
3709.000000	99.950380
3708.000000	99.976341
3707.000000	99.998956
3706.000000	100.012742
3705.000000	100.019920
3704.000000	100.025448
3703.000000	100.030590
3702.000000	100.032589
3701.000000	100.029936
3700.000000	100.025920
3699.000000	100.025012
3698.000000	100.027007
3697.000000	100.026619
3696.000000	100.019689
3695.000000	100.006858
3694.000000	99.990521
3693.000000	99.973805
3692.000000	99.961730
3691.000000	99.960059
3690.000000	99.968866
3689.000000	99.980776
3688.000000	99.987877
3687.000000	99.989744
3686.000000	99.992635
3685.000000	99.998384
3684.000000	100.002255
3683.000000	100.000565
3682.000000	99.994914
3681.000000	99.985745
3680.000000	99.970274
3679.000000	99.951257
3678.000000	99.939045
3677.000000	99.938737
3676.000000	99.939638
3675.000000	99.934196
3674.000000	99.927811
3673.000000	99.930229
3672.000000	99.943029
3671.000000	99.956752
3670.000000	99.963554
3669.000000	99.969676
3668.000000	99.981451
3667.000000	99.995923
3666.000000	100.007508
3665.000000	100.014065
3664.000000	100.017676
3663.000000	100.020898
3662.000000	100.022629
3661.000000	100.019405
3660.000000	100.011697
3659.000000	100.004536
3658.000000	100.000971
3657.000000	99.996232
3656.000000	99.984025
3655.000000	99.966952
3654.000000	99.954163
3653.000000	99.952517
3652.000000	99.960075
3651.000000	99.966727
3650.000000	99.965026
3649.000000	99.962409
3648.000000	99.967119
3647.000000	99.973997
3646.000000	99.977110
3645.000000	99.977917
3644.000000	99.979483
3643.000000	99.982453
3642.000000	99.986261
3641.000000	99.990554
3640.000000	99.994607
3639.000000	99.995915
3638.000000	99.993346
3637.000000	99.990324
3636.000000	99.990642
3635.000000	99.991541
3634.000000	99.985695
3633.000000	99.972139
3632.000000	99.959441
3631.000000	99.956416
3630.000000	99.960834
3629.000000	99.965652
3628.000000	99.973296
3627.000000	99.984934
3626.000000	99.995781
3625.000000	100.000565
3624.000000	99.998864
3623.000000	99.996988
3622.000000	100.003426
3621.000000	100.019858
3620.000000	100.037886
3619.000000	100.046297
3618.000000	100.041469
3617.000000	100.028352
3616.000000	100.014314
3615.000000	100.002540
3614.000000	99.991116
3613.000000	99.978144
3612.000000	99.965629
3611.000000	99.957967
3610.000000	99.957811
3609.000000	99.965633
3608.000000	99.980850
3607.000000	100.000183
3606.000000	100.017578
3605.000000	100.027925
3604.000000	100.030673
3603.000000	100.028298
3602.000000	100.023919
3601.000000	100.019674
3600.000000	100.017181
3599.000000	100.017122
3598.000000	100.018238
3597.000000	100.018146
3596.000000	100.015401
3595.000000	100.011086
3594.000000	100.008380
3593.000000	100.010145
3592.000000	100.015622
3591.000000	100.022163
3590.000000	100.026731
3589.000000	100.026580
3588.000000	100.021901
3587.000000	100.018318
3586.000000	100.018842
3585.000000	100.020407
3584.000000	100.020573
3583.000000	100.020041
3582.000000	100.020882
3581.000000	100.024048
3580.000000	100.028081
3579.000000	100.030545
3578.000000	100.029940
3577.000000	100.026799
3576.000000	100.022632
3575.000000	100.019074
3574.000000	100.017004
3573.000000	100.016340
3572.000000	100.016564
3571.000000	100.018092
3570.000000	100.022168
3569.000000	100.027479
3568.000000	100.029583
3567.000000	100.026648
3566.000000	100.021819
3565.000000	100.017856
3564.000000	100.016366
3563.000000	100.018412
3562.000000	100.023975
3561.000000	100.032484
3560.000000	100.042999
3559.000000	100.053425
3558.000000	100.060549
3557.000000	100.061568
3556.000000	100.056254
3555.000000	100.047457
3554.000000	100.039374
3553.000000	100.034947
3552.000000	100.034535
3551.000000	100.036032
3550.000000	100.036509
3549.000000	100.033948
3548.000000	100.028245
3547.000000	100.022243
3546.000000	100.020714
3545.000000	100.026072
3544.000000	100.035574
3543.000000	100.044281
3542.000000	100.049066
3541.000000	100.049995
3540.000000	100.049354
3539.000000	100.049369
3538.000000	100.050414
3537.000000	100.050730
3536.000000	100.048720
3535.000000	100.045027
3534.000000	100.042366
3533.000000	100.043288
3532.000000	100.047974
3531.000000	100.053914
3530.000000	100.057241
3529.000000	100.055341
3528.000000	100.049078
3527.000000	100.042586
3526.000000	100.039989
3525.000000	100.042361
3524.000000	100.047481
3523.000000	100.052078
3522.000000	100.054457
3521.000000	100.055369
3520.000000	100.056682
3519.000000	100.058847
3518.000000	100.060219
3517.000000	100.058856
3516.000000	100.054809
3515.000000	100.050370
3514.000000	100.048290
3513.000000	100.049935
3512.000000	100.054626
3511.000000	100.060308
3510.000000	100.064850
3509.000000	100.066895
3508.000000	100.065890
3507.000000	100.061752
3506.000000	100.054941
3505.000000	100.046806
3504.000000	100.040305
3503.000000	100.038924
3502.000000	100.043285
3501.000000	100.049863
3500.000000	100.054279
3499.000000	100.055257
3498.000000	100.055120
3497.000000	100.057363
3496.000000	100.063094
3495.000000	100.069570
3494.000000	100.072439
3493.000000	100.069749
3492.000000	100.063340
3491.000000	100.056406
3490.000000	100.050612
3489.000000	100.046041
3488.000000	100.043181
3487.000000	100.043484
3486.000000	100.047500
3485.000000	100.053438
3484.000000	100.058459
3483.000000	100.061178
3482.000000	100.062544
3481.000000	100.064023
3480.000000	100.065419
3479.000000	100.065183
3478.000000	100.062771
3477.000000	100.059825
3476.000000	100.058577
3475.000000	100.059196
3474.000000	100.059353
3473.000000	100.057058
3472.000000	100.053418
3471.000000	100.051905
3470.000000	100.054880
3469.000000	100.061344
3468.000000	100.067825
3467.000000	100.071133
3466.000000	100.070608
3465.000000	100.068285
3464.000000	100.067281
3463.000000	100.069541
3462.000000	100.074534
3461.000000	100.079913
3460.000000	100.083452
3459.000000	100.084294
3458.000000	100.082636
3457.000000	100.078739
3456.000000	100.073151
3455.000000	100.067473
3454.000000	100.063987
3453.000000	100.063890
3452.000000	100.066150
3451.000000	100.068571
3450.000000	100.069603
3449.000000	100.069182
3448.000000	100.068557
3447.000000	100.069546
3446.000000	100.072791
3445.000000	100.076755
3444.000000	100.079159
3443.000000	100.079337
3442.000000	100.078662
3441.000000	100.078453
3440.000000	100.078330
3439.000000	100.077112
3438.000000	100.074775
3437.000000	100.072524
3436.000000	100.071350
3435.000000	100.071113
3434.000000	100.070789
3433.000000	100.069109
3432.000000	100.065332
3431.000000	100.060391
3430.000000	100.056861
3429.000000	100.057292
3428.000000	100.062369
3427.000000	100.070660
3426.000000	100.079529
3425.000000	100.086025
3424.000000	100.087818
3423.000000	100.084427
3422.000000	100.077828
3421.000000	100.071274
3420.000000	100.066924
3419.000000	100.064506
3418.000000	100.062287
3417.000000	100.059044
3416.000000	100.055090
3415.000000	100.051954
3414.000000	100.051204
3413.000000	100.053210
3412.000000	100.056682
3411.000000	100.059275
3410.000000	100.059038
3409.000000	100.056014
3408.000000	100.052729
3407.000000	100.052492
3406.000000	100.056612
3405.000000	100.063115
3404.000000	100.068386
3403.000000	100.069945
3402.000000	100.067779
3401.000000	100.063687
3400.000000	100.059877
3399.000000	100.057980
3398.000000	100.058542
3397.000000	100.060928
3396.000000	100.063798
3395.000000	100.066064
3394.000000	100.067545
3393.000000	100.068560
3392.000000	100.068792
3391.000000	100.066957
3390.000000	100.062270
3389.000000	100.056091
3388.000000	100.051295
3387.000000	100.049525
3386.000000	100.049496
3385.000000	100.048492
3384.000000	100.045242
3383.000000	100.040855
3382.000000	100.037556
3381.000000	100.037175
3380.000000	100.040039
3379.000000	100.044182
3378.000000	100.046074
3377.000000	100.043636
3376.000000	100.038643
3375.000000	100.035040
3374.000000	100.034662
3373.000000	100.035608
3372.000000	100.034937
3371.000000	100.031747
3370.000000	100.027128
3369.000000	100.022301
3368.000000	100.017929
3367.000000	100.014450
3366.000000	100.011748
3365.000000	100.008633
3364.000000	100.003970
3363.000000	99.998640
3362.000000	99.995559
3361.000000	99.997195
3360.000000	100.003212
3359.000000	100.010694
3358.000000	100.016347
3357.000000	100.018373
3356.000000	100.016743
3355.000000	100.012454
3354.000000	100.006938
3353.000000	100.002130
3352.000000	100.000350
3351.000000	100.002995
3350.000000	100.008795
3349.000000	100.013919
3348.000000	100.014714
3347.000000	100.010535
3346.000000	100.003749
3345.000000	99.997236
3344.000000	99.992383
3343.000000	99.989172
3342.000000	99.987015
3341.000000	99.984885
3340.000000	99.981414
3339.000000	99.976006
3338.000000	99.970050
3337.000000	99.966290
3336.000000	99.966363
3335.000000	99.968978
3334.000000	99.970871
3333.000000	99.969635
3332.000000	99.965520
3331.000000	99.960709
3330.000000	99.957226
3329.000000	99.955471
3328.000000	99.954283
3327.000000	99.951978
3326.000000	99.947643
3325.000000	99.942021
3324.000000	99.937297
3323.000000	99.935565
3322.000000	99.937174
3321.000000	99.940738
3320.000000	99.944667
3319.000000	99.948265
3318.000000	99.951275
3317.000000	99.952938
3316.000000	99.952216
3315.000000	99.949087
3314.000000	99.945186
3313.000000	99.942724
3312.000000	99.942543
3311.000000	99.943214
3310.000000	99.942368
3309.000000	99.939384
3308.000000	99.936614
3307.000000	99.937206
3306.000000	99.941307
3305.000000	99.944884
3304.000000	99.942924
3303.000000	99.933869
3302.000000	99.920831
3301.000000	99.908598
3300.000000	99.899948
3299.000000	99.894897
3298.000000	99.892767
3297.000000	99.894096
3296.000000	99.900157
3295.000000	99.910763
3294.000000	99.922997
3293.000000	99.932541
3292.000000	99.936410
3291.000000	99.934556
3290.000000	99.929116
3289.000000	99.922400
3288.000000	99.915555
3287.000000	99.908745
3286.000000	99.902271
3285.000000	99.897425
3284.000000	99.895938
3283.000000	99.898140
3282.000000	99.901871
3281.000000	99.903999
3280.000000	99.903285
3279.000000	99.901131
3278.000000	99.899522
3277.000000	99.898815
3276.000000	99.897885
3275.000000	99.895912
3274.000000	99.893304
3273.000000	99.891179
3272.000000	99.890443
3271.000000	99.891134
3270.000000	99.892100
3269.000000	99.891436
3268.000000	99.887859
3267.000000	99.882007
3266.000000	99.876421
3265.000000	99.874317
3264.000000	99.877840
3263.000000	99.886453
3262.000000	99.896475
3261.000000	99.902937
3260.000000	99.902973
3259.000000	99.897682
3258.000000	99.890601
3257.000000	99.884668
3256.000000	99.880929
3255.000000	99.879406
3254.000000	99.879942
3253.000000	99.881991
3252.000000	99.884610
3251.000000	99.887270
3250.000000	99.890289
3249.000000	99.894034
3248.000000	99.897892
3247.000000	99.900358
3246.000000	99.900094
3245.000000	99.896953
3244.000000	99.892113
3243.000000	99.887205
3242.000000	99.883105
3241.000000	99.879664
3240.000000	99.876861
3239.000000	99.876005
3238.000000	99.878961
3237.000000	99.885601
3236.000000	99.892611
3235.000000	99.895798
3234.000000	99.893644
3233.000000	99.888116
3232.000000	99.882330
3231.000000	99.878322
3230.000000	99.877087
3229.000000	99.879288
3228.000000	99.884560
3227.000000	99.890480
3226.000000	99.893604
3225.000000	99.892146
3224.000000	99.887364
3223.000000	99.882296
3222.000000	99.879381
3221.000000	99.879252
3220.000000	99.880792
3219.000000	99.881762
3218.000000	99.880179
3217.000000	99.876052
3216.000000	99.871886
3215.000000	99.870781
3214.000000	99.873430
3213.000000	99.877199
3212.000000	99.878510
3211.000000	99.876180
3210.000000	99.872288
3209.000000	99.869958
3208.000000	99.870667
3207.000000	99.873439
3206.000000	99.876081
3205.000000	99.876894
3204.000000	99.875741
3203.000000	99.874061
3202.000000	99.873632
3201.000000	99.874832
3200.000000	99.876089
3199.000000	99.875459
3198.000000	99.872789
3197.000000	99.869875
3196.000000	99.868544
3195.000000	99.869030
3194.000000	99.870201
3193.000000	99.870508
3192.000000	99.868596
3191.000000	99.864009
3190.000000	99.858060
3189.000000	99.853503
3188.000000	99.852311
3187.000000	99.853884
3186.000000	99.855868
3185.000000	99.856501
3184.000000	99.855734
3183.000000	99.854610
3182.000000	99.854567
3181.000000	99.856867
3180.000000	99.861352
3179.000000	99.865463
3178.000000	99.865639
3177.000000	99.860640
3176.000000	99.853087
3175.000000	99.847242
3174.000000	99.845495
3173.000000	99.847103
3172.000000	99.849517
3171.000000	99.850467
3170.000000	99.849273
3169.000000	99.847152
3168.000000	99.846368
3167.000000	99.848590
3166.000000	99.853616
3165.000000	99.859387
3164.000000	99.863241
3163.000000	99.863559
3162.000000	99.860905
3161.000000	99.857657
3160.000000	99.856065
3159.000000	99.856246
3158.000000	99.856203
3157.000000	99.854072
3156.000000	99.850192
3155.000000	99.846776
3154.000000	99.845707
3153.000000	99.846966
3152.000000	99.849189
3151.000000	99.851437
3150.000000	99.854012
3149.000000	99.857335
3148.000000	99.860233
3147.000000	99.860055
3146.000000	99.855212
3145.000000	99.847475
3144.000000	99.841006
3143.000000	99.838560
3142.000000	99.839179
3141.000000	99.840075
3140.000000	99.840273
3139.000000	99.841485
3138.000000	99.845582
3137.000000	99.852025
3136.000000	99.857879
3135.000000	99.859824
3134.000000	99.856345
3133.000000	99.848938
3132.000000	99.841661
3131.000000	99.838814
3130.000000	99.842050
3129.000000	99.849265
3128.000000	99.856426
3127.000000	99.860763
3126.000000	99.862252
3125.000000	99.862228
3124.000000	99.861369
3123.000000	99.859534
3122.000000	99.856964
3121.000000	99.854544
3120.000000	99.852724
3119.000000	99.850938
3118.000000	99.848664
3117.000000	99.846577
3116.000000	99.845827
3115.000000	99.846219
3114.000000	99.845963
3113.000000	99.843524
3112.000000	99.839381
3111.000000	99.835849
3110.000000	99.835367
3109.000000	99.838828
3108.000000	99.844873
3107.000000	99.850540
3106.000000	99.852860
3105.000000	99.850645
3104.000000	99.845122
3103.000000	99.838834
3102.000000	99.833743
3101.000000	99.830361
3100.000000	99.828234
3099.000000	99.826512
3098.000000	99.823996
3097.000000	99.819744
3096.000000	99.814411
3095.000000	99.810572
3094.000000	99.810849
3093.000000	99.815622
3092.000000	99.822811
3091.000000	99.829483
3090.000000	99.833288
3089.000000	99.833009
3088.000000	99.829048
3087.000000	99.823681
3086.000000	99.819930
3085.000000	99.819417
3084.000000	99.821409
3083.000000	99.824046
3082.000000	99.826113
3081.000000	99.827444
3080.000000	99.828342
3079.000000	99.829250
3078.000000	99.830718
3077.000000	99.832856
3076.000000	99.834715
3075.000000	99.834803
3074.000000	99.832510
3073.000000	99.828776
3072.000000	99.825233
3071.000000	99.822976
3070.000000	99.822136
3069.000000	99.822206
3068.000000	99.822365
3067.000000	99.821619
3066.000000	99.819169
3065.000000	99.815062
3064.000000	99.810512
3063.000000	99.807303
3062.000000	99.806594
3061.000000	99.808107
3060.000000	99.810427
3059.000000	99.812156
3058.000000	99.813033
3057.000000	99.814066
3056.000000	99.816401
3055.000000	99.820000
3054.000000	99.823468
3053.000000	99.825236
3052.000000	99.824680
3051.000000	99.822179
3050.000000	99.818713
3049.000000	99.815824
3048.000000	99.815415
3047.000000	99.818339
3046.000000	99.822843
3045.000000	99.825116
3044.000000	99.822222
3043.000000	99.814813
3042.000000	99.806941
3041.000000	99.803040
3040.000000	99.804761
3039.000000	99.810119
3038.000000	99.815380
3037.000000	99.817895
3036.000000	99.817487
3035.000000	99.815598
3034.000000	99.813561
3033.000000	99.811763
3032.000000	99.809926
3031.000000	99.807730
3030.000000	99.805427
3029.000000	99.804205
3028.000000	99.805454
3027.000000	99.809079
3026.000000	99.812719
3025.000000	99.813480
3024.000000	99.810620
3023.000000	99.806059
3022.000000	99.802355
3021.000000	99.800999
3020.000000	99.802545
3019.000000	99.806829
3018.000000	99.812063
3017.000000	99.814869
3016.000000	99.813005
3015.000000	99.808096
3014.000000	99.804500
3013.000000	99.804975
3012.000000	99.808027
3011.000000	99.809618
3010.000000	99.806908
3009.000000	99.800232
3008.000000	99.792244
3007.000000	99.785791
3006.000000	99.782181
3005.000000	99.780695
3004.000000	99.779653
3003.000000	99.778285
3002.000000	99.777687
3001.000000	99.779731
3000.000000	99.784856
2999.000000	99.791120
2998.000000	99.795723
2997.000000	99.797572
2996.000000	99.798133
2995.000000	99.799563
2994.000000	99.802187
2993.000000	99.804064
2992.000000	99.802914
2991.000000	99.798149
2990.000000	99.791193
2989.000000	99.784380
2988.000000	99.779631
2987.000000	99.777517
2986.000000	99.776926
2985.000000	99.775671
2984.000000	99.771736
2983.000000	99.764500
2982.000000	99.755135
2981.000000	99.746031
2980.000000	99.739256
2979.000000	99.734980
2978.000000	99.731388
2977.000000	99.726706
2976.000000	99.721336
2975.000000	99.717329
2974.000000	99.715450
2973.000000	99.713343
2972.000000	99.707210
2971.000000	99.695139
2970.000000	99.678566
2969.000000	99.661038
2968.000000	99.646090
2967.000000	99.635796
2966.000000	99.630023
2965.000000	99.626397
2964.000000	99.621404
2963.000000	99.612499
2962.000000	99.599781
2961.000000	99.585782
2960.000000	99.573403
2959.000000	99.563718
2958.000000	99.555652
2957.000000	99.547657
2956.000000	99.539561
2955.000000	99.532701
2954.000000	99.528566
2953.000000	99.527610
2952.000000	99.529046
2951.000000	99.531288
2950.000000	99.532587
2949.000000	99.531888
2948.000000	99.529228
2947.000000	99.524979
2946.000000	99.518654
2945.000000	99.509009
2944.000000	99.495655
2943.000000	99.480026
2942.000000	99.464336
2941.000000	99.449668
2940.000000	99.435257
2939.000000	99.419205
2938.000000	99.399643
2937.000000	99.375727
2936.000000	99.348114
2935.000000	99.318503
2934.000000	99.288450
2933.000000	99.258597
2932.000000	99.228917
2931.000000	99.199117
2930.000000	99.168542
2929.000000	99.136150
2928.000000	99.101178
2927.000000	99.063947
2926.000000	99.026118
2925.000000	98.990646
2924.000000	98.961115
2923.000000	98.939811
2922.000000	98.925740
2921.000000	98.915764
2920.000000	98.909081
2919.000000	98.909776
2918.000000	98.923564
2917.000000	98.952093
2916.000000	98.991594
2915.000000	99.036804
2914.000000	99.084517
2913.000000	99.133175
2912.000000	99.180803
2911.000000	99.224774
2910.000000	99.262879
2909.000000	99.294026
2908.000000	99.318740
2907.000000	99.339594
2906.000000	99.360224
2905.000000	99.382555
2904.000000	99.405273
2903.000000	99.425467
2902.000000	99.441966
2901.000000	99.455226
2900.000000	99.465521
2899.000000	99.472629
2898.000000	99.477615
2897.000000	99.483929
2896.000000	99.495035
2895.000000	99.510818
2894.000000	99.526795
2893.000000	99.537538
2892.000000	99.541262
2891.000000	99.541230
2890.000000	99.542618
2889.000000	99.547968
2888.000000	99.555779
2887.000000	99.563205
2886.000000	99.569365
2885.000000	99.575592
2884.000000	99.583168
2883.000000	99.591690
2882.000000	99.599455
2881.000000	99.604621
2880.000000	99.606094
2879.000000	99.604146
2878.000000	99.600464
2877.000000	99.596956
2876.000000	99.594077
2875.000000	99.590755
2874.000000	99.586064
2873.000000	99.580340
2872.000000	99.574447
2871.000000	99.568779
2870.000000	99.563641
2869.000000	99.559788
2868.000000	99.557431
2867.000000	99.554937
2866.000000	99.549679
2865.000000	99.540453
2864.000000	99.528170
2863.000000	99.513964
2862.000000	99.497591
2861.000000	99.478240
2860.000000	99.455971
2859.000000	99.431172
2858.000000	99.403152
2857.000000	99.370735
2856.000000	99.334646
2855.000000	99.298293
2854.000000	99.265708
2853.000000	99.239184
2852.000000	99.219527
2851.000000	99.208178
2850.000000	99.208071
2849.000000	99.222136
2848.000000	99.251019
2847.000000	99.292298
2846.000000	99.341637
2845.000000	99.394613
2844.000000	99.447483
2843.000000	99.496851
2842.000000	99.539451
2841.000000	99.573077
2840.000000	99.597977
2839.000000	99.616721
2838.000000	99.632378
2837.000000	99.646991
2836.000000	99.661558
2835.000000	99.676467
2834.000000	99.691081
2833.000000	99.703457
2832.000000	99.711737
2831.000000	99.716088
2830.000000	99.718516
2829.000000	99.720604
2828.000000	99.722105
2827.000000	99.721992
2826.000000	99.720142
2825.000000	99.717391
2824.000000	99.714664
2823.000000	99.712936
2822.000000	99.713738
2821.000000	99.718492
2820.000000	99.726787
2819.000000	99.735944
2818.000000	99.743059
2817.000000	99.747472
2816.000000	99.750798
2815.000000	99.754518
2814.000000	99.758022
2813.000000	99.759456
2812.000000	99.758180
2811.000000	99.755623
2810.000000	99.753498
2809.000000	99.751835
2808.000000	99.749543
2807.000000	99.746643
2806.000000	99.744880
2805.000000	99.745763
2804.000000	99.748721
2803.000000	99.751905
2802.000000	99.754394
2801.000000	99.756776
2800.000000	99.759646
2799.000000	99.762352
2798.000000	99.763616
2797.000000	99.763034
2796.000000	99.761592
2795.000000	99.760780
2794.000000	99.761355
2793.000000	99.762943
2792.000000	99.764721
2791.000000	99.766413
2790.000000	99.768395
2789.000000	99.770707
2788.000000	99.772379
2787.000000	99.772283
2786.000000	99.770587
2785.000000	99.768727
2784.000000	99.767742
2783.000000	99.767112
2782.000000	99.765510
2781.000000	99.762293
2780.000000	99.757941
2779.000000	99.753438
2778.000000	99.749749
2777.000000	99.747610
2776.000000	99.747255
2775.000000	99.748293
2774.000000	99.750219
2773.000000	99.753027
2772.000000	99.757007
2771.000000	99.761950
2770.000000	99.766943
2769.000000	99.771038
2768.000000	99.773865
2767.000000	99.775556
2766.000000	99.776349
2765.000000	99.776323
2764.000000	99.775367
2763.000000	99.773440
2762.000000	99.771018
2761.000000	99.769093
2760.000000	99.768324
2759.000000	99.768340
2758.000000	99.768475
2757.000000	99.769074
2756.000000	99.771273
2755.000000	99.775267
2754.000000	99.779627
2753.000000	99.782875
2752.000000	99.785023
2751.000000	99.786728
2750.000000	99.787376
2749.000000	99.785231
2748.000000	99.779800
2747.000000	99.773248
2746.000000	99.768837
2745.000000	99.768087
2744.000000	99.769743
2743.000000	99.771407
2742.000000	99.771830
2741.000000	99.771485
2740.000000	99.771214
2739.000000	99.770993
2738.000000	99.770466
2737.000000	99.770216
2736.000000	99.771482
2735.000000	99.774354
2734.000000	99.777185
2733.000000	99.778509
2732.000000	99.778919
2731.000000	99.780155
2730.000000	99.782685
2729.000000	99.785121
2728.000000	99.785973
2727.000000	99.785137
2726.000000	99.783593
2725.000000	99.782501
2724.000000	99.782757
2723.000000	99.784589
2722.000000	99.787064
2721.000000	99.788479
2720.000000	99.787762
2719.000000	99.785331
2718.000000	99.782568
2717.000000	99.780849
2716.000000	99.781007
2715.000000	99.782978
2714.000000	99.785695
2713.000000	99.787940
2712.000000	99.789567
2711.000000	99.791273
2710.000000	99.792987
2709.000000	99.793460
2708.000000	99.792075
2707.000000	99.790253
2706.000000	99.790037
2705.000000	99.791607
2704.000000	99.793124
2703.000000	99.792996
2702.000000	99.791600
2701.000000	99.790737
2700.000000	99.791857
2699.000000	99.794755
2698.000000	99.797565
2697.000000	99.798144
2696.000000	99.795948
2695.000000	99.792595
2694.000000	99.790319
2693.000000	99.790113
2692.000000	99.791508
2691.000000	99.793467
2690.000000	99.794717
2689.000000	99.793808
2688.000000	99.790189
2687.000000	99.785463
2686.000000	99.782484
2685.000000	99.782696
2684.000000	99.784929
2683.000000	99.787112
2682.000000	99.788342
2681.000000	99.788773
2680.000000	99.788294
2679.000000	99.786402
2678.000000	99.783400
2677.000000	99.780953
2676.000000	99.781065
2675.000000	99.784450
2674.000000	99.789827
2673.000000	99.794713
2672.000000	99.797188
2671.000000	99.797137
2670.000000	99.795713
2669.000000	99.793611
2668.000000	99.790328
2667.000000	99.785372
2666.000000	99.779642
2665.000000	99.774900
2664.000000	99.771981
2663.000000	99.770255
2662.000000	99.769010
2661.000000	99.768515
2660.000000	99.769043
2659.000000	99.769450
2658.000000	99.768082
2657.000000	99.765464
2656.000000	99.764947
2655.000000	99.769393
2654.000000	99.777436
2653.000000	99.784390
2652.000000	99.787142
2651.000000	99.787105
2650.000000	99.787817
2649.000000	99.790859
2648.000000	99.795249
2647.000000	99.799716
2646.000000	99.803576
2645.000000	99.805571
2644.000000	99.804166
2643.000000	99.799994
2642.000000	99.796440
2641.000000	99.796397
2640.000000	99.799191
2639.000000	99.801879
2638.000000	99.802940
2637.000000	99.803369
2636.000000	99.804510
2635.000000	99.806270
2634.000000	99.807687
2633.000000	99.808182
2632.000000	99.807917
2631.000000	99.807646
2630.000000	99.808422
2629.000000	99.810735
2628.000000	99.813634
2627.000000	99.815336
2626.000000	99.814990
2625.000000	99.813420
2624.000000	99.812096
2623.000000	99.812072
2622.000000	99.813958
2621.000000	99.817848
2620.000000	99.822579
2619.000000	99.825798
2618.000000	99.825642
2617.000000	99.822332
2616.000000	99.817862
2615.000000	99.814621
2614.000000	99.814554
2613.000000	99.818546
2612.000000	99.825227
2611.000000	99.830610
2610.000000	99.830548
2609.000000	99.824480
2608.000000	99.816396
2607.000000	99.811516
2606.000000	99.812192
2605.000000	99.817282
2604.000000	99.824633
2603.000000	99.832948
2602.000000	99.840991
2601.000000	99.846382
2600.000000	99.847120
2599.000000	99.844495
2598.000000	99.842934
2597.000000	99.845554
2596.000000	99.850628
2595.000000	99.854009
2594.000000	99.854428
2593.000000	99.854198
2592.000000	99.854412
2591.000000	99.852584
2590.000000	99.847167
2589.000000	99.842193
2588.000000	99.843866
2587.000000	99.852550
2586.000000	99.861303
2585.000000	99.863313
2584.000000	99.858868
2583.000000	99.853959
2582.000000	99.853645
2581.000000	99.858031
2580.000000	99.863067
2579.000000	99.863934
2578.000000	99.858923
2577.000000	99.851629
2576.000000	99.848590
2575.000000	99.853221
2574.000000	99.862570
2573.000000	99.870996
2572.000000	99.875830
2571.000000	99.877910
2570.000000	99.878051
2569.000000	99.876043
2568.000000	99.873249
2567.000000	99.873240
2566.000000	99.878290
2565.000000	99.886573
2564.000000	99.893818
2563.000000	99.896896
2562.000000	99.895230
2561.000000	99.890140
2560.000000	99.883781
2559.000000	99.877726
2558.000000	99.871709
2557.000000	99.864485
2556.000000	99.856567
2555.000000	99.851056
2554.000000	99.850764
2553.000000	99.855322
2552.000000	99.862121
2551.000000	99.869152
2550.000000	99.875635
2549.000000	99.880382
2548.000000	99.881306
2547.000000	99.877052
2546.000000	99.868592
2545.000000	99.859309
2544.000000	99.853809
2543.000000	99.855594
2542.000000	99.864229
2541.000000	99.874610
2540.000000	99.880354
2539.000000	99.878707
2538.000000	99.871944
2537.000000	99.864320
2536.000000	99.858576
2535.000000	99.855381
2534.000000	99.854669
2533.000000	99.856331
2532.000000	99.859846
2531.000000	99.863907
2530.000000	99.866618
2529.000000	99.866202
2528.000000	99.862065
2527.000000	99.855396
2526.000000	99.848371
2525.000000	99.842586
2524.000000	99.838484
2523.000000	99.836066
2522.000000	99.835287
2521.000000	99.835313
2520.000000	99.834126
2519.000000	99.829720
2518.000000	99.821879
2517.000000	99.812885
2516.000000	99.806863
2515.000000	99.808071
2514.000000	99.818321
2513.000000	99.834644
2512.000000	99.849911
2511.000000	99.857202
2510.000000	99.854197
2509.000000	99.843452
2508.000000	99.829391
2507.000000	99.816295
2506.000000	99.808463
2505.000000	99.809417
2504.000000	99.818992
2503.000000	99.832127
2502.000000	99.842513
2501.000000	99.847786
2500.000000	99.850331
2499.000000	99.853198
2498.000000	99.856279
2497.000000	99.856662
2496.000000	99.851861
2495.000000	99.842615
2494.000000	99.833530
2493.000000	99.830857
2492.000000	99.837741
2491.000000	99.850244
2490.000000	99.859162
2489.000000	99.857971
2488.000000	99.849382
2487.000000	99.842735
2486.000000	99.844524
2485.000000	99.852423
2484.000000	99.858931
2483.000000	99.859649
2482.000000	99.856958
2481.000000	99.856513
2480.000000	99.861628
2479.000000	99.870955
2478.000000	99.880307
2477.000000	99.886160
2476.000000	99.888135
2475.000000	99.888783
2474.000000	99.890776
2473.000000	99.894180
2472.000000	99.896828
2471.000000	99.897089
2470.000000	99.895306
2469.000000	99.892287
2468.000000	99.887901
2467.000000	99.882375
2466.000000	99.877895
2465.000000	99.876977
2464.000000	99.879381
2463.000000	99.882551
2462.000000	99.885381
2461.000000	99.889479
2460.000000	99.895608
2459.000000	99.900794
2458.000000	99.901040
2457.000000	99.896155
2456.000000	99.890103
2455.000000	99.886788
2454.000000	99.886961
2453.000000	99.889029
2452.000000	99.891062
2451.000000	99.891653
2450.000000	99.890460
2449.000000	99.888837
2448.000000	99.889059
2447.000000	99.892179
2446.000000	99.896964
2445.000000	99.900985
2444.000000	99.902149
2443.000000	99.899521
2442.000000	99.894027
2441.000000	99.888544
2440.000000	99.885863
2439.000000	99.885973
2438.000000	99.886533
2437.000000	99.886459
2436.000000	99.887627
2435.000000	99.892069
2434.000000	99.898795
2433.000000	99.904757
2432.000000	99.908295
2431.000000	99.910457
2430.000000	99.913327
2429.000000	99.918025
2428.000000	99.923920
2427.000000	99.928716
2426.000000	99.929579
2425.000000	99.925363
2424.000000	99.918181
2423.000000	99.912083
2422.000000	99.909566
2421.000000	99.909375
2420.000000	99.907955
2419.000000	99.903297
2418.000000	99.897299
2417.000000	99.893823
2416.000000	99.894265
2415.000000	99.896102
2414.000000	99.896449
2413.000000	99.895779
2412.000000	99.896405
2411.000000	99.898252
2410.000000	99.898890
2409.000000	99.897916
2408.000000	99.898608
2407.000000	99.903762
2406.000000	99.911629
2405.000000	99.917439
2404.000000	99.917881
2403.000000	99.913308
2402.000000	99.906916
2401.000000	99.902744
2400.000000	99.903045
2399.000000	99.906335
2398.000000	99.909077
2397.000000	99.909908
2396.000000	99.910668
2395.000000	99.912665
2394.000000	99.914194
2393.000000	99.913586
2392.000000	99.912456
2391.000000	99.913779
2390.000000	99.917905
2389.000000	99.922968
2388.000000	99.928536
2387.000000	99.935361
2386.000000	99.942997
2385.000000	99.949761
2384.000000	99.955655
2383.000000	99.963520
2382.000000	99.974824
2381.000000	99.986908
2380.000000	99.993917
2379.000000	99.990545
2378.000000	99.976601
2377.000000	99.958656
2376.000000	99.946377
2375.000000	99.945004
2374.000000	99.953082
2373.000000	99.966842
2372.000000	99.983826
2371.000000	100.000334
2370.000000	100.011087
2369.000000	100.014604
2368.000000	100.011843
2367.000000	100.001404
2366.000000	99.982676
2365.000000	99.963891
2364.000000	99.957394
2363.000000	99.962409
2362.000000	99.965584
2361.000000	99.961745
2360.000000	99.959228
2359.000000	99.965930
2358.000000	99.978753
2357.000000	99.989658
2356.000000	99.989647
2355.000000	99.972912
2354.000000	99.951979
2353.000000	99.946227
2352.000000	99.955393
2351.000000	99.961194
2350.000000	99.952806
2349.000000	99.935907
2348.000000	99.922777
2347.000000	99.924453
2346.000000	99.939005
2345.000000	99.947780
2344.000000	99.936706
2343.000000	99.912869
2342.000000	99.893151
2341.000000	99.885929
2340.000000	99.887610
2339.000000	99.891515
2338.000000	99.897782
2337.000000	99.908203
2336.000000	99.918194
2335.000000	99.923038
2334.000000	99.930349
2333.000000	99.951357
2332.000000	99.980468
2331.000000	99.998502
2330.000000	99.993334
2329.000000	99.970188
2328.000000	99.938936
2327.000000	99.906533
2326.000000	99.878903
2325.000000	99.861651
2324.000000	99.857876
2323.000000	99.864747
2322.000000	99.874461
2321.000000	99.876341
2320.000000	99.864565
2319.000000	99.843613
2318.000000	99.824070
2317.000000	99.813720
2316.000000	99.813636
2315.000000	99.822727
2314.000000	99.839035
2313.000000	99.857596
2312.000000	99.870330
2311.000000	99.873524
2310.000000	99.871987
2309.000000	99.873448
2308.000000	99.880443
2307.000000	99.889143
2306.000000	99.894954
2305.000000	99.896551
2304.000000	99.896010
2303.000000	99.895356
2302.000000	99.894817
2301.000000	99.894093
2300.000000	99.894970
2299.000000	99.899844
2298.000000	99.906188
2297.000000	99.906510
2296.000000	99.895047
2295.000000	99.875173
2294.000000	99.856915
2293.000000	99.848573
2292.000000	99.851847
2291.000000	99.863776
2290.000000	99.879678
2289.000000	99.893454
2288.000000	99.898927
2287.000000	99.893017
2286.000000	99.877512
2285.000000	99.857210
2284.000000	99.838109
2283.000000	99.825753
2282.000000	99.823293
2281.000000	99.829597
2280.000000	99.840946
2279.000000	99.854300
2278.000000	99.867567
2277.000000	99.877711
2276.000000	99.881738
2275.000000	99.881049
2274.000000	99.881644
2273.000000	99.887419
2272.000000	99.894289
2271.000000	99.894169
2270.000000	99.884927
2269.000000	99.874058
2268.000000	99.871231
2267.000000	99.878342
2266.000000	99.888068
2265.000000	99.891448
2264.000000	99.885631
2263.000000	99.874964
2262.000000	99.866996
2261.000000	99.868291
2260.000000	99.881419
2259.000000	99.902769
2258.000000	99.923600
2257.000000	99.935339
2256.000000	99.934847
2255.000000	99.923840
2254.000000	99.905137
2253.000000	99.882956
2252.000000	99.865282
2251.000000	99.859945
2250.000000	99.866460
2249.000000	99.875772
2248.000000	99.881164
2247.000000	99.886333
2246.000000	99.899295
2245.000000	99.921141
2244.000000	99.944066
2243.000000	99.958951
2242.000000	99.961439
2241.000000	99.952489
2240.000000	99.937331
2239.000000	99.923474
2238.000000	99.915955
2237.000000	99.913030
2236.000000	99.908103
2235.000000	99.897152
2234.000000	99.884265
2233.000000	99.879437
2232.000000	99.889501
2231.000000	99.909785
2230.000000	99.926101
2229.000000	99.927939
2228.000000	99.919161
2227.000000	99.912345
2226.000000	99.913869
2225.000000	99.920247
2224.000000	99.928292
2223.000000	99.939817
2222.000000	99.952772
2221.000000	99.956130
2220.000000	99.941318
2219.000000	99.914346
2218.000000	99.889965
2217.000000	99.877782
2216.000000	99.879818
2215.000000	99.897100
2214.000000	99.929289
2213.000000	99.968034
2212.000000	99.999023
2211.000000	100.013205
2210.000000	100.011389
2209.000000	99.997766
2208.000000	99.974471
2207.000000	99.943392
2206.000000	99.909243
2205.000000	99.878673
2204.000000	99.857063
2203.000000	99.846039
2202.000000	99.843819
2201.000000	99.849413
2200.000000	99.865983
2199.000000	99.895297
2198.000000	99.927264
2197.000000	99.941864
2196.000000	99.928936
2195.000000	99.902229
2194.000000	99.886304
2193.000000	99.891328
2192.000000	99.905990
2191.000000	99.912756
2190.000000	99.903030
2189.000000	99.880110
2188.000000	99.856486
2187.000000	99.847805
2186.000000	99.860388
2185.000000	99.881784
2184.000000	99.890707
2183.000000	99.880898
2182.000000	99.869976
2181.000000	99.880740
2180.000000	99.917558
2179.000000	99.963681
2178.000000	99.996980
2177.000000	100.005223
2176.000000	99.992259
2175.000000	99.973699
2174.000000	99.963601
2173.000000	99.962550
2172.000000	99.958674
2171.000000	99.939942
2170.000000	99.904928
2169.000000	99.864339
2168.000000	99.833577
2167.000000	99.820829
2166.000000	99.819533
2165.000000	99.813310
2164.000000	99.792247
2163.000000	99.764914
2162.000000	99.752462
2161.000000	99.773111
2160.000000	99.831594
2159.000000	99.915886
2158.000000	99.998931
2157.000000	100.051911
2156.000000	100.065794
2155.000000	100.055863
2154.000000	100.043692
2153.000000	100.040449
2152.000000	100.045579
2151.000000	100.053124
2150.000000	100.055241
2149.000000	100.044734
2148.000000	100.021763
2147.000000	99.997966
2146.000000	99.989975
2145.000000	100.006951
2144.000000	100.043065
2143.000000	100.080474
2142.000000	100.100438
2141.000000	100.096806
2140.000000	100.081727
2139.000000	100.073796
2138.000000	100.078475
2137.000000	100.084229
2136.000000	100.078656
2135.000000	100.062958
2134.000000	100.047297
2133.000000	100.038379
2132.000000	100.036855
2131.000000	100.041422
2130.000000	100.048908
2129.000000	100.052896
2128.000000	100.048302
2127.000000	100.036626
2126.000000	100.023270
2125.000000	100.011352
2124.000000	100.001419
2123.000000	99.994656
2122.000000	99.991313
2121.000000	99.986766
2120.000000	99.974898
2119.000000	99.956472
2118.000000	99.939853
2117.000000	99.931997
2116.000000	99.931732
2115.000000	99.933315
2114.000000	99.933406
2113.000000	99.932445
2112.000000	99.931815
2111.000000	99.932626
2110.000000	99.936566
2109.000000	99.945313
2108.000000	99.958133
2107.000000	99.970775
2106.000000	99.977781
2105.000000	99.977100
2104.000000	99.972738
2103.000000	99.971308
2102.000000	99.974852
2101.000000	99.978406
2100.000000	99.975822
2099.000000	99.966465
2098.000000	99.955055
2097.000000	99.947136
2096.000000	99.946362
2095.000000	99.953320
2094.000000	99.963556
2093.000000	99.968795
2092.000000	99.965080
2091.000000	99.959296
2090.000000	99.963291
2089.000000	99.980031
2088.000000	99.998151
2087.000000	100.002457
2086.000000	99.988313
2085.000000	99.964947
2084.000000	99.946335
2083.000000	99.939424
2082.000000	99.940392
2081.000000	99.941069
2080.000000	99.938044
2079.000000	99.934863
2078.000000	99.935797
2077.000000	99.939829
2076.000000	99.942057
2075.000000	99.938743
2074.000000	99.928707
2073.000000	99.912212
2072.000000	99.892502
2071.000000	99.877162
2070.000000	99.873857
2069.000000	99.883450
2068.000000	99.899206
2067.000000	99.913126
2066.000000	99.920645
2065.000000	99.920356
2064.000000	99.914209
2063.000000	99.909294
2062.000000	99.915028
2061.000000	99.934237
2060.000000	99.956941
2059.000000	99.966276
2058.000000	99.953057
2057.000000	99.925298
2056.000000	99.902736
2055.000000	99.899339
2054.000000	99.909849
2053.000000	99.915366
2052.000000	99.903823
2051.000000	99.883106
2050.000000	99.873252
2049.000000	99.887260
2048.000000	99.919442
2047.000000	99.952411
2046.000000	99.972959
2045.000000	99.978495
2044.000000	99.972493
2043.000000	99.958728
2042.000000	99.940746
2041.000000	99.925846
2040.000000	99.925536
2039.000000	99.947250
2038.000000	99.985547
2037.000000	100.024182
2036.000000	100.049474
2035.000000	100.060756
2034.000000	100.064684
2033.000000	100.063202
2032.000000	100.051745
2031.000000	100.026526
2030.000000	99.990579
2029.000000	99.956155
2028.000000	99.942459
2027.000000	99.963451
2026.000000	100.011956
2025.000000	100.058931
2024.000000	100.077538
2023.000000	100.068821
2022.000000	100.056722
2021.000000	100.059032
2020.000000	100.070283
2019.000000	100.074861
2018.000000	100.070683
2017.000000	100.073031
2016.000000	100.092311
2015.000000	100.114912
2014.000000	100.113681
2013.000000	100.075137
2012.000000	100.014209
2011.000000	99.961660
2010.000000	99.940234
2009.000000	99.953665
2008.000000	99.989510
2007.000000	100.028005
2006.000000	100.053326
2005.000000	100.062792
2004.000000	100.065124
2003.000000	100.065797
2002.000000	100.057683
2001.000000	100.030408
2000.000000	99.985193
1999.000000	99.935304
1998.000000	99.894841
1997.000000	99.873656
1996.000000	99.877833
1995.000000	99.904960
1994.000000	99.939823
1993.000000	99.964481
1992.000000	99.976119
1991.000000	99.985111
1990.000000	99.993006
1989.000000	99.987059
1988.000000	99.961522
1987.000000	99.930479
1986.000000	99.911056
1985.000000	99.903590
1984.000000	99.897324
1983.000000	99.887414
1982.000000	99.875985
1981.000000	99.863008
1980.000000	99.849977
1979.000000	99.850885
1978.000000	99.883677
1977.000000	99.943715
1976.000000	99.998503
1975.000000	100.019904
1974.000000	100.012181
1973.000000	100.002094
1972.000000	100.007817
1971.000000	100.022419
1970.000000	100.028717
1969.000000	100.026033
1968.000000	100.033373
1967.000000	100.061412
1966.000000	100.093300
1965.000000	100.107433
1964.000000	100.107046
1963.000000	100.108008
1962.000000	100.106017
1961.000000	100.077863
1960.000000	100.017590
1959.000000	99.951587
1958.000000	99.910127
1957.000000	99.900746
1956.000000	99.915550
1955.000000	99.948460
1954.000000	99.993685
1953.000000	100.036150
1952.000000	100.056423
1951.000000	100.045598
1950.000000	100.013015
1949.000000	99.981995
1948.000000	99.976805
1947.000000	100.004954
1946.000000	100.047713
1945.000000	100.074915
1944.000000	100.073976
1943.000000	100.060283
1942.000000	100.054243
1941.000000	100.055260
1940.000000	100.050981
1939.000000	100.040890
1938.000000	100.035672
1937.000000	100.041131
1936.000000	100.051420
1935.000000	100.057017
1934.000000	100.054080
1933.000000	100.046070
1932.000000	100.039643
1931.000000	100.038737
1930.000000	100.042156
1929.000000	100.046236
1928.000000	100.050994
1927.000000	100.061291
1926.000000	100.079015
1925.000000	100.097245
1924.000000	100.105077
1923.000000	100.098653
1922.000000	100.083577
1921.000000	100.065713
1920.000000	100.046128
1919.000000	100.026034
1918.000000	100.011014
1917.000000	100.004472
1916.000000	100.001531
1915.000000	99.997233
1914.000000	99.993511
1913.000000	99.994216
1912.000000	99.997672
1911.000000	99.997724
1910.000000	99.993617
1909.000000	99.993068
1908.000000	100.001714
1907.000000	100.013961
1906.000000	100.018739
1905.000000	100.012107
1904.000000	100.000456
1903.000000	99.992188
1902.000000	99.988684
1901.000000	99.985127
1900.000000	99.980252
1899.000000	99.980288
1898.000000	99.990498
1897.000000	100.006840
1896.000000	100.019034
1895.000000	100.022778
1894.000000	100.025737
1893.000000	100.037506
1892.000000	100.056550
1891.000000	100.069386
1890.000000	100.062220
1889.000000	100.036491
1888.000000	100.009308
1887.000000	99.995540
1886.000000	99.996011
1885.000000	100.002224
1884.000000	100.006540
1883.000000	100.007318
1882.000000	100.006850
1881.000000	100.007386
1880.000000	100.010487
1879.000000	100.016718
1878.000000	100.024235
1877.000000	100.030928
1876.000000	100.037403
1875.000000	100.044282
1874.000000	100.047970
1873.000000	100.043665
1872.000000	100.033012
1871.000000	100.024716
1870.000000	100.026485
1869.000000	100.037776
1868.000000	100.049606
1867.000000	100.054745
1866.000000	100.054859
1865.000000	100.053560
1864.000000	100.051854
1863.000000	100.050020
1862.000000	100.047113
1861.000000	100.040514
1860.000000	100.029341
1859.000000	100.017490
1858.000000	100.010977
1857.000000	100.012895
1856.000000	100.022841
1855.000000	100.039126
1854.000000	100.057223
1853.000000	100.068261
1852.000000	100.066543
1851.000000	100.056970
1850.000000	100.049103
1849.000000	100.047684
1848.000000	100.051419
1847.000000	100.057952
1846.000000	100.065527
1845.000000	100.070265
1844.000000	100.067636
1843.000000	100.059912
1842.000000	100.055394
1841.000000	100.056771
1840.000000	100.060021
1839.000000	100.061876
1838.000000	100.061948
1837.000000	100.060730
1836.000000	100.057908
1835.000000	100.054013
1834.000000	100.050966
1833.000000	100.050811
1832.000000	100.056114
1831.000000	100.067962
1830.000000	100.081905
1829.000000	100.090076
1828.000000	100.089887
1827.000000	100.084672
1826.000000	100.075903
1825.000000	100.065127
1824.000000	100.057809
1823.000000	100.056980
1822.000000	100.058837
1821.000000	100.057719
1820.000000	100.054008
1819.000000	100.053396
1818.000000	100.059215
1817.000000	100.069177
1816.000000	100.078380
1815.000000	100.084499
1814.000000	100.087867
1813.000000	100.088352
1812.000000	100.085569
1811.000000	100.078867
1810.000000	100.068548
1809.000000	100.057084
1808.000000	100.046551
1807.000000	100.037732
1806.000000	100.030822
1805.000000	100.024651
1804.000000	100.016820
1803.000000	100.006192
1802.000000	99.993489
1801.000000	99.980123
1800.000000	99.966519
1799.000000	99.952583
1798.000000	99.941397
1797.000000	99.935866
1796.000000	99.932947
1795.000000	99.927240
1794.000000	99.917057
1793.000000	99.908493
1792.000000	99.911999
1791.000000	99.928030
1790.000000	99.947357
1789.000000	99.963256
1788.000000	99.973417
1787.000000	99.979193
1786.000000	99.984348
1785.000000	99.990414
1784.000000	99.994925
1783.000000	99.997153
1782.000000	99.999680
1781.000000	100.004291
1780.000000	100.010795
1779.000000	100.017605
1778.000000	100.024501
1777.000000	100.031537
1776.000000	100.037439
1775.000000	100.042197
1774.000000	100.046096
1773.000000	100.049209
1772.000000	100.053490
1771.000000	100.058341
1770.000000	100.060334
1769.000000	100.058595
1768.000000	100.054764
1767.000000	100.051941
1766.000000	100.052553
1765.000000	100.056517
1764.000000	100.061295
1763.000000	100.063500
1762.000000	100.059714
1761.000000	100.050033
1760.000000	100.041038
1759.000000	100.037924
1758.000000	100.038217
1757.000000	100.034712
1756.000000	100.025756
1755.000000	100.017629
1754.000000	100.013421
1753.000000	100.008513
1752.000000	99.998460
1751.000000	99.986312
1750.000000	99.977032
1749.000000	99.969491
1748.000000	99.962144
1747.000000	99.958288
1746.000000	99.959433
1745.000000	99.962814
1744.000000	99.965855
1743.000000	99.966432
1742.000000	99.961316
1741.000000	99.948787
1740.000000	99.932363
1739.000000	99.919066
1738.000000	99.910602
1737.000000	99.904638
1736.000000	99.900135
1735.000000	99.903861
1734.000000	99.922498
1733.000000	99.942617
1732.000000	99.956137
1731.000000	99.973908
1730.000000	99.999225
1729.000000	100.022527
1728.000000	100.035999
1727.000000	100.043006
1726.000000	100.049382
1725.000000	100.055299
1724.000000	100.059956
1723.000000	100.064908
1722.000000	100.072533
1721.000000	100.081462
1720.000000	100.088577
1719.000000	100.090061
1718.000000	100.083337
1717.000000	100.075139
1716.000000	100.069608
1715.000000	100.064350
1714.000000	100.060682
1713.000000	100.057769
1712.000000	100.053091
1711.000000	100.049003
1710.000000	100.049643
1709.000000	100.053995
1708.000000	100.056745
1707.000000	100.053906
1706.000000	100.048028
1705.000000	100.046150
1704.000000	100.048162
1703.000000	100.049069
1702.000000	100.044533
1701.000000	100.032283
1700.000000	100.009697
1699.000000	99.983164
1698.000000	99.968217
1697.000000	99.966217
1696.000000	99.965853
1695.000000	99.955190
1694.000000	99.940471
1693.000000	99.934789
1692.000000	99.934010
1691.000000	99.930761
1690.000000	99.923704
1689.000000	99.915078
1688.000000	99.905835
1687.000000	99.894985
1686.000000	99.880120
1685.000000	99.863750
1684.000000	99.856134
1683.000000	99.854802
1682.000000	99.853710
1681.000000	99.854519
1680.000000	99.853440
1679.000000	99.846582
1678.000000	99.834392
1677.000000	99.817725
1676.000000	99.800106
1675.000000	99.788528
1674.000000	99.785569
1673.000000	99.786191
1672.000000	99.784688
1671.000000	99.778311
1670.000000	99.771850
1669.000000	99.768036
1668.000000	99.761968
1667.000000	99.753100
1666.000000	99.743100
1665.000000	99.732350
1664.000000	99.723172
1663.000000	99.718399
1662.000000	99.715653
1661.000000	99.708497
1660.000000	99.698716
1659.000000	99.691537
1658.000000	99.689361
1657.000000	99.686095
1656.000000	99.680546
1655.000000	99.673670
1654.000000	99.683283
1653.000000	99.709649
1652.000000	99.706278
1651.000000	99.686394
1650.000000	99.679231
1649.000000	99.674716
1648.000000	99.666867
1647.000000	99.665763
1646.000000	99.677219
1645.000000	99.686315
1644.000000	99.688639
1643.000000	99.689123
1642.000000	99.689220
1641.000000	99.690898
1640.000000	99.694399
1639.000000	99.698676
1638.000000	99.703551
1637.000000	99.712220
1636.000000	99.730554
1635.000000	99.749370
1634.000000	99.754228
1633.000000	99.753356
1632.000000	99.753912
1631.000000	99.754740
1630.000000	99.757433
1629.000000	99.762591
1628.000000	99.768930
1627.000000	99.774630
1626.000000	99.779452
1625.000000	99.783933
1624.000000	99.790320
1623.000000	99.800537
1622.000000	99.810533
1621.000000	99.814451
1620.000000	99.813940
1619.000000	99.813404
1618.000000	99.815510
1617.000000	99.822286
1616.000000	99.832115
1615.000000	99.842548
1614.000000	99.852639
1613.000000	99.859097
1612.000000	99.861303
1611.000000	99.865283
1610.000000	99.874117
1609.000000	99.880437
1608.000000	99.876865
1607.000000	99.868434
1606.000000	99.864160
1605.000000	99.864765
1604.000000	99.866637
1603.000000	99.868582
1602.000000	99.869847
1601.000000	99.867630
1600.000000	99.861303
1599.000000	99.854905
1598.000000	99.850843
1597.000000	99.846740
1596.000000	99.840524
1595.000000	99.834039
1594.000000	99.828819
1593.000000	99.821912
1592.000000	99.811130
1591.000000	99.799828
1590.000000	99.791134
1589.000000	99.781850
1588.000000	99.767857
1587.000000	99.751040
1586.000000	99.734812
1585.000000	99.717102
1584.000000	99.695212
1583.000000	99.672176
1582.000000	99.651319
1581.000000	99.631364
1580.000000	99.611613
1579.000000	99.596871
1578.000000	99.592221
1577.000000	99.598202
1576.000000	99.609596
1575.000000	99.620142
1574.000000	99.629030
1573.000000	99.637014
1572.000000	99.644939
1571.000000	99.657861
1570.000000	99.680774
1569.000000	99.702913
1568.000000	99.711892
1567.000000	99.715218
1566.000000	99.722303
1565.000000	99.730533
1564.000000	99.734744
1563.000000	99.736586
1562.000000	99.739104
1561.000000	99.744564
1560.000000	99.745800
1559.000000	99.743330
1558.000000	99.733780
1557.000000	99.700410
1556.000000	99.664829
1555.000000	99.640838
1554.000000	99.621600
1553.000000	99.605115
1552.000000	99.586351
1551.000000	99.563449
1550.000000	99.533294
1549.000000	99.497077
1548.000000	99.455917
1547.000000	99.409332
1546.000000	99.351887
1545.000000	99.281529
1544.000000	99.207579
1543.000000	99.142333
1542.000000	99.088379
1541.000000	99.055016
1540.000000	99.063358
1539.000000	99.087184
1538.000000	99.085820
1537.000000	99.069972
1536.000000	99.054707
1535.000000	99.045076
1534.000000	99.046352
1533.000000	99.051577
1532.000000	99.046258
1531.000000	99.027710
1530.000000	99.005583
1529.000000	98.983916
1528.000000	98.960047
1527.000000	98.929108
1526.000000	98.888469
1525.000000	98.841097
1524.000000	98.794413
1523.000000	98.753199
1522.000000	98.722356
1521.000000	98.702748
1520.000000	98.681905
1519.000000	98.654695
1518.000000	98.624534
1517.000000	98.590827
1516.000000	98.550297
1515.000000	98.499615
1514.000000	98.442092
1513.000000	98.384436
1512.000000	98.333828
1511.000000	98.291959
1510.000000	98.252748
1509.000000	98.211153
1508.000000	98.177508
1507.000000	98.179601
1506.000000	98.179258
1505.000000	98.124749
1504.000000	98.054876
1503.000000	97.995876
1502.000000	97.941257
1501.000000	97.889643
1500.000000	97.841616
1499.000000	97.799466
1498.000000	97.758190
1497.000000	97.719777
1496.000000	97.688823
1495.000000	97.657666
1494.000000	97.615314
1493.000000	97.561161
1492.000000	97.505124
1491.000000	97.463035
1490.000000	97.442820
1489.000000	97.433120
1488.000000	97.414513
1487.000000	97.380894
1486.000000	97.338098
1485.000000	97.288375
1484.000000	97.233391
1483.000000	97.180050
1482.000000	97.133202
1481.000000	97.090189
1480.000000	97.044540
1479.000000	96.995030
1478.000000	96.945214
1477.000000	96.896167
1476.000000	96.843178
1475.000000	96.783745
1474.000000	96.728115
1473.000000	96.697762
1472.000000	96.691907
1471.000000	96.674754
1470.000000	96.629510
1469.000000	96.569127
1468.000000	96.508486
1467.000000	96.459539
1466.000000	96.431582
1465.000000	96.424314
1464.000000	96.418202
1463.000000	96.391108
1462.000000	96.343521
1461.000000	96.287169
1460.000000	96.232069
1459.000000	96.187182
1458.000000	96.172300
1457.000000	96.200478
1456.000000	96.224549
1455.000000	96.200811
1454.000000	96.145351
1453.000000	96.083439
1452.000000	96.030134
1451.000000	95.988048
1450.000000	95.951401
1449.000000	95.922458
1448.000000	95.908488
1447.000000	95.901996
1446.000000	95.882031
1445.000000	95.843083
1444.000000	95.799576
1443.000000	95.764970
1442.000000	95.738313
1441.000000	95.707594
1440.000000	95.664001
1439.000000	95.611980
1438.000000	95.571009
1437.000000	95.567290
1436.000000	95.592172
1435.000000	95.597025
1434.000000	95.560036
1433.000000	95.499894
1432.000000	95.441643
1431.000000	95.400004
1430.000000	95.372116
1429.000000	95.346514
1428.000000	95.315011
1427.000000	95.275878
1426.000000	95.233771
1425.000000	95.197819
1424.000000	95.172896
1423.000000	95.143691
1422.000000	95.091071
1421.000000	95.023401
1420.000000	94.978442
1419.000000	94.981619
1418.000000	94.995005
1417.000000	94.972109
1416.000000	94.919958
1415.000000	94.860003
1414.000000	94.798687
1413.000000	94.738767
1412.000000	94.689645
1411.000000	94.656597
1410.000000	94.626607
1409.000000	94.584188
1408.000000	94.531599
1407.000000	94.483488
1406.000000	94.450623
1405.000000	94.433149
1404.000000	94.421347
1403.000000	94.398750
1402.000000	94.356937
1401.000000	94.307114
1400.000000	94.272022
1399.000000	94.257494
1398.000000	94.238258
1397.000000	94.197249
1396.000000	94.155118
1395.000000	94.138229
1394.000000	94.132887
1393.000000	94.105805
1392.000000	94.054754
1391.000000	93.997829
1390.000000	93.946912
1389.000000	93.911825
1388.000000	93.908693
1387.000000	93.940344
1386.000000	93.976638
1385.000000	93.990810
1384.000000	93.993902
1383.000000	94.010272
1382.000000	94.046087
1381.000000	94.092450
1380.000000	94.145930
1379.000000	94.208847
1378.000000	94.274505
1377.000000	94.335219
1376.000000	94.402748
1375.000000	94.500783
1374.000000	94.627213
1373.000000	94.745754
1372.000000	94.833396
1371.000000	94.905119
1370.000000	94.985841
1369.000000	95.084564
1368.000000	95.192395
1367.000000	95.293039
1366.000000	95.378524
1365.000000	95.458553
1364.000000	95.553496
1363.000000	95.673362
1362.000000	95.800867
1361.000000	95.909893
1360.000000	95.997198
1359.000000	96.076160
1358.000000	96.155344
1357.000000	96.236499
1356.000000	96.320541
1355.000000	96.405725
1354.000000	96.485361
1353.000000	96.556322
1352.000000	96.623979
1351.000000	96.693836
1350.000000	96.764071
1349.000000	96.828912
1348.000000	96.887198
1347.000000	96.941983
1346.000000	96.994686
1345.000000	97.044474
1344.000000	97.090584
1343.000000	97.132325
1342.000000	97.170700
1341.000000	97.212019
1340.000000	97.264815
1339.000000	97.327148
1338.000000	97.383516
1337.000000	97.423993
1336.000000	97.454595
1335.000000	97.484253
1334.000000	97.514947
1333.000000	97.546572
1332.000000	97.581874
1331.000000	97.621829
1330.000000	97.661877
1329.000000	97.697797
1328.000000	97.730991
1327.000000	97.764253
1326.000000	97.796612
1325.000000	97.825953
1324.000000	97.853927
1323.000000	97.882753
1322.000000	97.910707
1321.000000	97.935820
1320.000000	97.960884
1319.000000	97.989826
1318.000000	98.020885
1317.000000	98.048794
1316.000000	98.071560
1315.000000	98.090769
1314.000000	98.108445
1313.000000	98.127451
1312.000000	98.151445
1311.000000	98.180470
1310.000000	98.209048
1309.000000	98.232009
1308.000000	98.250109
1307.000000	98.268148
1306.000000	98.289666
1305.000000	98.314625
1304.000000	98.340952
1303.000000	98.365424
1302.000000	98.385102
1301.000000	98.400217
1300.000000	98.414264
1299.000000	98.430264
1298.000000	98.448739
1297.000000	98.469446
1296.000000	98.491853
1295.000000	98.513557
1294.000000	98.531599
1293.000000	98.546101
1292.000000	98.559256
1291.000000	98.570323
1290.000000	98.576018
1289.000000	98.577146
1288.000000	98.580094
1287.000000	98.589409
1286.000000	98.602638
1285.000000	98.615134
1284.000000	98.626205
1283.000000	98.637384
1282.000000	98.648176
1281.000000	98.656603
1280.000000	98.662202
1279.000000	98.666497
1278.000000	98.671688
1277.000000	98.679987
1276.000000	98.692180
1275.000000	98.705947
1274.000000	98.717656
1273.000000	98.726635
1272.000000	98.735579
1271.000000	98.745932
1270.000000	98.755469
1269.000000	98.761450
1268.000000	98.763497
1267.000000	98.762457
1266.000000	98.759506
1265.000000	98.757843
1264.000000	98.761886
1263.000000	98.772114
1262.000000	98.782898
1261.000000	98.787959
1260.000000	98.786910
1259.000000	98.785117
1258.000000	98.787974
1257.000000	98.796277
1256.000000	98.805909
1255.000000	98.811250
1254.000000	98.810413
1253.000000	98.807181
1252.000000	98.806185
1251.000000	98.807283
1250.000000	98.807012
1249.000000	98.804333
1248.000000	98.801630
1247.000000	98.800413
1246.000000	98.799895
1245.000000	98.800168
1244.000000	98.802641
1243.000000	98.806321
1242.000000	98.807741
1241.000000	98.806003
1240.000000	98.804236
1239.000000	98.804843
1238.000000	98.806764
1237.000000	98.808667
1236.000000	98.810957
1235.000000	98.813229
1234.000000	98.813937
1233.000000	98.814557
1232.000000	98.819983
1231.000000	98.832044
1230.000000	98.846191
1229.000000	98.857571
1228.000000	98.866830
1227.000000	98.876842
1226.000000	98.887407
1225.000000	98.897051
1224.000000	98.907175
1223.000000	98.919851
1222.000000	98.933079
1221.000000	98.942551
1220.000000	98.947863
1219.000000	98.953822
1218.000000	98.965044
1217.000000	98.981160
1216.000000	98.997410
1215.000000	99.008860
1214.000000	99.014738
1213.000000	99.019644
1212.000000	99.029456
1211.000000	99.044834
1210.000000	99.059795
1209.000000	99.067566
1208.000000	99.066574
1207.000000	99.060253
1206.000000	99.053306
1205.000000	99.049318
1204.000000	99.050062
1203.000000	99.055094
1202.000000	99.062272
1201.000000	99.069357
1200.000000	99.074604
1199.000000	99.076306
1198.000000	99.074017
1197.000000	99.070715
1196.000000	99.071192
1195.000000	99.076847
1194.000000	99.083968
1193.000000	99.088339
1192.000000	99.089718
1191.000000	99.090621
1190.000000	99.092775
1189.000000	99.096583
1188.000000	99.102211
1187.000000	99.108685
1186.000000	99.112677
1185.000000	99.110711
1184.000000	99.102965
1183.000000	99.094095
1182.000000	99.090203
1181.000000	99.094455
1180.000000	99.104509
1179.000000	99.113994
1178.000000	99.117612
1177.000000	99.115084
1176.000000	99.109596
1175.000000	99.103379
1174.000000	99.096442
1173.000000	99.089044
1172.000000	99.083036
1171.000000	99.079710
1170.000000	99.077851
1169.000000	99.075014
1168.000000	99.070052
1167.000000	99.064095
1166.000000	99.060216
1165.000000	99.062093
1164.000000	99.071063
1163.000000	99.083448
1162.000000	99.092402
1161.000000	99.094034
1160.000000	99.091123
1159.000000	99.090152
1158.000000	99.095276
1157.000000	99.105480
1156.000000	99.116754
1155.000000	99.126011
1154.000000	99.133062
1153.000000	99.139393
1152.000000	99.145603
1151.000000	99.151005
1150.000000	99.155857
1149.000000	99.162221
1148.000000	99.171095
1147.000000	99.180140
1146.000000	99.186437
1145.000000	99.190817
1144.000000	99.197097
1143.000000	99.207350
1142.000000	99.219964
1141.000000	99.232234
1140.000000	99.242588
1139.000000	99.250050
1138.000000	99.254005
1137.000000	99.255579
1136.000000	99.257659
1135.000000	99.262515
1134.000000	99.270033
1133.000000	99.278373
1132.000000	99.285424
1131.000000	99.289532
1130.000000	99.290099
1129.000000	99.288135
1128.000000	99.286009
1127.000000	99.286717
1126.000000	99.293017
1125.000000	99.305541
1124.000000	99.320798
1123.000000	99.332489
1122.000000	99.336503
1121.000000	99.334001
1120.000000	99.328976
1119.000000	99.324590
1118.000000	99.322790
1117.000000	99.324627
1116.000000	99.328423
1115.000000	99.329792
1114.000000	99.326554
1113.000000	99.322055
1112.000000	99.320549
1111.000000	99.321036
1110.000000	99.319008
1109.000000	99.312894
1108.000000	99.305159
1107.000000	99.297868
1106.000000	99.291717
1105.000000	99.288901
1104.000000	99.291645
1103.000000	99.297089
1102.000000	99.297664
1101.000000	99.289297
1100.000000	99.276148
1099.000000	99.265143
1098.000000	99.259616
1097.000000	99.257346
1096.000000	99.253704
1095.000000	99.245765
1094.000000	99.235983
1093.000000	99.231375
1092.000000	99.235746
1091.000000	99.242740
1090.000000	99.240709
1089.000000	99.225791
1088.000000	99.206111
1087.000000	99.191616
1086.000000	99.184199
1085.000000	99.180549
1084.000000	99.180237
1083.000000	99.185257
1082.000000	99.192809
1081.000000	99.194327
1080.000000	99.184123
1079.000000	99.166989
1078.000000	99.154968
1077.000000	99.156388
1076.000000	99.168567
1075.000000	99.181383
1074.000000	99.187843
1073.000000	99.190200
1072.000000	99.195076
1071.000000	99.204182
1070.000000	99.212280
1069.000000	99.214036
1068.000000	99.210119
1067.000000	99.205785
1066.000000	99.205664
1065.000000	99.210966
1064.000000	99.219907
1063.000000	99.229050
1062.000000	99.234839
1061.000000	99.235440
1060.000000	99.231682
1059.000000	99.226467
1058.000000	99.223186
1057.000000	99.223536
1056.000000	99.225820
1055.000000	99.226124
1054.000000	99.222555
1053.000000	99.217822
1052.000000	99.216316
1051.000000	99.218992
1050.000000	99.222679
1049.000000	99.224162
1048.000000	99.223256
1047.000000	99.222354
1046.000000	99.224581
1045.000000	99.231659
1044.000000	99.241630
1043.000000	99.249023
1042.000000	99.249041
1041.000000	99.241761
1040.000000	99.231314
1039.000000	99.222310
1038.000000	99.218424
1037.000000	99.222322
1036.000000	99.233464
1035.000000	99.246165
1034.000000	99.252968
1033.000000	99.250883
1032.000000	99.242911
1031.000000	99.234109
1030.000000	99.228394
1029.000000	99.228358
1028.000000	99.234566
1027.000000	99.243846
1026.000000	99.250669
1025.000000	99.251735
1024.000000	99.248474
1023.000000	99.245119
1022.000000	99.245672
1021.000000	99.252182
1020.000000	99.263601
1019.000000	99.275641
1018.000000	99.283386
1017.000000	99.284765
1016.000000	99.281146
1015.000000	99.275865
1014.000000	99.273838
1013.000000	99.280504
1012.000000	99.297407
1011.000000	99.318800
1010.000000	99.335911
1009.000000	99.345602
1008.000000	99.352466
1007.000000	99.361681
1006.000000	99.372755
1005.000000	99.381716
1004.000000	99.387296
1003.000000	99.392645
1002.000000	99.401443
1001.000000	99.413906
1000.000000	99.426763
999.000000	99.436723
998.000000	99.443760
997.000000	99.450657
996.000000	99.459407
995.000000	99.468928
994.000000	99.476952
993.000000	99.483344
992.000000	99.490513
991.000000	99.500989
990.000000	99.515014
989.000000	99.529814
988.000000	99.541209
987.000000	99.547507
986.000000	99.552362
985.000000	99.561787
984.000000	99.577161
983.000000	99.593234
982.000000	99.604308
981.000000	99.609976
980.000000	99.613185
979.000000	99.615364
978.000000	99.616333
977.000000	99.616774
976.000000	99.617524
975.000000	99.617896
974.000000	99.617670
973.000000	99.619108
972.000000	99.623735
971.000000	99.628359
970.000000	99.628243
969.000000	99.624038
968.000000	99.622035
967.000000	99.627178
966.000000	99.638258
965.000000	99.650197
964.000000	99.658787
963.000000	99.663191
962.000000	99.666223
961.000000	99.672425
960.000000	99.684112
959.000000	99.699601
958.000000	99.716173
957.000000	99.732938
956.000000	99.748681
955.000000	99.759396
954.000000	99.762133
953.000000	99.760248
952.000000	99.760911
951.000000	99.767412
950.000000	99.777227
949.000000	99.787246
948.000000	99.797134
947.000000	99.807252
946.000000	99.816529
945.000000	99.823258
944.000000	99.825958
943.000000	99.823958
942.000000	99.819569
941.000000	99.818529
940.000000	99.824762
939.000000	99.835238
938.000000	99.843425
937.000000	99.847763
936.000000	99.852802
935.000000	99.861769
934.000000	99.872082
933.000000	99.879045
932.000000	99.880612
931.000000	99.877446
930.000000	99.871700
929.000000	99.867226
928.000000	99.868370
927.000000	99.876756
926.000000	99.890317
925.000000	99.905312
924.000000	99.917655
923.000000	99.923479
922.000000	99.921963
921.000000	99.917605
920.000000	99.916718
919.000000	99.921500
918.000000	99.929870
917.000000	99.939943
916.000000	99.950487
915.000000	99.957678
914.000000	99.956938
913.000000	99.949555
912.000000	99.942834
911.000000	99.941856
910.000000	99.944580
909.000000	99.946557
908.000000	99.946880
907.000000	99.947335
906.000000	99.949205
905.000000	99.953443
904.000000	99.961310
903.000000	99.972501
902.000000	99.984599
901.000000	99.995939
900.000000	100.007146
899.000000	100.018983
898.000000	100.031101
897.000000	100.043305
896.000000	100.055553
895.000000	100.066215
894.000000	100.073571
893.000000	100.079406
892.000000	100.087407
891.000000	100.097513
890.000000	100.105542
889.000000	100.108612
888.000000	100.105687
887.000000	100.090481
886.000000	100.049138
885.000000	99.966613
884.000000	99.831007
883.000000	99.631383
882.000000	99.356055
881.000000	98.998070
880.000000	98.557865
879.000000	98.040524
878.000000	97.457891
877.000000	96.831943
876.000000	96.185726
875.000000	95.526836
874.000000	94.867553
873.000000	94.287948
872.000000	93.969588
871.000000	94.106933
870.000000	94.741560
869.000000	95.695813
868.000000	96.684845
867.000000	97.495656
866.000000	98.070904
865.000000	98.459883
864.000000	98.729867
863.000000	98.925652
862.000000	99.074636
861.000000	99.194873
860.000000	99.293607
859.000000	99.369732
858.000000	99.425053
857.000000	99.467919
856.000000	99.505988
855.000000	99.540994
854.000000	99.571683
853.000000	99.597025
852.000000	99.612997
851.000000	99.611241
850.000000	99.587721
849.000000	99.553094
848.000000	99.529977
847.000000	99.536547
846.000000	99.573078
845.000000	99.625008
844.000000	99.676606
843.000000	99.720055
842.000000	99.754282
841.000000	99.779936
840.000000	99.797141
839.000000	99.805980
838.000000	99.807836
837.000000	99.807062
836.000000	99.811178
835.000000	99.826787
834.000000	99.853107
833.000000	99.881016
832.000000	99.901003
831.000000	99.911394
830.000000	99.917014
829.000000	99.920983
828.000000	99.921269
827.000000	99.916244
826.000000	99.909838
825.000000	99.907953
824.000000	99.911347
823.000000	99.915101
822.000000	99.914826
821.000000	99.911408
820.000000	99.909869
819.000000	99.915134
818.000000	99.928315
817.000000	99.945321
816.000000	99.959184
815.000000	99.965513
814.000000	99.966101
813.000000	99.965845
812.000000	99.966240
811.000000	99.964035
810.000000	99.957166
809.000000	99.949952
808.000000	99.950060
807.000000	99.960617
806.000000	99.976961
805.000000	99.991173
804.000000	99.998478
803.000000	99.998735
802.000000	99.993604
801.000000	99.984977
800.000000	99.976122
799.000000	99.971171
798.000000	99.970715
797.000000	99.969258
796.000000	99.960454
795.000000	99.945885
794.000000	99.935726
793.000000	99.938507
792.000000	99.951917
791.000000	99.965817
790.000000	99.973535
789.000000	99.977814
788.000000	99.985147
787.000000	99.996340
786.000000	100.004686
785.000000	100.003529
784.000000	99.994372
783.000000	99.986021
782.000000	99.985461
781.000000	99.991198
780.000000	99.996705
779.000000	99.998438
778.000000	99.997410
777.000000	99.994124
776.000000	99.986856
775.000000	99.976529
774.000000	99.969018
773.000000	99.969277
772.000000	99.975193
771.000000	99.979647
770.000000	99.977031
769.000000	99.966254
768.000000	99.950484
767.000000	99.936757
766.000000	99.932703
765.000000	99.939314
764.000000	99.948742
763.000000	99.953382
762.000000	99.955521
761.000000	99.963485
760.000000	99.979433
759.000000	99.996150
758.000000	100.006248
757.000000	100.009836
756.000000	100.012055
755.000000	100.017253
754.000000	100.026718
753.000000	100.038474
752.000000	100.047596
751.000000	100.049246
750.000000	100.042888
749.000000	100.032539
748.000000	100.023155
747.000000	100.018001
746.000000	100.018284
745.000000	100.022151
744.000000	100.024632
743.000000	100.022415
742.000000	100.018529
741.000000	100.018883
740.000000	100.024575
739.000000	100.030971
738.000000	100.033120
737.000000	100.027804
736.000000	100.012040
735.000000	99.986190
734.000000	99.959181
733.000000	99.943765
732.000000	99.943945
731.000000	99.951555
730.000000	99.956568
729.000000	99.955079
728.000000	99.949772
727.000000	99.946733
726.000000	99.948890
725.000000	99.951925
724.000000	99.947113
723.000000	99.928815
722.000000	99.897007
721.000000	99.852076
720.000000	99.790936
719.000000	99.709445
718.000000	99.603101
717.000000	99.461500
716.000000	99.271016
715.000000	99.037995
714.000000	98.811238
713.000000	98.666497
712.000000	98.656071
711.000000	98.770253
710.000000	98.948676
709.000000	99.124871
708.000000	99.262390
707.000000	99.361130
706.000000	99.434983
705.000000	99.491447
704.000000	99.532702
703.000000	99.563625
702.000000	99.592793
701.000000	99.625031
700.000000	99.656100
699.000000	99.681679
698.000000	99.702160
697.000000	99.717583
696.000000	99.726837
695.000000	99.731807
694.000000	99.741894
693.000000	99.763960
692.000000	99.789835
691.000000	99.809482
690.000000	99.824971
689.000000	99.842655
688.000000	99.857202
687.000000	99.855813
686.000000	99.842234
685.000000	99.833872
684.000000	99.833919
683.000000	99.831001
682.000000	99.824689
681.000000	99.827333
680.000000	99.836632
679.000000	99.834495
678.000000	99.817948
677.000000	99.799903
676.000000	99.789620
675.000000	99.787098
674.000000	99.796435
673.000000	99.825697
672.000000	99.876126
671.000000	99.952864
670.000000	100.074099
669.000000	100.238163
668.000000	100.326037
667.000000	100.238200
666.000000	100.086744
665.000000	99.942310
664.000000	99.831473
663.000000	99.778200
662.000000	99.774984
661.000000	99.792679
660.000000	99.806705
659.000000	99.815216
658.000000	99.822132
657.000000	99.817467
656.000000	99.798389
655.000000	99.782993
654.000000	99.783741
653.000000	99.789447
652.000000	99.789708
651.000000	99.790480
650.000000	99.797646
649.000000	99.803528
648.000000	99.803824
647.000000	99.806188
646.000000	99.810498
645.000000	99.807857
644.000000	99.800022
643.000000	99.797582
642.000000	99.800785
641.000000	99.797404
640.000000	99.786669
639.000000	99.786726
638.000000	99.805548
637.000000	99.825944
636.000000	99.832456
635.000000	99.831034
634.000000	99.832383
633.000000	99.832807
632.000000	99.823016
631.000000	99.805549
630.000000	99.791805
629.000000	99.787925
628.000000	99.794647
627.000000	99.812383
626.000000	99.834326
625.000000	99.847866
624.000000	99.845877
623.000000	99.830705
622.000000	99.807430
621.000000	99.780633
620.000000	99.758564
619.000000	99.749537
618.000000	99.751221
617.000000	99.752436
616.000000	99.748830
615.000000	99.747426
614.000000	99.752445
613.000000	99.757482
612.000000	99.756356
611.000000	99.752157
610.000000	99.750412
609.000000	99.750256
608.000000	99.748875
607.000000	99.749080
606.000000	99.754052
605.000000	99.763801
604.000000	99.776212
603.000000	99.786673
602.000000	99.790020
601.000000	99.788126
600.000000	99.793126
599.000000	99.815207
598.000000	99.844616
597.000000	99.856946
596.000000	99.840536
595.000000	99.809913
594.000000	99.788458
593.000000	99.784399
592.000000	99.790802
591.000000	99.801030
590.000000	99.813145
589.000000	99.822630
588.000000	99.822409
587.000000	99.810434
586.000000	99.790699
585.000000	99.768573
584.000000	99.749748
583.000000	99.742780
582.000000	99.754400
581.000000	99.780099
580.000000	99.803884
579.000000	99.811149
578.000000	99.798888
577.000000	99.775358
576.000000	99.755233
575.000000	99.751453
574.000000	99.765139
573.000000	99.784121
572.000000	99.794560
571.000000	99.792067
570.000000	99.783057
569.000000	99.775728
568.000000	99.771377
567.000000	99.764958
566.000000	99.753315
565.000000	99.741509
564.000000	99.737608
563.000000	99.741448
562.000000	99.741982
561.000000	99.731060
560.000000	99.715440
559.000000	99.707496
558.000000	99.707864
557.000000	99.707685
556.000000	99.705152
555.000000	99.708974
554.000000	99.723488
553.000000	99.739598
552.000000	99.744120
551.000000	99.731255
550.000000	99.706051
549.000000	99.684197
548.000000	99.686165
547.000000	99.719449
546.000000	99.763136
545.000000	99.783094
544.000000	99.770760
543.000000	99.753662
542.000000	99.761583
541.000000	99.792650
540.000000	99.818625
539.000000	99.814784
538.000000	99.777507
537.000000	99.721704
536.000000	99.670950
535.000000	99.646996
534.000000	99.656137
533.000000	99.684127
532.000000	99.705925
531.000000	99.702654
530.000000	99.673575
529.000000	99.636155
528.000000	99.613094
527.000000	99.616609
526.000000	99.638511
525.000000	99.658525
524.000000	99.668079
523.000000	99.673069
522.000000	99.676215
521.000000	99.676140
520.000000	99.682540
519.000000	99.714031
518.000000	99.769673
517.000000	99.816255
516.000000	99.823211
515.000000	99.794950
514.000000	99.755772
513.000000	99.721619
512.000000	99.697895
511.000000	99.690975
510.000000	99.704577
509.000000	99.728415
508.000000	99.744122
507.000000	99.748437
506.000000	99.755734
505.000000	99.773165
504.000000	99.789110
503.000000	99.790213
502.000000	99.781816
501.000000	99.778749
500.000000	99.779279
499.000000	99.769333
498.000000	99.747312
497.000000	99.731233
496.000000	99.736553
495.000000	99.754456
494.000000	99.762780
493.000000	99.751424
492.000000	99.730448
491.000000	99.719265
490.000000	99.734072
489.000000	99.783206
488.000000	99.855047
487.000000	99.908333
486.000000	99.894240
485.000000	99.812236
484.000000	99.734722
483.000000	99.738788
482.000000	99.813712
481.000000	99.868434
480.000000	99.832523
479.000000	99.729124
478.000000	99.644709
477.000000	99.641940
476.000000	99.710892
475.000000	99.795547
474.000000	99.844831
473.000000	99.843393
472.000000	99.814268
471.000000	99.792490
470.000000	99.789875
469.000000	99.797998
468.000000	99.806992
467.000000	99.805958
466.000000	99.781286
465.000000	99.736907
464.000000	99.705968
463.000000	99.720833
462.000000	99.768426
461.000000	99.796141
460.000000	99.777566
459.000000	99.745904
458.000000	99.755269
457.000000	99.815495
456.000000	99.887579
455.000000	99.946587
454.000000	99.998837
453.000000	100.051066
452.000000	100.094085
451.000000	100.107101
450.000000	100.080408
