PE IR       SUBTECH     SPECTRUM    ASCII       PEDS        4.00        
   -1
AD10-C001_1.ASC
23/09/08
10:59:27.00
23/09/08
11:14:38.00
uco
Sample 001 By uco Date Friday, September 08 2023
450.000000
#HDR
-1
-1
#GR
cm-1
%T
1.0
0.0
4000.000000
-1.000000
3551
8
100.405157
94.925830
#DATA
4000.000000	100.173630
3999.000000	100.175836
3998.000000	100.177795
3997.000000	100.177643
3996.000000	100.185900
3995.000000	100.181436
3994.000000	100.175269
3993.000000	100.170575
3992.000000	100.169185
3991.000000	100.170550
3990.000000	100.172655
3989.000000	100.173844
3988.000000	100.173754
3987.000000	100.172815
3986.000000	100.171234
3985.000000	100.168702
3984.000000	100.165129
3983.000000	100.161402
3982.000000	100.159252
3981.000000	100.160104
3980.000000	100.163815
3979.000000	100.168379
3978.000000	100.171168
3977.000000	100.170810
3976.000000	100.168131
3975.000000	100.165391
3974.000000	100.164329
3973.000000	100.164968
3972.000000	100.166059
3971.000000	100.166341
3970.000000	100.165244
3969.000000	100.162694
3968.000000	100.158976
3967.000000	100.154845
3966.000000	100.151439
3965.000000	100.149682
3964.000000	100.149564
3963.000000	100.150144
3962.000000	100.150405
3961.000000	100.150180
3960.000000	100.150085
3959.000000	100.150750
3958.000000	100.152021
3957.000000	100.152692
3956.000000	100.151327
3955.000000	100.147299
3954.000000	100.141469
3953.000000	100.135817
3952.000000	100.132187
3951.000000	100.131343
3950.000000	100.132568
3949.000000	100.134408
3948.000000	100.136065
3947.000000	100.138182
3946.000000	100.142518
3945.000000	100.149991
3944.000000	100.158734
3943.000000	100.164448
3942.000000	100.163385
3941.000000	100.155954
3940.000000	100.146505
3939.000000	100.139724
3938.000000	100.137514
3937.000000	100.138351
3936.000000	100.139119
3935.000000	100.137250
3934.000000	100.132254
3933.000000	100.126312
3932.000000	100.122641
3931.000000	100.122808
3930.000000	100.125139
3929.000000	100.126793
3928.000000	100.126939
3927.000000	100.126667
3926.000000	100.127378
3925.000000	100.129274
3924.000000	100.131273
3923.000000	100.132027
3922.000000	100.130849
3921.000000	100.127935
3920.000000	100.124776
3919.000000	100.123967
3918.000000	100.127511
3917.000000	100.134052
3916.000000	100.138752
3915.000000	100.137447
3914.000000	100.130029
3913.000000	100.120256
3912.000000	100.113040
3911.000000	100.111903
3910.000000	100.117275
3909.000000	100.126560
3908.000000	100.136166
3907.000000	100.142643
3906.000000	100.143018
3905.000000	100.135310
3904.000000	100.120743
3903.000000	100.105669
3902.000000	100.098537
3901.000000	100.103557
3900.000000	100.117566
3899.000000	100.131944
3898.000000	100.139539
3897.000000	100.139442
3896.000000	100.134382
3895.000000	100.127118
3894.000000	100.119386
3893.000000	100.112527
3892.000000	100.107723
3891.000000	100.105070
3890.000000	100.103808
3889.000000	100.103993
3888.000000	100.106078
3887.000000	100.109476
3886.000000	100.112967
3885.000000	100.115608
3884.000000	100.117962
3883.000000	100.121429
3882.000000	100.126047
3881.000000	100.129986
3880.000000	100.131157
3879.000000	100.129505
3878.000000	100.127950
3877.000000	100.129211
3876.000000	100.133090
3875.000000	100.136503
3874.000000	100.136000
3873.000000	100.131862
3872.000000	100.128286
3871.000000	100.128425
3870.000000	100.130063
3869.000000	100.128361
3868.000000	100.123132
3867.000000	100.118181
3866.000000	100.115277
3865.000000	100.112824
3864.000000	100.109256
3863.000000	100.105552
3862.000000	100.103878
3861.000000	100.105241
3860.000000	100.109468
3859.000000	100.114809
3858.000000	100.119249
3857.000000	100.121206
3856.000000	100.120418
3855.000000	100.117652
3854.000000	100.112858
3853.000000	100.108883
3852.000000	100.108777
3851.000000	100.110774
3850.000000	100.111331
3849.000000	100.109760
3848.000000	100.108454
3847.000000	100.111333
3846.000000	100.119954
3845.000000	100.131657
3844.000000	100.141194
3843.000000	100.144737
3842.000000	100.142517
3841.000000	100.138163
3840.000000	100.134737
3839.000000	100.132526
3838.000000	100.131462
3837.000000	100.132228
3836.000000	100.135182
3835.000000	100.139162
3834.000000	100.142108
3833.000000	100.142920
3832.000000	100.142095
3831.000000	100.140497
3830.000000	100.139239
3829.000000	100.139272
3828.000000	100.140744
3827.000000	100.142217
3826.000000	100.141042
3825.000000	100.136191
3824.000000	100.129485
3823.000000	100.124239
3822.000000	100.122229
3821.000000	100.122235
3820.000000	100.121937
3819.000000	100.121179
3818.000000	100.121624
3817.000000	100.122759
3816.000000	100.122871
3815.000000	100.121067
3814.000000	100.118811
3813.000000	100.117995
3812.000000	100.118383
3811.000000	100.119766
3810.000000	100.123085
3809.000000	100.128855
3808.000000	100.134788
3807.000000	100.137148
3806.000000	100.135713
3805.000000	100.135711
3804.000000	100.141542
3803.000000	100.151953
3802.000000	100.159643
3801.000000	100.157180
3800.000000	100.146094
3799.000000	100.135896
3798.000000	100.131641
3797.000000	100.130881
3796.000000	100.128897
3795.000000	100.124299
3794.000000	100.119689
3793.000000	100.117566
3792.000000	100.117879
3791.000000	100.119409
3790.000000	100.121080
3789.000000	100.122071
3788.000000	100.122106
3787.000000	100.121508
3786.000000	100.121004
3785.000000	100.121265
3784.000000	100.122398
3783.000000	100.124030
3782.000000	100.125553
3781.000000	100.125635
3780.000000	100.122737
3779.000000	100.117306
3778.000000	100.112257
3777.000000	100.110725
3776.000000	100.113333
3775.000000	100.117916
3774.000000	100.121556
3773.000000	100.122880
3772.000000	100.122553
3771.000000	100.121888
3770.000000	100.121409
3769.000000	100.120575
3768.000000	100.119669
3767.000000	100.119654
3766.000000	100.120545
3765.000000	100.120673
3764.000000	100.118447
3763.000000	100.114679
3762.000000	100.111832
3761.000000	100.111559
3760.000000	100.113137
3759.000000	100.114103
3758.000000	100.112071
3757.000000	100.106989
3756.000000	100.101569
3755.000000	100.098613
3754.000000	100.097707
3753.000000	100.094674
3752.000000	100.085766
3751.000000	100.073685
3750.000000	100.065241
3749.000000	100.062744
3748.000000	100.064942
3747.000000	100.071448
3746.000000	100.082493
3745.000000	100.095535
3744.000000	100.104287
3743.000000	100.107352
3742.000000	100.110396
3741.000000	100.115607
3740.000000	100.121120
3739.000000	100.124819
3738.000000	100.126280
3737.000000	100.125935
3736.000000	100.127019
3735.000000	100.133111
3734.000000	100.140537
3733.000000	100.142009
3732.000000	100.135804
3731.000000	100.125977
3730.000000	100.116642
3729.000000	100.109048
3728.000000	100.103433
3727.000000	100.100469
3726.000000	100.100351
3725.000000	100.101783
3724.000000	100.102898
3723.000000	100.103053
3722.000000	100.102777
3721.000000	100.103668
3720.000000	100.106427
3719.000000	100.108867
3718.000000	100.107429
3717.000000	100.100845
3716.000000	100.092943
3715.000000	100.089561
3714.000000	100.092201
3713.000000	100.096501
3712.000000	100.097933
3711.000000	100.098960
3710.000000	100.105121
3709.000000	100.116067
3708.000000	100.126922
3707.000000	100.133428
3706.000000	100.134917
3705.000000	100.134862
3704.000000	100.137666
3703.000000	100.144133
3702.000000	100.149910
3701.000000	100.149689
3700.000000	100.143605
3699.000000	100.136709
3698.000000	100.133054
3697.000000	100.132323
3696.000000	100.131343
3695.000000	100.127736
3694.000000	100.121905
3693.000000	100.117030
3692.000000	100.117155
3691.000000	100.124776
3690.000000	100.137321
3689.000000	100.146340
3688.000000	100.144710
3687.000000	100.135131
3686.000000	100.126270
3685.000000	100.122392
3684.000000	100.121490
3683.000000	100.120086
3682.000000	100.117502
3681.000000	100.114728
3680.000000	100.111442
3679.000000	100.106341
3678.000000	100.100659
3677.000000	100.100730
3676.000000	100.112183
3675.000000	100.128326
3674.000000	100.134431
3673.000000	100.128490
3672.000000	100.116606
3671.000000	100.104555
3670.000000	100.097249
3669.000000	100.096383
3668.000000	100.099816
3667.000000	100.105002
3666.000000	100.109120
3665.000000	100.110277
3664.000000	100.109096
3663.000000	100.108322
3662.000000	100.109795
3661.000000	100.112408
3660.000000	100.114280
3659.000000	100.115413
3658.000000	100.117323
3657.000000	100.120280
3656.000000	100.121942
3655.000000	100.120931
3654.000000	100.119410
3653.000000	100.120292
3652.000000	100.123531
3651.000000	100.126028
3650.000000	100.125777
3649.000000	100.126041
3648.000000	100.128257
3647.000000	100.127132
3646.000000	100.120203
3645.000000	100.111545
3644.000000	100.106139
3643.000000	100.105833
3642.000000	100.109242
3641.000000	100.113190
3640.000000	100.115230
3639.000000	100.114608
3638.000000	100.111976
3637.000000	100.109369
3636.000000	100.109391
3635.000000	100.113220
3634.000000	100.119057
3633.000000	100.123533
3632.000000	100.123932
3631.000000	100.118930
3630.000000	100.108751
3629.000000	100.098185
3628.000000	100.094254
3627.000000	100.098364
3626.000000	100.107807
3625.000000	100.118631
3624.000000	100.128842
3623.000000	100.138891
3622.000000	100.149499
3621.000000	100.159348
3620.000000	100.164896
3619.000000	100.162949
3618.000000	100.154087
3617.000000	100.142522
3616.000000	100.132956
3615.000000	100.127697
3614.000000	100.125310
3613.000000	100.121378
3612.000000	100.112475
3611.000000	100.100406
3610.000000	100.090890
3609.000000	100.089974
3608.000000	100.099377
3607.000000	100.113727
3606.000000	100.125599
3605.000000	100.131608
3604.000000	100.133249
3603.000000	100.133286
3602.000000	100.133256
3601.000000	100.133441
3600.000000	100.133630
3599.000000	100.133773
3598.000000	100.133854
3597.000000	100.133616
3596.000000	100.132708
3595.000000	100.131836
3594.000000	100.132203
3593.000000	100.134592
3592.000000	100.137987
3591.000000	100.140675
3590.000000	100.141415
3589.000000	100.140272
3588.000000	100.138335
3587.000000	100.136989
3586.000000	100.136022
3585.000000	100.134972
3584.000000	100.134064
3583.000000	100.132764
3582.000000	100.130163
3581.000000	100.126541
3580.000000	100.122944
3579.000000	100.119984
3578.000000	100.117071
3577.000000	100.113557
3576.000000	100.109571
3575.000000	100.106323
3574.000000	100.105342
3573.000000	100.107308
3572.000000	100.111522
3571.000000	100.116260
3570.000000	100.120428
3569.000000	100.124688
3568.000000	100.131718
3567.000000	100.142844
3566.000000	100.153376
3565.000000	100.156135
3564.000000	100.150432
3563.000000	100.141327
3562.000000	100.134344
3561.000000	100.132864
3560.000000	100.137632
3559.000000	100.146385
3558.000000	100.154776
3557.000000	100.158570
3556.000000	100.156222
3555.000000	100.149552
3554.000000	100.142171
3553.000000	100.136660
3552.000000	100.132956
3551.000000	100.128934
3550.000000	100.122659
3549.000000	100.114139
3548.000000	100.105787
3547.000000	100.101869
3546.000000	100.105828
3545.000000	100.116591
3544.000000	100.128903
3543.000000	100.138317
3542.000000	100.144214
3541.000000	100.148476
3540.000000	100.152652
3539.000000	100.156156
3538.000000	100.156785
3537.000000	100.152660
3536.000000	100.144434
3535.000000	100.135618
3534.000000	100.130335
3533.000000	100.130788
3532.000000	100.136055
3531.000000	100.143029
3530.000000	100.148265
3529.000000	100.149885
3528.000000	100.148310
3527.000000	100.145589
3526.000000	100.143912
3525.000000	100.144587
3524.000000	100.147396
3523.000000	100.150363
3522.000000	100.151017
3521.000000	100.148849
3520.000000	100.146329
3519.000000	100.146476
3518.000000	100.149540
3517.000000	100.152519
3516.000000	100.152088
3515.000000	100.147659
3514.000000	100.141114
3513.000000	100.134794
3512.000000	100.130635
3511.000000	100.130698
3510.000000	100.136494
3509.000000	100.146608
3508.000000	100.156084
3507.000000	100.159678
3506.000000	100.155965
3505.000000	100.148102
3504.000000	100.141778
3503.000000	100.141462
3502.000000	100.147078
3501.000000	100.154329
3500.000000	100.158445
3499.000000	100.157801
3498.000000	100.154696
3497.000000	100.153439
3496.000000	100.156387
3495.000000	100.161559
3494.000000	100.164522
3493.000000	100.162893
3492.000000	100.158313
3491.000000	100.154039
3490.000000	100.151554
3489.000000	100.150088
3488.000000	100.148706
3487.000000	100.147717
3486.000000	100.147897
3485.000000	100.149297
3484.000000	100.151359
3483.000000	100.153845
3482.000000	100.157032
3481.000000	100.160935
3480.000000	100.164809
3479.000000	100.167632
3478.000000	100.168892
3477.000000	100.168572
3476.000000	100.166516
3475.000000	100.162179
3474.000000	100.155610
3473.000000	100.148728
3472.000000	100.144944
3471.000000	100.146760
3470.000000	100.153410
3469.000000	100.161055
3468.000000	100.165467
3467.000000	100.164926
3466.000000	100.161239
3465.000000	100.158211
3464.000000	100.158881
3463.000000	100.163609
3462.000000	100.170398
3461.000000	100.176897
3460.000000	100.181778
3459.000000	100.184399
3458.000000	100.184150
3457.000000	100.180818
3456.000000	100.175493
3455.000000	100.170285
3454.000000	100.166775
3453.000000	100.165131
3452.000000	100.164458
3451.000000	100.163850
3450.000000	100.162982
3449.000000	100.162262
3448.000000	100.162676
3447.000000	100.164860
3446.000000	100.167673
3445.000000	100.168489
3444.000000	100.165501
3443.000000	100.159652
3442.000000	100.154288
3441.000000	100.152756
3440.000000	100.156125
3439.000000	100.162608
3438.000000	100.168718
3437.000000	100.171438
3436.000000	100.170268
3435.000000	100.167433
3434.000000	100.165641
3433.000000	100.165742
3432.000000	100.166596
3431.000000	100.167048
3430.000000	100.167111
3429.000000	100.167455
3428.000000	100.168714
3427.000000	100.171483
3426.000000	100.176033
3425.000000	100.181309
3424.000000	100.184833
3423.000000	100.184386
3422.000000	100.179821
3421.000000	100.172977
3420.000000	100.165899
3419.000000	100.159491
3418.000000	100.153849
3417.000000	100.149307
3416.000000	100.146595
3415.000000	100.145989
3414.000000	100.146489
3413.000000	100.146255
3412.000000	100.144160
3411.000000	100.140779
3410.000000	100.137753
3409.000000	100.136473
3408.000000	100.137637
3407.000000	100.141526
3406.000000	100.147790
3405.000000	100.154781
3404.000000	100.159885
3403.000000	100.161223
3402.000000	100.158995
3401.000000	100.154994
3400.000000	100.150789
3399.000000	100.146722
3398.000000	100.142609
3397.000000	100.139012
3396.000000	100.137263
3395.000000	100.138148
3394.000000	100.140842
3393.000000	100.143407
3392.000000	100.144308
3391.000000	100.143418
3390.000000	100.141760
3389.000000	100.140435
3388.000000	100.139504
3387.000000	100.137619
3386.000000	100.133032
3385.000000	100.125455
3384.000000	100.116691
3383.000000	100.109099
3382.000000	100.103732
3381.000000	100.100538
3380.000000	100.099653
3379.000000	100.101358
3378.000000	100.104727
3377.000000	100.107577
3376.000000	100.108227
3375.000000	100.106738
3374.000000	100.104311
3373.000000	100.102240
3372.000000	100.101577
3371.000000	100.102665
3370.000000	100.104218
3369.000000	100.103737
3368.000000	100.100064
3367.000000	100.095196
3366.000000	100.092409
3365.000000	100.092489
3364.000000	100.092892
3363.000000	100.090850
3362.000000	100.086493
3361.000000	100.082416
3360.000000	100.080674
3359.000000	100.080713
3358.000000	100.080136
3357.000000	100.077150
3356.000000	100.072281
3355.000000	100.067957
3354.000000	100.066501
3353.000000	100.068351
3352.000000	100.071942
3351.000000	100.075001
3350.000000	100.076029
3349.000000	100.074988
3348.000000	100.072972
3347.000000	100.071095
3346.000000	100.069476
3345.000000	100.067341
3344.000000	100.064078
3343.000000	100.059959
3342.000000	100.055527
3341.000000	100.050688
3340.000000	100.045200
3339.000000	100.040119
3338.000000	100.037931
3337.000000	100.040296
3336.000000	100.045529
3335.000000	100.049028
3334.000000	100.046999
3333.000000	100.039957
3332.000000	100.032315
3331.000000	100.028388
3330.000000	100.028711
3329.000000	100.030099
3328.000000	100.029027
3327.000000	100.024807
3326.000000	100.019730
3325.000000	100.016535
3324.000000	100.015775
3323.000000	100.015551
3322.000000	100.013770
3321.000000	100.010838
3320.000000	100.009779
3319.000000	100.013073
3318.000000	100.019287
3317.000000	100.023587
3316.000000	100.022113
3315.000000	100.015554
3314.000000	100.007974
3313.000000	100.002538
3312.000000	99.999153
3311.000000	99.996100
3310.000000	99.993049
3309.000000	99.991791
3308.000000	99.994083
3307.000000	99.999318
3306.000000	100.004538
3305.000000	100.006482
3304.000000	100.003482
3303.000000	99.995804
3302.000000	99.984937
3301.000000	99.972964
3300.000000	99.962211
3299.000000	99.954628
3298.000000	99.950991
3297.000000	99.950855
3296.000000	99.953170
3295.000000	99.956790
3294.000000	99.960615
3293.000000	99.964133
3292.000000	99.968011
3291.000000	99.973418
3290.000000	99.980062
3289.000000	99.985234
3288.000000	99.985607
3287.000000	99.980284
3286.000000	99.971900
3285.000000	99.964690
3284.000000	99.961457
3283.000000	99.961936
3282.000000	99.963705
3281.000000	99.964640
3280.000000	99.964629
3279.000000	99.964948
3278.000000	99.966282
3277.000000	99.967771
3276.000000	99.967985
3275.000000	99.966368
3274.000000	99.963382
3273.000000	99.959797
3272.000000	99.956364
3271.000000	99.953883
3270.000000	99.952929
3269.000000	99.953377
3268.000000	99.954504
3267.000000	99.955679
3266.000000	99.956936
3265.000000	99.958990
3264.000000	99.962624
3263.000000	99.967690
3262.000000	99.972582
3261.000000	99.975072
3260.000000	99.974126
3259.000000	99.970747
3258.000000	99.966833
3257.000000	99.963349
3256.000000	99.959916
3255.000000	99.956061
3254.000000	99.952596
3253.000000	99.951594
3252.000000	99.954805
3251.000000	99.961857
3250.000000	99.969903
3249.000000	99.975468
3248.000000	99.976944
3247.000000	99.975245
3246.000000	99.972235
3245.000000	99.968899
3244.000000	99.964977
3243.000000	99.959713
3242.000000	99.952636
3241.000000	99.944461
3240.000000	99.937808
3239.000000	99.936155
3238.000000	99.940844
3237.000000	99.949068
3236.000000	99.955715
3235.000000	99.957638
3234.000000	99.955667
3233.000000	99.952595
3232.000000	99.950137
3231.000000	99.948375
3230.000000	99.947317
3229.000000	99.947715
3228.000000	99.950045
3227.000000	99.953282
3226.000000	99.955369
3225.000000	99.954990
3224.000000	99.952628
3223.000000	99.949891
3222.000000	99.948038
3221.000000	99.947432
3220.000000	99.948090
3219.000000	99.950020
3218.000000	99.952814
3217.000000	99.955420
3216.000000	99.956891
3215.000000	99.957196
3214.000000	99.956868
3213.000000	99.955863
3212.000000	99.953446
3211.000000	99.949497
3210.000000	99.945581
3209.000000	99.943981
3208.000000	99.945510
3207.000000	99.948288
3206.000000	99.948988
3205.000000	99.945564
3204.000000	99.939182
3203.000000	99.933550
3202.000000	99.931986
3201.000000	99.934877
3200.000000	99.939874
3199.000000	99.944292
3198.000000	99.946936
3197.000000	99.947647
3196.000000	99.946138
3195.000000	99.942254
3194.000000	99.937309
3193.000000	99.934033
3192.000000	99.934430
3191.000000	99.937711
3190.000000	99.940770
3189.000000	99.940762
3188.000000	99.937353
3187.000000	99.932614
3186.000000	99.929079
3185.000000	99.927656
3184.000000	99.927317
3183.000000	99.926736
3182.000000	99.926150
3181.000000	99.927214
3180.000000	99.930792
3179.000000	99.935398
3178.000000	99.938265
3177.000000	99.937877
3176.000000	99.934970
3175.000000	99.931286
3174.000000	99.928138
3173.000000	99.926291
3172.000000	99.926207
3171.000000	99.927664
3170.000000	99.929626
3169.000000	99.931347
3168.000000	99.933433
3167.000000	99.936941
3166.000000	99.941419
3165.000000	99.944670
3164.000000	99.945021
3163.000000	99.943131
3162.000000	99.941032
3161.000000	99.939658
3160.000000	99.938164
3159.000000	99.935446
3158.000000	99.931620
3157.000000	99.927906
3156.000000	99.925843
3155.000000	99.926738
3154.000000	99.931059
3153.000000	99.937730
3152.000000	99.944637
3151.000000	99.950281
3150.000000	99.954327
3149.000000	99.956015
3148.000000	99.953103
3147.000000	99.944068
3146.000000	99.931334
3145.000000	99.920827
3144.000000	99.917507
3143.000000	99.921500
3142.000000	99.928820
3141.000000	99.935096
3140.000000	99.938550
3139.000000	99.940297
3138.000000	99.942665
3137.000000	99.946720
3136.000000	99.950745
3135.000000	99.951350
3134.000000	99.946764
3133.000000	99.938948
3132.000000	99.932159
3131.000000	99.929831
3130.000000	99.933024
3129.000000	99.940641
3128.000000	99.949823
3127.000000	99.956790
3126.000000	99.959061
3125.000000	99.957189
3124.000000	99.953757
3123.000000	99.950747
3122.000000	99.948621
3121.000000	99.947295
3120.000000	99.946499
3119.000000	99.945046
3118.000000	99.941451
3117.000000	99.936174
3116.000000	99.932203
3115.000000	99.932098
3114.000000	99.934994
3113.000000	99.937443
3112.000000	99.936907
3111.000000	99.933669
3110.000000	99.929700
3109.000000	99.926593
3108.000000	99.924723
3107.000000	99.923636
3106.000000	99.922670
3105.000000	99.921474
3104.000000	99.920406
3103.000000	99.920327
3102.000000	99.921674
3101.000000	99.923667
3100.000000	99.924736
3099.000000	99.923856
3098.000000	99.921356
3097.000000	99.918463
3096.000000	99.916385
3095.000000	99.915887
3094.000000	99.917327
3093.000000	99.920421
3092.000000	99.923767
3091.000000	99.925154
3090.000000	99.923013
3089.000000	99.917750
3088.000000	99.911546
3087.000000	99.906878
3086.000000	99.905169
3085.000000	99.906200
3084.000000	99.908336
3083.000000	99.909495
3082.000000	99.908747
3081.000000	99.907022
3080.000000	99.905965
3079.000000	99.906221
3078.000000	99.907492
3077.000000	99.909870
3076.000000	99.913761
3075.000000	99.918119
3074.000000	99.920017
3073.000000	99.917190
3072.000000	99.910669
3071.000000	99.904100
3070.000000	99.900459
3069.000000	99.899844
3068.000000	99.900167
3067.000000	99.899203
3066.000000	99.896156
3065.000000	99.892088
3064.000000	99.889126
3063.000000	99.888785
3062.000000	99.890725
3061.000000	99.893152
3060.000000	99.894434
3059.000000	99.894252
3058.000000	99.893554
3057.000000	99.893767
3056.000000	99.895732
3055.000000	99.898954
3054.000000	99.901837
3053.000000	99.903074
3052.000000	99.902693
3051.000000	99.901621
3050.000000	99.900629
3049.000000	99.899994
3048.000000	99.899761
3047.000000	99.899568
3046.000000	99.898580
3045.000000	99.896444
3044.000000	99.894323
3043.000000	99.894153
3042.000000	99.896719
3041.000000	99.900843
3040.000000	99.904627
3039.000000	99.906996
3038.000000	99.908085
3037.000000	99.908642
3036.000000	99.909192
3035.000000	99.909514
3034.000000	99.908890
3033.000000	99.906994
3032.000000	99.904221
3031.000000	99.901067
3030.000000	99.898039
3029.000000	99.896688
3028.000000	99.899353
3027.000000	99.906294
3026.000000	99.913540
3025.000000	99.915588
3024.000000	99.910850
3023.000000	99.903258
3022.000000	99.898073
3021.000000	99.897278
3020.000000	99.899408
3019.000000	99.902130
3018.000000	99.903680
3017.000000	99.902735
3016.000000	99.898755
3015.000000	99.892730
3014.000000	99.887071
3013.000000	99.884401
3012.000000	99.886132
3011.000000	99.891040
3010.000000	99.894984
3009.000000	99.893417
3008.000000	99.885430
3007.000000	99.875017
3006.000000	99.867406
3005.000000	99.864450
3004.000000	99.864237
3003.000000	99.864625
3002.000000	99.865741
3001.000000	99.868910
3000.000000	99.874355
2999.000000	99.880651
2998.000000	99.885921
2997.000000	99.889172
2996.000000	99.890760
2995.000000	99.891757
2994.000000	99.892585
2993.000000	99.892117
2992.000000	99.888423
2991.000000	99.880608
2990.000000	99.869940
2989.000000	99.859286
2988.000000	99.851597
2987.000000	99.848387
2986.000000	99.848881
2985.000000	99.850323
2984.000000	99.849486
2983.000000	99.844601
2982.000000	99.836191
2981.000000	99.826279
2980.000000	99.816661
2979.000000	99.807895
2978.000000	99.799673
2977.000000	99.791917
2976.000000	99.784929
2975.000000	99.778315
2974.000000	99.770320
2973.000000	99.759263
2972.000000	99.745777
2971.000000	99.732731
2970.000000	99.722341
2969.000000	99.713846
2968.000000	99.704719
2967.000000	99.693686
2966.000000	99.681641
2965.000000	99.669614
2964.000000	99.656968
2963.000000	99.642389
2962.000000	99.626202
2961.000000	99.610861
2960.000000	99.598861
2959.000000	99.590452
2958.000000	99.583714
2957.000000	99.576687
2956.000000	99.569262
2955.000000	99.563026
2954.000000	99.559628
2953.000000	99.559480
2952.000000	99.561620
2951.000000	99.564279
2950.000000	99.565302
2949.000000	99.562630
2948.000000	99.555162
2947.000000	99.543634
2946.000000	99.530387
2945.000000	99.517582
2944.000000	99.505278
2943.000000	99.491439
2942.000000	99.474151
2941.000000	99.453541
2940.000000	99.431021
2939.000000	99.407028
2938.000000	99.380457
2937.000000	99.350529
2936.000000	99.318013
2935.000000	99.283950
2934.000000	99.248256
2933.000000	99.210670
2932.000000	99.172409
2931.000000	99.135267
2930.000000	99.099118
2929.000000	99.061641
2928.000000	99.020948
2927.000000	98.977865
2926.000000	98.935419
2925.000000	98.897058
2924.000000	98.865262
2923.000000	98.840741
2922.000000	98.822396
2921.000000	98.809049
2920.000000	98.802062
2919.000000	98.805460
2918.000000	98.822807
2917.000000	98.854293
2916.000000	98.897211
2915.000000	98.948600
2914.000000	99.006412
2913.000000	99.068567
2912.000000	99.131612
2911.000000	99.190911
2910.000000	99.242118
2909.000000	99.283400
2908.000000	99.316757
2907.000000	99.346644
2906.000000	99.376324
2905.000000	99.405421
2904.000000	99.431282
2903.000000	99.452259
2902.000000	99.468916
2901.000000	99.482958
2900.000000	99.495383
2899.000000	99.507014
2898.000000	99.519001
2897.000000	99.532517
2896.000000	99.547944
2895.000000	99.564371
2894.000000	99.579665
2893.000000	99.591370
2892.000000	99.598465
2891.000000	99.602601
2890.000000	99.606967
2889.000000	99.613379
2888.000000	99.620639
2887.000000	99.626173
2886.000000	99.629212
2885.000000	99.631969
2884.000000	99.637538
2883.000000	99.646702
2882.000000	99.656935
2881.000000	99.664491
2880.000000	99.667433
2879.000000	99.666536
2878.000000	99.663682
2877.000000	99.660063
2876.000000	99.656042
2875.000000	99.651952
2874.000000	99.648028
2873.000000	99.643676
2872.000000	99.637852
2871.000000	99.630660
2870.000000	99.624008
2869.000000	99.619822
2868.000000	99.617661
2867.000000	99.614695
2866.000000	99.608300
2865.000000	99.598308
2864.000000	99.586150
2863.000000	99.572177
2862.000000	99.554621
2861.000000	99.531473
2860.000000	99.502546
2859.000000	99.468919
2858.000000	99.431074
2857.000000	99.388949
2856.000000	99.343992
2855.000000	99.299818
2854.000000	99.260294
2853.000000	99.227699
2852.000000	99.203622
2851.000000	99.191177
2850.000000	99.194885
2849.000000	99.217955
2848.000000	99.259587
2847.000000	99.314917
2846.000000	99.377318
2845.000000	99.441075
2844.000000	99.502303
2843.000000	99.558202
2842.000000	99.606267
2841.000000	99.644958
2840.000000	99.675140
2839.000000	99.699735
2838.000000	99.721395
2837.000000	99.740853
2836.000000	99.757645
2835.000000	99.771670
2834.000000	99.783471
2833.000000	99.793704
2832.000000	99.803128
2831.000000	99.812451
2830.000000	99.821194
2829.000000	99.827274
2828.000000	99.828956
2827.000000	99.827205
2826.000000	99.824989
2825.000000	99.824214
2824.000000	99.824523
2823.000000	99.825346
2822.000000	99.827722
2821.000000	99.833057
2820.000000	99.840727
2819.000000	99.848123
2818.000000	99.853187
2817.000000	99.856244
2816.000000	99.859049
2815.000000	99.862401
2814.000000	99.865051
2813.000000	99.865122
2812.000000	99.862402
2811.000000	99.858872
2810.000000	99.856801
2809.000000	99.856643
2808.000000	99.857170
2807.000000	99.857264
2806.000000	99.856906
2805.000000	99.856568
2804.000000	99.856496
2803.000000	99.856892
2802.000000	99.858169
2801.000000	99.860566
2800.000000	99.863809
2799.000000	99.867388
2798.000000	99.870882
2797.000000	99.873829
2796.000000	99.875645
2795.000000	99.876006
2794.000000	99.875178
2793.000000	99.873892
2792.000000	99.873113
2791.000000	99.873818
2790.000000	99.876378
2789.000000	99.879931
2788.000000	99.882851
2787.000000	99.884219
2786.000000	99.884487
2785.000000	99.884406
2784.000000	99.883805
2783.000000	99.882043
2782.000000	99.879389
2781.000000	99.877288
2780.000000	99.877105
2779.000000	99.878914
2778.000000	99.881427
2777.000000	99.882807
2776.000000	99.881728
2775.000000	99.878276
2774.000000	99.874046
2773.000000	99.871162
2772.000000	99.870945
2771.000000	99.873423
2770.000000	99.877839
2769.000000	99.883145
2768.000000	99.888009
2767.000000	99.890975
2766.000000	99.891348
2765.000000	99.890134
2764.000000	99.889730
2763.000000	99.892115
2762.000000	99.896912
2761.000000	99.901296
2760.000000	99.902267
2759.000000	99.899376
2758.000000	99.895135
2757.000000	99.892407
2756.000000	99.891594
2755.000000	99.890875
2754.000000	99.889196
2753.000000	99.888157
2752.000000	99.890253
2751.000000	99.895579
2750.000000	99.901292
2749.000000	99.904515
2748.000000	99.905109
2747.000000	99.905045
2746.000000	99.905635
2745.000000	99.906322
2744.000000	99.906121
2743.000000	99.905200
2742.000000	99.904387
2741.000000	99.903655
2740.000000	99.902039
2739.000000	99.899154
2738.000000	99.896178
2737.000000	99.894873
2736.000000	99.895733
2735.000000	99.897385
2734.000000	99.897863
2733.000000	99.896448
2732.000000	99.894293
2731.000000	99.893284
2730.000000	99.894321
2729.000000	99.896594
2728.000000	99.898436
2727.000000	99.898736
2726.000000	99.897684
2725.000000	99.896514
2724.000000	99.896676
2723.000000	99.898862
2722.000000	99.902312
2721.000000	99.905115
2720.000000	99.905726
2719.000000	99.904478
2718.000000	99.903445
2717.000000	99.904604
2716.000000	99.908103
2715.000000	99.912236
2714.000000	99.914965
2713.000000	99.915521
2712.000000	99.914753
2711.000000	99.913956
2710.000000	99.913275
2709.000000	99.911542
2708.000000	99.908143
2707.000000	99.904896
2706.000000	99.905045
2705.000000	99.909704
2704.000000	99.915833
2703.000000	99.918771
2702.000000	99.916960
2701.000000	99.913562
2700.000000	99.913048
2699.000000	99.916570
2698.000000	99.920974
2697.000000	99.922013
2696.000000	99.918272
2695.000000	99.912217
2694.000000	99.907894
2693.000000	99.907676
2692.000000	99.910849
2691.000000	99.914862
2690.000000	99.917572
2689.000000	99.918199
2688.000000	99.916756
2687.000000	99.913624
2686.000000	99.910037
2685.000000	99.908072
2684.000000	99.909006
2683.000000	99.911699
2682.000000	99.913463
2681.000000	99.912796
2680.000000	99.910728
2679.000000	99.909252
2678.000000	99.909101
2677.000000	99.909596
2676.000000	99.910091
2675.000000	99.910665
2674.000000	99.911494
2673.000000	99.912360
2672.000000	99.913069
2671.000000	99.913778
2670.000000	99.914469
2669.000000	99.914450
2668.000000	99.912932
2667.000000	99.910093
2666.000000	99.907003
2665.000000	99.904237
2664.000000	99.900850
2663.000000	99.895340
2662.000000	99.887849
2661.000000	99.880890
2660.000000	99.877281
2659.000000	99.877422
2658.000000	99.879348
2657.000000	99.881568
2656.000000	99.884883
2655.000000	99.890522
2654.000000	99.897174
2653.000000	99.901473
2652.000000	99.901688
2651.000000	99.899714
2650.000000	99.898630
2649.000000	99.899181
2648.000000	99.899711
2647.000000	99.899006
2646.000000	99.897862
2645.000000	99.897790
2644.000000	99.899441
2643.000000	99.902757
2642.000000	99.907505
2641.000000	99.912689
2640.000000	99.916173
2639.000000	99.916295
2638.000000	99.913940
2637.000000	99.912015
2636.000000	99.912505
2635.000000	99.914860
2634.000000	99.917625
2633.000000	99.920665
2632.000000	99.924851
2631.000000	99.930140
2630.000000	99.935214
2629.000000	99.939040
2628.000000	99.941703
2627.000000	99.943471
2626.000000	99.944005
2625.000000	99.943021
2624.000000	99.941070
2623.000000	99.939101
2622.000000	99.937880
2621.000000	99.938193
2620.000000	99.940578
2619.000000	99.943886
2618.000000	99.944906
2617.000000	99.940948
2616.000000	99.933000
2615.000000	99.925489
2614.000000	99.922946
2613.000000	99.927300
2612.000000	99.937355
2611.000000	99.948990
2610.000000	99.956075
2609.000000	99.953882
2608.000000	99.943483
2607.000000	99.932020
2606.000000	99.927184
2605.000000	99.931465
2604.000000	99.941751
2603.000000	99.953065
2602.000000	99.961579
2601.000000	99.965314
2600.000000	99.964432
2599.000000	99.961235
2598.000000	99.958498
2597.000000	99.957250
2596.000000	99.956979
2595.000000	99.957809
2594.000000	99.960794
2593.000000	99.965300
2592.000000	99.967659
2591.000000	99.964459
2590.000000	99.957084
2589.000000	99.951638
2588.000000	99.953683
2587.000000	99.963296
2586.000000	99.975296
2585.000000	99.983613
2584.000000	99.985570
2583.000000	99.983070
2582.000000	99.980459
2581.000000	99.980817
2580.000000	99.983299
2579.000000	99.984089
2578.000000	99.980676
2577.000000	99.975013
2576.000000	99.971697
2575.000000	99.972984
2574.000000	99.976688
2573.000000	99.979268
2572.000000	99.979581
2571.000000	99.978722
2570.000000	99.977578
2569.000000	99.976440
2568.000000	99.976456
2567.000000	99.979249
2566.000000	99.984492
2565.000000	99.989390
2564.000000	99.991369
2563.000000	99.990371
2562.000000	99.987971
2561.000000	99.985406
2560.000000	99.983061
2559.000000	99.980633
2558.000000	99.976819
2557.000000	99.970066
2556.000000	99.961215
2555.000000	99.954633
2554.000000	99.954969
2553.000000	99.962638
2552.000000	99.973753
2551.000000	99.984133
2550.000000	99.991874
2549.000000	99.995789
2548.000000	99.993709
2547.000000	99.984198
2546.000000	99.969633
2545.000000	99.956269
2544.000000	99.950759
2543.000000	99.956203
2542.000000	99.970476
2541.000000	99.987226
2540.000000	99.999006
2539.000000	100.001164
2538.000000	99.994149
2537.000000	99.982408
2536.000000	99.970795
2535.000000	99.961622
2534.000000	99.954571
2533.000000	99.948892
2532.000000	99.945278
2531.000000	99.945572
2530.000000	99.950450
2529.000000	99.957394
2528.000000	99.961347
2527.000000	99.958289
2526.000000	99.948793
2525.000000	99.938013
2524.000000	99.931942
2523.000000	99.933324
2522.000000	99.940728
2521.000000	99.950663
2520.000000	99.959732
2519.000000	99.965147
2518.000000	99.964852
2517.000000	99.958697
2516.000000	99.949581
2515.000000	99.942209
2514.000000	99.939572
2513.000000	99.940658
2512.000000	99.942013
2511.000000	99.941578
2510.000000	99.940293
2509.000000	99.939793
2508.000000	99.939476
2507.000000	99.937105
2506.000000	99.932477
2505.000000	99.929111
2504.000000	99.931373
2503.000000	99.940163
2502.000000	99.952288
2501.000000	99.963761
2500.000000	99.972434
2499.000000	99.977361
2498.000000	99.977121
2497.000000	99.970589
2496.000000	99.959108
2495.000000	99.946874
2494.000000	99.938533
2493.000000	99.936400
2492.000000	99.939594
2491.000000	99.945249
2490.000000	99.950606
2489.000000	99.954706
2488.000000	99.958296
2487.000000	99.961815
2486.000000	99.963809
2485.000000	99.962176
2484.000000	99.957181
2483.000000	99.952315
2482.000000	99.951604
2481.000000	99.956780
2480.000000	99.967073
2479.000000	99.980363
2478.000000	99.993195
2477.000000	100.000985
2476.000000	100.000920
2475.000000	99.995345
2474.000000	99.990460
2473.000000	99.990449
2472.000000	99.994017
2471.000000	99.997294
2470.000000	99.998534
2469.000000	99.998265
2468.000000	99.996135
2467.000000	99.990641
2466.000000	99.982312
2465.000000	99.974977
2464.000000	99.972526
2463.000000	99.975482
2462.000000	99.981388
2461.000000	99.987224
2460.000000	99.990764
2459.000000	99.990907
2458.000000	99.988158
2457.000000	99.984361
2456.000000	99.981257
2455.000000	99.979800
2454.000000	99.980877
2453.000000	99.984793
2452.000000	99.989250
2451.000000	99.990032
2450.000000	99.986011
2449.000000	99.981900
2448.000000	99.983356
2447.000000	99.990111
2446.000000	99.996609
2445.000000	99.999032
2444.000000	99.998726
2443.000000	99.998574
2442.000000	99.999198
2441.000000	99.999936
2440.000000	100.000739
2439.000000	100.001249
2438.000000	100.000109
2437.000000	99.997431
2436.000000	99.996590
2435.000000	100.001119
2434.000000	100.010067
2433.000000	100.018081
2432.000000	100.020315
2431.000000	100.016547
2430.000000	100.010582
2429.000000	100.006547
2428.000000	100.006026
2427.000000	100.008112
2426.000000	100.011485
2425.000000	100.015507
2424.000000	100.019265
2423.000000	100.020733
2422.000000	100.018117
2421.000000	100.011578
2420.000000	100.002762
2419.000000	99.993484
2418.000000	99.985912
2417.000000	99.982625
2416.000000	99.984246
2415.000000	99.987866
2414.000000	99.990247
2413.000000	99.991920
2412.000000	99.995294
2411.000000	99.999333
2410.000000	100.000143
2409.000000	99.997413
2408.000000	99.996405
2407.000000	100.001465
2406.000000	100.010453
2405.000000	100.017492
2404.000000	100.018868
2403.000000	100.014826
2402.000000	100.008463
2401.000000	100.004863
2400.000000	100.008342
2399.000000	100.017499
2398.000000	100.025094
2397.000000	100.025593
2396.000000	100.021236
2395.000000	100.018352
2394.000000	100.019644
2393.000000	100.023139
2392.000000	100.026823
2391.000000	100.030737
2390.000000	100.034871
2389.000000	100.038179
2388.000000	100.040358
2387.000000	100.041471
2386.000000	100.040994
2385.000000	100.038795
2384.000000	100.036860
2383.000000	100.038559
2382.000000	100.044190
2381.000000	100.050805
2380.000000	100.054998
2379.000000	100.054868
2378.000000	100.050273
2377.000000	100.042511
2376.000000	100.033955
2375.000000	100.026434
2374.000000	100.022147
2373.000000	100.024806
2372.000000	100.036323
2371.000000	100.050790
2370.000000	100.058507
2369.000000	100.059059
2368.000000	100.059877
2367.000000	100.062535
2366.000000	100.059739
2365.000000	100.049910
2364.000000	100.042787
2363.000000	100.042061
2362.000000	100.038750
2361.000000	100.029314
2360.000000	100.024002
2359.000000	100.033690
2358.000000	100.055578
2357.000000	100.075218
2356.000000	100.078858
2355.000000	100.059620
2354.000000	100.034745
2353.000000	100.028435
2352.000000	100.043407
2351.000000	100.058510
2350.000000	100.057460
2349.000000	100.042404
2348.000000	100.025801
2347.000000	100.020287
2346.000000	100.025037
2345.000000	100.022213
2344.000000	100.003119
2343.000000	99.981547
2342.000000	99.977360
2341.000000	99.991769
2340.000000	100.006854
2339.000000	100.007150
2338.000000	99.995904
2337.000000	99.988086
2336.000000	99.989324
2335.000000	99.996433
2334.000000	100.007074
2333.000000	100.024741
2332.000000	100.042588
2331.000000	100.050447
2330.000000	100.040451
2329.000000	100.019663
2328.000000	99.994562
2327.000000	99.973021
2326.000000	99.959671
2325.000000	99.957651
2324.000000	99.963901
2323.000000	99.971362
2322.000000	99.970500
2321.000000	99.955474
2320.000000	99.927847
2319.000000	99.900961
2318.000000	99.885086
2317.000000	99.882206
2316.000000	99.884175
2315.000000	99.889767
2314.000000	99.900401
2313.000000	99.916437
2312.000000	99.928776
2311.000000	99.932768
2310.000000	99.931320
2309.000000	99.933569
2308.000000	99.942800
2307.000000	99.957306
2306.000000	99.971425
2305.000000	99.980776
2304.000000	99.983081
2303.000000	99.981467
2302.000000	99.980381
2301.000000	99.983104
2300.000000	99.987889
2299.000000	99.992477
2298.000000	99.993030
2297.000000	99.987964
2296.000000	99.977348
2295.000000	99.966422
2294.000000	99.959991
2293.000000	99.958807
2292.000000	99.959127
2291.000000	99.959376
2290.000000	99.961839
2289.000000	99.968066
2288.000000	99.975188
2287.000000	99.978454
2286.000000	99.976295
2285.000000	99.970345
2284.000000	99.963824
2283.000000	99.959227
2282.000000	99.957861
2281.000000	99.958938
2280.000000	99.961389
2279.000000	99.965485
2278.000000	99.971385
2277.000000	99.976023
2276.000000	99.974383
2275.000000	99.966761
2274.000000	99.961910
2273.000000	99.970201
2272.000000	99.992124
2271.000000	100.016442
2270.000000	100.030246
2269.000000	100.030620
2268.000000	100.025522
2267.000000	100.023815
2266.000000	100.025093
2265.000000	100.020373
2264.000000	100.002762
2263.000000	99.976578
2262.000000	99.955281
2261.000000	99.950530
2260.000000	99.963483
2259.000000	99.984976
2258.000000	100.003376
2257.000000	100.012102
2256.000000	100.011908
2255.000000	100.007106
2254.000000	100.000077
2253.000000	99.990351
2252.000000	99.978152
2251.000000	99.967511
2250.000000	99.963982
2249.000000	99.970076
2248.000000	99.982570
2247.000000	99.995417
2246.000000	100.004564
2245.000000	100.010708
2244.000000	100.016414
2243.000000	100.020818
2242.000000	100.019360
2241.000000	100.010129
2240.000000	99.997859
2239.000000	99.988835
2238.000000	99.984341
2237.000000	99.982887
2236.000000	99.986146
2235.000000	99.996747
2234.000000	100.011141
2233.000000	100.021248
2232.000000	100.023964
2231.000000	100.023040
2230.000000	100.020642
2229.000000	100.014097
2228.000000	100.003415
2227.000000	99.995309
2226.000000	99.996232
2225.000000	100.006443
2224.000000	100.022915
2223.000000	100.041526
2222.000000	100.053776
2221.000000	100.049674
2220.000000	100.029738
2219.000000	100.007670
2218.000000	99.995579
2217.000000	99.993032
2216.000000	99.995531
2215.000000	100.005733
2214.000000	100.027337
2213.000000	100.054115
2212.000000	100.075136
2211.000000	100.087456
2210.000000	100.094032
2209.000000	100.092375
2208.000000	100.076132
2207.000000	100.047364
2206.000000	100.018455
2205.000000	100.000507
2204.000000	99.995156
2203.000000	99.996772
2202.000000	99.997049
2201.000000	99.989067
2200.000000	99.974013
2199.000000	99.963074
2198.000000	99.965833
2197.000000	99.976581
2196.000000	99.978001
2195.000000	99.959229
2194.000000	99.926634
2193.000000	99.898735
2192.000000	99.893859
2191.000000	99.917256
2190.000000	99.952997
2189.000000	99.972294
2188.000000	99.960495
2187.000000	99.934780
2186.000000	99.924692
2185.000000	99.936515
2184.000000	99.947568
2183.000000	99.937424
2182.000000	99.913121
2181.000000	99.898502
2180.000000	99.908488
2179.000000	99.940229
2178.000000	99.982034
2177.000000	100.023098
2176.000000	100.058963
2175.000000	100.092524
2174.000000	100.125397
2173.000000	100.146852
2172.000000	100.138538
2171.000000	100.093542
2170.000000	100.026097
2169.000000	99.961836
2168.000000	99.920781
2167.000000	99.909175
2166.000000	99.921578
2165.000000	99.944771
2164.000000	99.963217
2163.000000	99.968649
2162.000000	99.966622
2161.000000	99.973758
2160.000000	100.007015
2159.000000	100.068302
2158.000000	100.136060
2157.000000	100.181045
2156.000000	100.195208
2155.000000	100.195557
2154.000000	100.199337
2153.000000	100.205322
2152.000000	100.201750
2151.000000	100.183837
2150.000000	100.156422
2149.000000	100.123434
2148.000000	100.085254
2147.000000	100.048240
2146.000000	100.029249
2145.000000	100.043780
2144.000000	100.089190
2143.000000	100.142827
2142.000000	100.177796
2141.000000	100.182167
2140.000000	100.166315
2139.000000	100.151730
2138.000000	100.151435
2137.000000	100.161484
2136.000000	100.169317
2135.000000	100.167356
2134.000000	100.156601
2133.000000	100.140848
2132.000000	100.122260
2131.000000	100.102609
2130.000000	100.086184
2129.000000	100.079610
2128.000000	100.087068
2127.000000	100.104368
2126.000000	100.119060
2125.000000	100.119996
2124.000000	100.107694
2123.000000	100.092175
2122.000000	100.080344
2121.000000	100.069617
2120.000000	100.055547
2119.000000	100.040481
2118.000000	100.030579
2117.000000	100.027694
2116.000000	100.028562
2115.000000	100.030103
2114.000000	100.030874
2113.000000	100.029304
2112.000000	100.025808
2111.000000	100.026001
2110.000000	100.036106
2109.000000	100.054453
2108.000000	100.072072
2107.000000	100.082842
2106.000000	100.088326
2105.000000	100.091316
2104.000000	100.090115
2103.000000	100.082794
2102.000000	100.073832
2101.000000	100.071879
2100.000000	100.080505
2099.000000	100.093204
2098.000000	100.098528
2097.000000	100.090723
2096.000000	100.075663
2095.000000	100.064734
2094.000000	100.061752
2093.000000	100.058735
2092.000000	100.047733
2091.000000	100.034026
2090.000000	100.031722
2089.000000	100.045844
2088.000000	100.064285
2087.000000	100.071810
2086.000000	100.067793
2085.000000	100.064676
2084.000000	100.070722
2083.000000	100.079717
2082.000000	100.079243
2081.000000	100.064553
2080.000000	100.041381
2079.000000	100.018070
2078.000000	99.999615
2077.000000	99.988650
2076.000000	99.986343
2075.000000	99.989977
2074.000000	99.993107
2073.000000	99.991565
2072.000000	99.988036
2071.000000	99.987764
2070.000000	99.991436
2069.000000	99.995596
2068.000000	99.998708
2067.000000	100.002304
2066.000000	100.006055
2065.000000	100.006577
2064.000000	100.003116
2063.000000	100.000625
2062.000000	100.004267
2061.000000	100.012767
2060.000000	100.017952
2059.000000	100.009967
2058.000000	99.985174
2057.000000	99.953490
2056.000000	99.936077
2055.000000	99.946525
2054.000000	99.971149
2053.000000	99.976902
2052.000000	99.946433
2051.000000	99.899013
2050.000000	99.870765
2049.000000	99.877685
2048.000000	99.904827
2047.000000	99.933915
2046.000000	99.968686
2045.000000	100.020982
2044.000000	100.082237
2043.000000	100.124679
2042.000000	100.129963
2041.000000	100.108105
2040.000000	100.084157
2039.000000	100.069165
2038.000000	100.053164
2037.000000	100.027373
2036.000000	100.004421
2035.000000	100.008134
2034.000000	100.045070
2033.000000	100.094366
2032.000000	100.126373
2031.000000	100.125549
2030.000000	100.095981
2029.000000	100.058305
2028.000000	100.042500
2027.000000	100.066214
2026.000000	100.113137
2025.000000	100.143036
2024.000000	100.133042
2023.000000	100.101209
2022.000000	100.081261
2021.000000	100.084760
2020.000000	100.096822
2019.000000	100.100511
2018.000000	100.093321
2017.000000	100.084164
2016.000000	100.084014
2015.000000	100.097763
2014.000000	100.117657
2013.000000	100.125342
2012.000000	100.109384
2011.000000	100.082088
2010.000000	100.071308
2009.000000	100.093374
2008.000000	100.136343
2007.000000	100.171625
2006.000000	100.179528
2005.000000	100.162080
2004.000000	100.136151
2003.000000	100.116789
2002.000000	100.107499
2001.000000	100.103351
2000.000000	100.099088
1999.000000	100.094064
1998.000000	100.092345
1997.000000	100.100722
1996.000000	100.122588
1995.000000	100.148180
1994.000000	100.154076
1993.000000	100.123997
1992.000000	100.074539
1991.000000	100.044143
1990.000000	100.049134
1989.000000	100.068042
1988.000000	100.072858
1987.000000	100.059324
1986.000000	100.039529
1985.000000	100.018929
1984.000000	99.994020
1983.000000	99.965078
1982.000000	99.937147
1981.000000	99.912231
1980.000000	99.894118
1979.000000	99.899123
1978.000000	99.944619
1977.000000	100.020393
1976.000000	100.087102
1975.000000	100.113824
1974.000000	100.103825
1973.000000	100.082695
1972.000000	100.075685
1971.000000	100.094846
1970.000000	100.135360
1969.000000	100.178814
1968.000000	100.204746
1967.000000	100.205111
1966.000000	100.188819
1965.000000	100.172926
1964.000000	100.170412
1963.000000	100.181742
1962.000000	100.192103
1961.000000	100.180789
1960.000000	100.141273
1959.000000	100.089385
1958.000000	100.047467
1957.000000	100.026136
1956.000000	100.024184
1955.000000	100.038711
1954.000000	100.066838
1953.000000	100.099123
1952.000000	100.120058
1951.000000	100.119757
1950.000000	100.103999
1949.000000	100.090702
1948.000000	100.095493
1947.000000	100.119345
1946.000000	100.148925
1945.000000	100.168970
1944.000000	100.173920
1943.000000	100.167065
1942.000000	100.151532
1941.000000	100.127994
1940.000000	100.101967
1939.000000	100.085822
1938.000000	100.089658
1937.000000	100.111544
1936.000000	100.138153
1935.000000	100.155510
1934.000000	100.157858
1933.000000	100.148783
1932.000000	100.136411
1931.000000	100.126503
1930.000000	100.120150
1929.000000	100.116959
1928.000000	100.119255
1927.000000	100.131187
1926.000000	100.152522
1925.000000	100.175226
1924.000000	100.187406
1923.000000	100.182896
1922.000000	100.167560
1921.000000	100.153765
1920.000000	100.148947
1919.000000	100.150906
1918.000000	100.151303
1917.000000	100.144645
1916.000000	100.134105
1915.000000	100.126025
1914.000000	100.121845
1913.000000	100.117941
1912.000000	100.110143
1911.000000	100.096897
1910.000000	100.080499
1909.000000	100.067402
1908.000000	100.065195
1907.000000	100.075826
1906.000000	100.091784
1905.000000	100.101697
1904.000000	100.101258
1903.000000	100.097295
1902.000000	100.098446
1901.000000	100.104379
1900.000000	100.108089
1899.000000	100.105215
1898.000000	100.095940
1897.000000	100.082100
1896.000000	100.067765
1895.000000	100.061244
1894.000000	100.069762
1893.000000	100.090763
1892.000000	100.113971
1891.000000	100.131182
1890.000000	100.139677
1889.000000	100.139088
1888.000000	100.129677
1887.000000	100.114634
1886.000000	100.099269
1885.000000	100.087371
1884.000000	100.080125
1883.000000	100.078076
1882.000000	100.082075
1881.000000	100.090440
1880.000000	100.098682
1879.000000	100.104415
1878.000000	100.110001
1877.000000	100.119074
1876.000000	100.131097
1875.000000	100.140756
1874.000000	100.142649
1873.000000	100.136426
1872.000000	100.128033
1871.000000	100.126387
1870.000000	100.136907
1869.000000	100.155032
1868.000000	100.167611
1867.000000	100.167683
1866.000000	100.161948
1865.000000	100.158756
1864.000000	100.159329
1863.000000	100.159813
1862.000000	100.156115
1861.000000	100.146680
1860.000000	100.133182
1859.000000	100.120063
1858.000000	100.112929
1857.000000	100.115183
1856.000000	100.125438
1855.000000	100.139262
1854.000000	100.151362
1853.000000	100.156474
1852.000000	100.152154
1851.000000	100.141606
1850.000000	100.130878
1849.000000	100.123788
1848.000000	100.119290
1847.000000	100.114181
1846.000000	100.108711
1845.000000	100.108106
1844.000000	100.116412
1843.000000	100.129604
1842.000000	100.141068
1841.000000	100.147751
1840.000000	100.150545
1839.000000	100.151930
1838.000000	100.152216
1837.000000	100.150348
1836.000000	100.147598
1835.000000	100.147405
1834.000000	100.150619
1833.000000	100.154880
1832.000000	100.160203
1831.000000	100.169218
1830.000000	100.180045
1829.000000	100.185503
1828.000000	100.183201
1827.000000	100.178052
1826.000000	100.173808
1825.000000	100.170170
1824.000000	100.165593
1823.000000	100.160572
1822.000000	100.157151
1821.000000	100.156471
1820.000000	100.158735
1819.000000	100.163232
1818.000000	100.168995
1817.000000	100.175497
1816.000000	100.181286
1815.000000	100.184211
1814.000000	100.183611
1813.000000	100.180939
1812.000000	100.178330
1811.000000	100.174846
1810.000000	100.168086
1809.000000	100.159358
1808.000000	100.151639
1807.000000	100.145620
1806.000000	100.139961
1805.000000	100.133038
1804.000000	100.123942
1803.000000	100.112710
1802.000000	100.099924
1801.000000	100.086992
1800.000000	100.075727
1799.000000	100.066816
1798.000000	100.061555
1797.000000	100.059920
1796.000000	100.057905
1795.000000	100.051438
1794.000000	100.042024
1793.000000	100.037531
1792.000000	100.044636
1791.000000	100.058550
1790.000000	100.070883
1789.000000	100.079394
1788.000000	100.085033
1787.000000	100.089880
1786.000000	100.096497
1785.000000	100.105603
1784.000000	100.115061
1783.000000	100.123231
1782.000000	100.129799
1781.000000	100.133868
1780.000000	100.134613
1779.000000	100.132237
1778.000000	100.128861
1777.000000	100.125801
1776.000000	100.122791
1775.000000	100.120513
1774.000000	100.121815
1773.000000	100.129882
1772.000000	100.143718
1771.000000	100.154789
1770.000000	100.156777
1769.000000	100.151655
1768.000000	100.145538
1767.000000	100.143354
1766.000000	100.144850
1765.000000	100.146232
1764.000000	100.144541
1763.000000	100.140013
1762.000000	100.134267
1761.000000	100.129343
1760.000000	100.128194
1759.000000	100.129815
1758.000000	100.129161
1757.000000	100.121797
1756.000000	100.109753
1755.000000	100.098414
1754.000000	100.086901
1753.000000	100.070210
1752.000000	100.049077
1751.000000	100.032137
1750.000000	100.024576
1749.000000	100.021778
1748.000000	100.020229
1747.000000	100.021651
1746.000000	100.024602
1745.000000	100.023836
1744.000000	100.017374
1743.000000	100.007126
1742.000000	99.994341
1741.000000	99.979956
1740.000000	99.968770
1739.000000	99.964920
1738.000000	99.963200
1737.000000	99.954812
1736.000000	99.940233
1735.000000	99.935004
1734.000000	99.954961
1733.000000	99.985759
1732.000000	100.010974
1731.000000	100.033968
1730.000000	100.058712
1729.000000	100.080983
1728.000000	100.096071
1727.000000	100.106514
1726.000000	100.116067
1725.000000	100.124591
1724.000000	100.131091
1723.000000	100.137261
1722.000000	100.145116
1721.000000	100.153479
1720.000000	100.160410
1719.000000	100.164264
1718.000000	100.160494
1717.000000	100.152399
1716.000000	100.147456
1715.000000	100.143670
1714.000000	100.137274
1713.000000	100.127242
1712.000000	100.116242
1711.000000	100.110457
1710.000000	100.113378
1709.000000	100.120797
1708.000000	100.125029
1707.000000	100.122776
1706.000000	100.117915
1705.000000	100.115800
1704.000000	100.113002
1703.000000	100.100969
1702.000000	100.076971
1701.000000	100.048987
1700.000000	100.027214
1699.000000	100.014359
1698.000000	100.010818
1697.000000	100.009969
1696.000000	100.008551
1695.000000	100.004248
1694.000000	100.002027
1693.000000	100.005295
1692.000000	100.006787
1691.000000	100.001019
1690.000000	99.987672
1689.000000	99.969309
1688.000000	99.949695
1687.000000	99.930918
1686.000000	99.916086
1685.000000	99.911346
1684.000000	99.913649
1683.000000	99.906443
1682.000000	99.894097
1681.000000	99.885393
1680.000000	99.879569
1679.000000	99.873056
1678.000000	99.860797
1677.000000	99.839374
1676.000000	99.813521
1675.000000	99.795633
1674.000000	99.790857
1673.000000	99.790633
1672.000000	99.784848
1671.000000	99.772059
1670.000000	99.759454
1669.000000	99.751189
1668.000000	99.744979
1667.000000	99.740585
1666.000000	99.735071
1665.000000	99.724144
1664.000000	99.708032
1663.000000	99.691731
1662.000000	99.679223
1661.000000	99.668719
1660.000000	99.658165
1659.000000	99.649441
1658.000000	99.644520
1657.000000	99.641841
1656.000000	99.637618
1655.000000	99.636278
1654.000000	99.649406
1653.000000	99.665484
1652.000000	99.649730
1651.000000	99.634720
1650.000000	99.628881
1649.000000	99.618990
1648.000000	99.602241
1647.000000	99.591639
1646.000000	99.597038
1645.000000	99.609392
1644.000000	99.621807
1643.000000	99.630529
1642.000000	99.634067
1641.000000	99.634405
1640.000000	99.634171
1639.000000	99.633835
1638.000000	99.634130
1637.000000	99.640105
1636.000000	99.656212
1635.000000	99.672335
1634.000000	99.677445
1633.000000	99.679998
1632.000000	99.683434
1631.000000	99.687773
1630.000000	99.694625
1629.000000	99.703432
1628.000000	99.709657
1627.000000	99.710758
1626.000000	99.708985
1625.000000	99.709475
1624.000000	99.718770
1623.000000	99.738644
1622.000000	99.759325
1621.000000	99.769319
1620.000000	99.768100
1619.000000	99.761733
1618.000000	99.758444
1617.000000	99.764983
1616.000000	99.779753
1615.000000	99.797009
1614.000000	99.813113
1613.000000	99.823622
1612.000000	99.828922
1611.000000	99.835807
1610.000000	99.849245
1609.000000	99.864370
1608.000000	99.873582
1607.000000	99.877257
1606.000000	99.880794
1605.000000	99.886002
1604.000000	99.891295
1603.000000	99.894667
1602.000000	99.893997
1601.000000	99.887741
1600.000000	99.877777
1599.000000	99.869275
1598.000000	99.865343
1597.000000	99.864884
1596.000000	99.865644
1595.000000	99.866183
1594.000000	99.864829
1593.000000	99.859266
1592.000000	99.849634
1591.000000	99.838785
1590.000000	99.827656
1589.000000	99.813222
1588.000000	99.793749
1587.000000	99.771939
1586.000000	99.750113
1585.000000	99.726118
1584.000000	99.698264
1583.000000	99.669467
1582.000000	99.642832
1581.000000	99.617831
1580.000000	99.593593
1579.000000	99.572666
1578.000000	99.559616
1577.000000	99.558526
1576.000000	99.569792
1575.000000	99.588051
1574.000000	99.606793
1573.000000	99.620018
1572.000000	99.626859
1571.000000	99.633742
1570.000000	99.647390
1569.000000	99.662219
1568.000000	99.671114
1567.000000	99.678404
1566.000000	99.686384
1565.000000	99.691619
1564.000000	99.691558
1563.000000	99.687918
1562.000000	99.682141
1561.000000	99.676264
1560.000000	99.672772
1559.000000	99.659543
1558.000000	99.634325
1557.000000	99.605419
1556.000000	99.587645
1555.000000	99.578034
1554.000000	99.571855
1553.000000	99.565303
1552.000000	99.555004
1551.000000	99.536237
1550.000000	99.506037
1549.000000	99.465641
1548.000000	99.419302
1547.000000	99.367939
1546.000000	99.307700
1545.000000	99.237335
1544.000000	99.164536
1543.000000	99.098395
1542.000000	99.040656
1541.000000	98.999897
1540.000000	98.999242
1539.000000	99.027874
1538.000000	99.049836
1537.000000	99.060829
1536.000000	99.063933
1535.000000	99.066385
1534.000000	99.077854
1533.000000	99.096595
1532.000000	99.108687
1531.000000	99.108636
1530.000000	99.100316
1529.000000	99.086849
1528.000000	99.069357
1527.000000	99.048282
1526.000000	99.023231
1525.000000	98.995491
1524.000000	98.966989
1523.000000	98.937133
1522.000000	98.905738
1521.000000	98.878396
1520.000000	98.858119
1519.000000	98.842443
1518.000000	98.823652
1517.000000	98.796067
1516.000000	98.761681
1515.000000	98.723904
1514.000000	98.683096
1513.000000	98.641473
1512.000000	98.607321
1511.000000	98.585581
1510.000000	98.568308
1509.000000	98.541842
1508.000000	98.502386
1507.000000	98.463457
1506.000000	98.426728
1505.000000	98.384521
1504.000000	98.356089
1503.000000	98.335952
1502.000000	98.311863
1501.000000	98.280492
1500.000000	98.246597
1499.000000	98.213528
1498.000000	98.175332
1497.000000	98.128961
1496.000000	98.086180
1495.000000	98.056666
1494.000000	98.034115
1493.000000	98.007471
1492.000000	97.973213
1491.000000	97.935060
1490.000000	97.896597
1489.000000	97.861416
1488.000000	97.830956
1487.000000	97.802153
1486.000000	97.773233
1485.000000	97.742398
1484.000000	97.708603
1483.000000	97.672414
1482.000000	97.632978
1481.000000	97.591627
1480.000000	97.553504
1479.000000	97.521328
1478.000000	97.490367
1477.000000	97.451880
1476.000000	97.401119
1475.000000	97.340344
1474.000000	97.275311
1473.000000	97.214588
1472.000000	97.168483
1471.000000	97.133788
1470.000000	97.101877
1469.000000	97.069345
1468.000000	97.037295
1467.000000	97.007373
1466.000000	96.978499
1465.000000	96.949093
1464.000000	96.922216
1463.000000	96.901394
1462.000000	96.884159
1461.000000	96.864165
1460.000000	96.835262
1459.000000	96.793063
1458.000000	96.738352
1457.000000	96.690907
1456.000000	96.671018
1455.000000	96.667790
1454.000000	96.659912
1453.000000	96.638631
1452.000000	96.610546
1451.000000	96.584548
1450.000000	96.561363
1449.000000	96.538458
1448.000000	96.517099
1447.000000	96.497573
1446.000000	96.474777
1445.000000	96.446868
1444.000000	96.418755
1443.000000	96.395475
1442.000000	96.376894
1441.000000	96.358220
1440.000000	96.334646
1439.000000	96.303798
1438.000000	96.267058
1437.000000	96.232530
1436.000000	96.209967
1435.000000	96.196845
1434.000000	96.180517
1433.000000	96.155163
1432.000000	96.126075
1431.000000	96.100838
1430.000000	96.078285
1429.000000	96.053269
1428.000000	96.027660
1427.000000	96.005520
1426.000000	95.984387
1425.000000	95.958423
1424.000000	95.927053
1423.000000	95.892329
1422.000000	95.850601
1421.000000	95.798790
1420.000000	95.744629
1419.000000	95.703100
1418.000000	95.675462
1417.000000	95.651040
1416.000000	95.625346
1415.000000	95.596589
1414.000000	95.561069
1413.000000	95.518240
1412.000000	95.474907
1411.000000	95.437487
1410.000000	95.401963
1409.000000	95.362185
1408.000000	95.322304
1407.000000	95.289991
1406.000000	95.263389
1405.000000	95.234160
1404.000000	95.202628
1403.000000	95.175010
1402.000000	95.149646
1401.000000	95.121131
1400.000000	95.091405
1399.000000	95.067442
1398.000000	95.046843
1397.000000	95.021084
1396.000000	94.991326
1395.000000	94.967005
1394.000000	94.949634
1393.000000	94.934608
1392.000000	94.925830
1391.000000	94.927495
1390.000000	94.935850
1389.000000	94.947401
1388.000000	94.969230
1387.000000	95.010362
1386.000000	95.063337
1385.000000	95.114403
1384.000000	95.164681
1383.000000	95.222819
1382.000000	95.289764
1381.000000	95.360595
1380.000000	95.435127
1379.000000	95.515918
1378.000000	95.599047
1377.000000	95.678590
1376.000000	95.758328
1375.000000	95.848454
1374.000000	95.949186
1373.000000	96.047766
1372.000000	96.136505
1371.000000	96.219108
1370.000000	96.301101
1369.000000	96.384957
1368.000000	96.471504
1367.000000	96.558049
1366.000000	96.639905
1365.000000	96.718049
1364.000000	96.799736
1363.000000	96.888582
1362.000000	96.977766
1361.000000	97.058928
1360.000000	97.133229
1359.000000	97.205014
1358.000000	97.274740
1357.000000	97.342309
1356.000000	97.409325
1355.000000	97.474105
1354.000000	97.531309
1353.000000	97.580556
1352.000000	97.628386
1351.000000	97.678712
1350.000000	97.728663
1349.000000	97.773561
1348.000000	97.812968
1347.000000	97.848242
1346.000000	97.879516
1345.000000	97.907875
1344.000000	97.936344
1343.000000	97.965752
1342.000000	97.994156
1341.000000	98.021826
1340.000000	98.052487
1339.000000	98.086445
1338.000000	98.117093
1337.000000	98.141128
1336.000000	98.163813
1335.000000	98.189597
1334.000000	98.216456
1333.000000	98.241665
1332.000000	98.267088
1331.000000	98.295371
1330.000000	98.325018
1329.000000	98.352487
1328.000000	98.376713
1327.000000	98.398744
1326.000000	98.419519
1325.000000	98.439700
1324.000000	98.460865
1323.000000	98.483308
1322.000000	98.504685
1321.000000	98.523127
1320.000000	98.539873
1319.000000	98.556909
1318.000000	98.573800
1317.000000	98.589418
1316.000000	98.604389
1315.000000	98.619643
1314.000000	98.634989
1313.000000	98.651058
1312.000000	98.669949
1311.000000	98.692158
1310.000000	98.715241
1309.000000	98.736868
1308.000000	98.756915
1307.000000	98.775705
1306.000000	98.793118
1305.000000	98.809689
1304.000000	98.827166
1303.000000	98.845754
1302.000000	98.863117
1301.000000	98.877276
1300.000000	98.888835
1299.000000	98.899424
1298.000000	98.909904
1297.000000	98.920826
1296.000000	98.932547
1295.000000	98.944370
1294.000000	98.955127
1293.000000	98.964688
1292.000000	98.972981
1291.000000	98.978187
1290.000000	98.978905
1289.000000	98.977954
1288.000000	98.980342
1287.000000	98.986914
1286.000000	98.993331
1285.000000	98.996566
1284.000000	98.998936
1283.000000	99.004127
1282.000000	99.012271
1281.000000	99.020533
1280.000000	99.026631
1279.000000	99.030612
1278.000000	99.034389
1277.000000	99.040382
1276.000000	99.049061
1275.000000	99.057815
1274.000000	99.063659
1273.000000	99.066802
1272.000000	99.069675
1271.000000	99.073042
1270.000000	99.075649
1269.000000	99.077314
1268.000000	99.079065
1267.000000	99.080226
1266.000000	99.078890
1265.000000	99.076360
1264.000000	99.077331
1263.000000	99.083959
1262.000000	99.092738
1261.000000	99.099082
1260.000000	99.102159
1259.000000	99.103827
1258.000000	99.105428
1257.000000	99.107849
1256.000000	99.111981
1255.000000	99.116726
1254.000000	99.118549
1253.000000	99.115266
1252.000000	99.108951
1251.000000	99.103647
1250.000000	99.101227
1249.000000	99.100450
1248.000000	99.098898
1247.000000	99.094873
1246.000000	99.088652
1245.000000	99.083021
1244.000000	99.081185
1243.000000	99.083132
1242.000000	99.085644
1241.000000	99.086511
1240.000000	99.086503
1239.000000	99.086448
1238.000000	99.085011
1237.000000	99.081222
1236.000000	99.077011
1235.000000	99.075231
1234.000000	99.076706
1233.000000	99.080845
1232.000000	99.087616
1231.000000	99.096744
1230.000000	99.106350
1229.000000	99.114763
1228.000000	99.122751
1227.000000	99.132251
1226.000000	99.143791
1225.000000	99.156755
1224.000000	99.171120
1223.000000	99.186937
1222.000000	99.202706
1221.000000	99.216086
1220.000000	99.226217
1219.000000	99.234339
1218.000000	99.242281
1217.000000	99.251188
1216.000000	99.261364
1215.000000	99.272401
1214.000000	99.283364
1213.000000	99.293329
1212.000000	99.301679
1211.000000	99.307840
1210.000000	99.311377
1209.000000	99.312186
1208.000000	99.310165
1207.000000	99.305066
1206.000000	99.297760
1205.000000	99.291147
1204.000000	99.288214
1203.000000	99.289273
1202.000000	99.292418
1201.000000	99.296558
1200.000000	99.302183
1199.000000	99.308905
1198.000000	99.314323
1197.000000	99.316577
1196.000000	99.316671
1195.000000	99.317072
1194.000000	99.319094
1193.000000	99.322570
1192.000000	99.327313
1191.000000	99.333707
1190.000000	99.341948
1189.000000	99.351141
1188.000000	99.359053
1187.000000	99.362939
1186.000000	99.361366
1185.000000	99.355383
1184.000000	99.347275
1183.000000	99.338775
1182.000000	99.331406
1181.000000	99.327567
1180.000000	99.329061
1179.000000	99.334199
1178.000000	99.338437
1177.000000	99.338885
1176.000000	99.336737
1175.000000	99.334460
1174.000000	99.332052
1173.000000	99.327483
1172.000000	99.320451
1171.000000	99.313973
1170.000000	99.311407
1169.000000	99.312556
1168.000000	99.313883
1167.000000	99.312778
1166.000000	99.310804
1165.000000	99.311832
1164.000000	99.317606
1163.000000	99.326222
1162.000000	99.334567
1161.000000	99.340702
1160.000000	99.343945
1159.000000	99.344882
1158.000000	99.346154
1157.000000	99.351175
1156.000000	99.360741
1155.000000	99.372009
1154.000000	99.381667
1153.000000	99.388767
1152.000000	99.393930
1151.000000	99.398230
1150.000000	99.404159
1149.000000	99.415032
1148.000000	99.430981
1147.000000	99.447368
1146.000000	99.459344
1145.000000	99.466458
1144.000000	99.470806
1143.000000	99.473207
1142.000000	99.474107
1141.000000	99.476047
1140.000000	99.481367
1139.000000	99.488480
1138.000000	99.493906
1137.000000	99.497552
1136.000000	99.502920
1135.000000	99.512425
1134.000000	99.525312
1133.000000	99.539655
1132.000000	99.553230
1131.000000	99.562653
1130.000000	99.565144
1129.000000	99.561808
1128.000000	99.556774
1127.000000	99.553104
1126.000000	99.551525
1125.000000	99.552266
1124.000000	99.555230
1123.000000	99.558532
1122.000000	99.559967
1121.000000	99.560040
1120.000000	99.560590
1119.000000	99.560375
1118.000000	99.555116
1117.000000	99.542864
1116.000000	99.526860
1115.000000	99.512556
1114.000000	99.503836
1113.000000	99.502059
1112.000000	99.505819
1111.000000	99.510755
1110.000000	99.512217
1109.000000	99.509274
1108.000000	99.504791
1107.000000	99.501068
1106.000000	99.497991
1105.000000	99.495724
1104.000000	99.495937
1103.000000	99.498758
1102.000000	99.500922
1101.000000	99.498777
1100.000000	99.492640
1099.000000	99.485241
1098.000000	99.478987
1097.000000	99.473772
1096.000000	99.467341
1095.000000	99.457443
1094.000000	99.444956
1093.000000	99.434637
1092.000000	99.430936
1091.000000	99.432857
1090.000000	99.434489
1089.000000	99.430794
1088.000000	99.421147
1087.000000	99.407586
1086.000000	99.392424
1085.000000	99.378340
1084.000000	99.368240
1083.000000	99.363023
1082.000000	99.360205
1081.000000	99.356078
1080.000000	99.349411
1079.000000	99.343168
1078.000000	99.342742
1077.000000	99.351338
1076.000000	99.365616
1075.000000	99.377071
1074.000000	99.379983
1073.000000	99.377206
1072.000000	99.375947
1071.000000	99.379091
1070.000000	99.383808
1069.000000	99.387804
1068.000000	99.392523
1067.000000	99.399531
1066.000000	99.407727
1065.000000	99.415935
1064.000000	99.424882
1063.000000	99.434151
1062.000000	99.439384
1061.000000	99.435598
1060.000000	99.423123
1059.000000	99.408805
1058.000000	99.400885
1057.000000	99.402246
1056.000000	99.408068
1055.000000	99.410471
1054.000000	99.406542
1053.000000	99.401140
1052.000000	99.401001
1051.000000	99.407262
1050.000000	99.415880
1049.000000	99.423418
1048.000000	99.428847
1047.000000	99.431106
1046.000000	99.429397
1045.000000	99.425610
1044.000000	99.422208
1043.000000	99.417825
1042.000000	99.408760
1041.000000	99.395726
1040.000000	99.385187
1039.000000	99.382703
1038.000000	99.387968
1037.000000	99.397226
1036.000000	99.406738
1035.000000	99.412155
1034.000000	99.409091
1033.000000	99.398007
1032.000000	99.386354
1031.000000	99.382386
1030.000000	99.387623
1029.000000	99.396982
1028.000000	99.404671
1027.000000	99.407834
1026.000000	99.406328
1025.000000	99.401971
1024.000000	99.398154
1023.000000	99.398395
1022.000000	99.404833
1021.000000	99.417803
1020.000000	99.435481
1019.000000	99.453443
1018.000000	99.466568
1017.000000	99.472900
1016.000000	99.474816
1015.000000	99.476062
1014.000000	99.479180
1013.000000	99.485834
1012.000000	99.497135
1011.000000	99.512088
1010.000000	99.527362
1009.000000	99.539959
1008.000000	99.549194
1007.000000	99.555352
1006.000000	99.558215
1005.000000	99.558125
1004.000000	99.557470
1003.000000	99.560080
1002.000000	99.569318
1001.000000	99.586434
1000.000000	99.609136
999.000000	99.631840
998.000000	99.649523
997.000000	99.661952
996.000000	99.672504
995.000000	99.682802
994.000000	99.690953
993.000000	99.695900
992.000000	99.700644
991.000000	99.709109
990.000000	99.721428
989.000000	99.734179
988.000000	99.744618
987.000000	99.753061
986.000000	99.761665
985.000000	99.771860
984.000000	99.782758
983.000000	99.791743
982.000000	99.797064
981.000000	99.799822
980.000000	99.802782
979.000000	99.807194
978.000000	99.811462
977.000000	99.812642
976.000000	99.808664
975.000000	99.800314
974.000000	99.792215
973.000000	99.790430
972.000000	99.796957
971.000000	99.807373
970.000000	99.816027
969.000000	99.822410
968.000000	99.829620
967.000000	99.838112
966.000000	99.845360
965.000000	99.851575
964.000000	99.860454
963.000000	99.872496
962.000000	99.882099
961.000000	99.884452
960.000000	99.882538
959.000000	99.884039
958.000000	99.893280
957.000000	99.908340
956.000000	99.924471
955.000000	99.938024
954.000000	99.948301
953.000000	99.957666
952.000000	99.968763
951.000000	99.980312
950.000000	99.987284
949.000000	99.986715
948.000000	99.981566
947.000000	99.977478
946.000000	99.977357
945.000000	99.980763
944.000000	99.986278
943.000000	99.991828
942.000000	99.994488
941.000000	99.993177
940.000000	99.990978
939.000000	99.992307
938.000000	99.997964
937.000000	100.004770
936.000000	100.009855
935.000000	100.013172
934.000000	100.016071
933.000000	100.019358
932.000000	100.022981
931.000000	100.026261
930.000000	100.028248
929.000000	100.028974
928.000000	100.030535
927.000000	100.035968
926.000000	100.046735
925.000000	100.061420
924.000000	100.076238
923.000000	100.086593
922.000000	100.089584
921.000000	100.086220
920.000000	100.080944
919.000000	100.078392
918.000000	100.080912
917.000000	100.088887
916.000000	100.101307
915.000000	100.114613
914.000000	100.123091
913.000000	100.123185
912.000000	100.117120
911.000000	100.110522
910.000000	100.106749
909.000000	100.104947
908.000000	100.103480
907.000000	100.102837
906.000000	100.104248
905.000000	100.106858
904.000000	100.108025
903.000000	100.106852
902.000000	100.106672
901.000000	100.112861
900.000000	100.127542
899.000000	100.146576
898.000000	100.163180
897.000000	100.173709
896.000000	100.178864
895.000000	100.180113
894.000000	100.177929
893.000000	100.174543
892.000000	100.175234
891.000000	100.183928
890.000000	100.197843
889.000000	100.208335
888.000000	100.207056
887.000000	100.189539
886.000000	100.153323
885.000000	100.092992
884.000000	99.997186
883.000000	99.852230
882.000000	99.647903
881.000000	99.380326
880.000000	99.048229
879.000000	98.650442
878.000000	98.192421
877.000000	97.689750
876.000000	97.159448
875.000000	96.609924
874.000000	96.064505
873.000000	95.609113
872.000000	95.403015
871.000000	95.591525
870.000000	96.175981
869.000000	96.982806
868.000000	97.774118
867.000000	98.393078
866.000000	98.815990
865.000000	99.097205
864.000000	99.293782
863.000000	99.438086
862.000000	99.547122
861.000000	99.631827
860.000000	99.697977
859.000000	99.748271
858.000000	99.787447
857.000000	99.820551
856.000000	99.848773
855.000000	99.871522
854.000000	99.890486
853.000000	99.906811
852.000000	99.914762
851.000000	99.905043
850.000000	99.877658
849.000000	99.848362
848.000000	99.838851
847.000000	99.859607
846.000000	99.902349
845.000000	99.948382
844.000000	99.983409
843.000000	100.005602
842.000000	100.021887
841.000000	100.038169
840.000000	100.053435
839.000000	100.061870
838.000000	100.059723
837.000000	100.050349
836.000000	100.043266
835.000000	100.047676
834.000000	100.064681
833.000000	100.085517
832.000000	100.099398
831.000000	100.103664
830.000000	100.104939
829.000000	100.110371
828.000000	100.120041
827.000000	100.129437
826.000000	100.136288
825.000000	100.141669
824.000000	100.145867
823.000000	100.146902
822.000000	100.143441
821.000000	100.136927
820.000000	100.130597
819.000000	100.127825
818.000000	100.130581
817.000000	100.137462
816.000000	100.143648
815.000000	100.145066
814.000000	100.143040
813.000000	100.142922
812.000000	100.147501
811.000000	100.153323
810.000000	100.154386
809.000000	100.148988
808.000000	100.142499
807.000000	100.143176
806.000000	100.154730
805.000000	100.172267
804.000000	100.186159
803.000000	100.190488
802.000000	100.186814
801.000000	100.179687
800.000000	100.170911
799.000000	100.159969
798.000000	100.147736
797.000000	100.136521
796.000000	100.127056
795.000000	100.118671
794.000000	100.112358
793.000000	100.110918
792.000000	100.115636
791.000000	100.124880
790.000000	100.136302
789.000000	100.148600
788.000000	100.160447
787.000000	100.169357
786.000000	100.173019
785.000000	100.170954
784.000000	100.164384
783.000000	100.155266
782.000000	100.145940
781.000000	100.139159
780.000000	100.137445
779.000000	100.141476
778.000000	100.148507
777.000000	100.153478
776.000000	100.153924
775.000000	100.153732
774.000000	100.159221
773.000000	100.170402
772.000000	100.178966
771.000000	100.176740
770.000000	100.163767
769.000000	100.146146
768.000000	100.129196
767.000000	100.116265
766.000000	100.111227
765.000000	100.116697
764.000000	100.129998
763.000000	100.144901
762.000000	100.157343
761.000000	100.166371
760.000000	100.170706
759.000000	100.169069
758.000000	100.164138
757.000000	100.161506
756.000000	100.163382
755.000000	100.167026
754.000000	100.170307
753.000000	100.174653
752.000000	100.180839
751.000000	100.185546
750.000000	100.184820
749.000000	100.179217
748.000000	100.173386
747.000000	100.171108
746.000000	100.171957
745.000000	100.172287
744.000000	100.169222
743.000000	100.164243
742.000000	100.161708
741.000000	100.162821
740.000000	100.163513
739.000000	100.160559
738.000000	100.156208
737.000000	100.152329
736.000000	100.143468
735.000000	100.123024
734.000000	100.095661
733.000000	100.075344
732.000000	100.069259
731.000000	100.069735
730.000000	100.064443
729.000000	100.048413
728.000000	100.027437
727.000000	100.013326
726.000000	100.012502
725.000000	100.018913
724.000000	100.019211
723.000000	100.005540
722.000000	99.980183
721.000000	99.947248
720.000000	99.905031
719.000000	99.849343
718.000000	99.778155
717.000000	99.685706
716.000000	99.558816
715.000000	99.395258
714.000000	99.228952
713.000000	99.121455
712.000000	99.117066
711.000000	99.207042
710.000000	99.341603
709.000000	99.470530
708.000000	99.570368
707.000000	99.643833
706.000000	99.698855
705.000000	99.735594
704.000000	99.753426
703.000000	99.760118
702.000000	99.770220
701.000000	99.792482
700.000000	99.819437
699.000000	99.838750
698.000000	99.847594
697.000000	99.852168
696.000000	99.857924
695.000000	99.863252
694.000000	99.869121
693.000000	99.883023
692.000000	99.906875
691.000000	99.935446
690.000000	99.963398
689.000000	99.988770
688.000000	100.008125
687.000000	100.013940
686.000000	100.006964
685.000000	99.997139
684.000000	99.987501
683.000000	99.974026
682.000000	99.961494
681.000000	99.962404
680.000000	99.974508
679.000000	99.979240
678.000000	99.968113
677.000000	99.945723
676.000000	99.921778
675.000000	99.906400
674.000000	99.913107
673.000000	99.949924
672.000000	100.011404
671.000000	100.093157
670.000000	100.205737
669.000000	100.344419
668.000000	100.405157
667.000000	100.298868
666.000000	100.157805
665.000000	100.038496
664.000000	99.943860
663.000000	99.886382
662.000000	99.867059
661.000000	99.870476
660.000000	99.881595
659.000000	99.897528
658.000000	99.917216
657.000000	99.927363
656.000000	99.924897
655.000000	99.923973
654.000000	99.928867
653.000000	99.925195
652.000000	99.911348
651.000000	99.906420
650.000000	99.919642
649.000000	99.933427
648.000000	99.932983
647.000000	99.926857
646.000000	99.925247
645.000000	99.927532
644.000000	99.933967
643.000000	99.945820
642.000000	99.954317
641.000000	99.945058
640.000000	99.921543
639.000000	99.907219
638.000000	99.913039
637.000000	99.923483
636.000000	99.924431
635.000000	99.920235
634.000000	99.917382
633.000000	99.912541
632.000000	99.904846
631.000000	99.903686
630.000000	99.912774
629.000000	99.920239
628.000000	99.917175
627.000000	99.912374
626.000000	99.915437
625.000000	99.922787
624.000000	99.925886
623.000000	99.922017
622.000000	99.911589
621.000000	99.894782
620.000000	99.877170
619.000000	99.868817
618.000000	99.872086
617.000000	99.877701
616.000000	99.876454
615.000000	99.867582
614.000000	99.854104
613.000000	99.840577
612.000000	99.836933
611.000000	99.851133
610.000000	99.875120
609.000000	99.890919
608.000000	99.894610
607.000000	99.900917
606.000000	99.915253
605.000000	99.923006
604.000000	99.912615
603.000000	99.894992
602.000000	99.891322
601.000000	99.909458
600.000000	99.940101
599.000000	99.968828
598.000000	99.983410
597.000000	99.976959
596.000000	99.953369
595.000000	99.926654
594.000000	99.908191
593.000000	99.896972
592.000000	99.888454
591.000000	99.886625
590.000000	99.898658
589.000000	99.921968
588.000000	99.945544
587.000000	99.959831
586.000000	99.959374
585.000000	99.942113
584.000000	99.912411
583.000000	99.883306
582.000000	99.869385
581.000000	99.876504
580.000000	99.898035
579.000000	99.919947
578.000000	99.930073
577.000000	99.928766
576.000000	99.930381
575.000000	99.945506
574.000000	99.962007
573.000000	99.957708
572.000000	99.932079
571.000000	99.910113
570.000000	99.912480
569.000000	99.929875
568.000000	99.937846
567.000000	99.926485
566.000000	99.904040
565.000000	99.880645
564.000000	99.860553
563.000000	99.846010
562.000000	99.837671
561.000000	99.835665
560.000000	99.843961
559.000000	99.865342
558.000000	99.888286
557.000000	99.891910
556.000000	99.870814
555.000000	99.846432
554.000000	99.844987
553.000000	99.869410
552.000000	99.900729
551.000000	99.918743
550.000000	99.916886
549.000000	99.904755
548.000000	99.901758
547.000000	99.920512
546.000000	99.948686
545.000000	99.956122
544.000000	99.929036
543.000000	99.886422
542.000000	99.857653
541.000000	99.853513
540.000000	99.864560
539.000000	99.876907
538.000000	99.878029
537.000000	99.857440
536.000000	99.815985
535.000000	99.774455
534.000000	99.760855
533.000000	99.786613
532.000000	99.836569
531.000000	99.878990
530.000000	99.886715
529.000000	99.858717
528.000000	99.821837
527.000000	99.809655
526.000000	99.830728
525.000000	99.857549
524.000000	99.858957
523.000000	99.830006
522.000000	99.785441
521.000000	99.745093
520.000000	99.728535
519.000000	99.746529
518.000000	99.789138
517.000000	99.833264
516.000000	99.869250
515.000000	99.904274
514.000000	99.938825
513.000000	99.960650
512.000000	99.964799
511.000000	99.962191
510.000000	99.959224
509.000000	99.946049
508.000000	99.917535
507.000000	99.895496
506.000000	99.906660
505.000000	99.943302
504.000000	99.970174
503.000000	99.962294
502.000000	99.926173
501.000000	99.889118
500.000000	99.872706
499.000000	99.882325
498.000000	99.909907
497.000000	99.939287
496.000000	99.956701
495.000000	99.959721
494.000000	99.955823
493.000000	99.952202
492.000000	99.950544
491.000000	99.951992
490.000000	99.957404
489.000000	99.968950
488.000000	99.989064
487.000000	100.010476
486.000000	100.009661
485.000000	99.965767
484.000000	99.895470
483.000000	99.850220
482.000000	99.859516
481.000000	99.895522
480.000000	99.912973
479.000000	99.903405
478.000000	99.892185
477.000000	99.899962
476.000000	99.925269
475.000000	99.956314
474.000000	99.976354
473.000000	99.965011
472.000000	99.922608
471.000000	99.889990
470.000000	99.903690
469.000000	99.950815
468.000000	99.985973
467.000000	99.977372
466.000000	99.935070
465.000000	99.893101
464.000000	99.871708
463.000000	99.863164
462.000000	99.842092
461.000000	99.794386
460.000000	99.742983
459.000000	99.736271
458.000000	99.800146
457.000000	99.897897
456.000000	99.977888
455.000000	100.042993
454.000000	100.119542
453.000000	100.201157
452.000000	100.245689
451.000000	100.223822
450.000000	100.156244
