PE IR       SUBTECH     SPECTRUM    ASCII       PEDS        4.00        
   -1
AD10-C003_1.ASC
23/09/08
11:00:53.00
23/09/08
11:14:38.00
uco
Sample 003 By uco Date Friday, September 08 2023
450.000000
#HDR
-1
-1
#GR
cm-1
%T
1.0
0.0
4000.000000
-1.000000
3551
8
100.344504
93.098656
#DATA
4000.000000	100.106502
3999.000000	100.105147
3998.000000	100.105238
3997.000000	100.105466
3996.000000	100.104707
3995.000000	100.102961
3994.000000	100.101493
3993.000000	100.101202
3992.000000	100.101814
3991.000000	100.102574
3990.000000	100.103356
3989.000000	100.104625
3988.000000	100.106419
3987.000000	100.107749
3986.000000	100.107115
3985.000000	100.103661
3984.000000	100.097970
3983.000000	100.091876
3982.000000	100.087558
3981.000000	100.086430
3980.000000	100.088610
3979.000000	100.093199
3978.000000	100.098987
3977.000000	100.104804
3976.000000	100.109445
3975.000000	100.111799
3974.000000	100.111391
3973.000000	100.108824
3972.000000	100.105297
3971.000000	100.101657
3970.000000	100.097857
3969.000000	100.093466
3968.000000	100.088744
3967.000000	100.084888
3966.000000	100.083148
3965.000000	100.083500
3964.000000	100.084176
3963.000000	100.082782
3962.000000	100.078357
3961.000000	100.072539
3960.000000	100.068299
3959.000000	100.067662
3958.000000	100.070213
3957.000000	100.073383
3956.000000	100.074376
3955.000000	100.071919
3954.000000	100.067043
3953.000000	100.062084
3952.000000	100.058807
3951.000000	100.057538
3950.000000	100.057550
3949.000000	100.058411
3948.000000	100.060602
3947.000000	100.064910
3946.000000	100.071807
3945.000000	100.080289
3944.000000	100.087103
3943.000000	100.088438
3942.000000	100.082897
3941.000000	100.072996
3940.000000	100.063322
3939.000000	100.057838
3938.000000	100.058259
3937.000000	100.063854
3936.000000	100.072110
3935.000000	100.079107
3934.000000	100.080926
3933.000000	100.076310
3932.000000	100.068142
3931.000000	100.061486
3930.000000	100.059214
3929.000000	100.061176
3928.000000	100.066268
3927.000000	100.072605
3926.000000	100.077337
3925.000000	100.078385
3924.000000	100.076705
3923.000000	100.074676
3922.000000	100.072683
3921.000000	100.068995
3920.000000	100.063099
3919.000000	100.057958
3918.000000	100.057922
3917.000000	100.063687
3916.000000	100.070578
3915.000000	100.073228
3914.000000	100.069951
3913.000000	100.063277
3912.000000	100.057303
3911.000000	100.055282
3910.000000	100.057805
3909.000000	100.062822
3908.000000	100.067583
3907.000000	100.069363
3906.000000	100.065495
3905.000000	100.054534
3904.000000	100.039753
3903.000000	100.029134
3902.000000	100.028718
3901.000000	100.037499
3900.000000	100.049450
3899.000000	100.058378
3898.000000	100.061814
3897.000000	100.061137
3896.000000	100.058529
3895.000000	100.055728
3894.000000	100.053313
3893.000000	100.050613
3892.000000	100.046846
3891.000000	100.043221
3890.000000	100.042080
3889.000000	100.045387
3888.000000	100.053106
3887.000000	100.060678
3886.000000	100.062629
3885.000000	100.060138
3884.000000	100.059361
3883.000000	100.063054
3882.000000	100.067792
3881.000000	100.068082
3880.000000	100.063089
3879.000000	100.056796
3878.000000	100.053388
3877.000000	100.054771
3876.000000	100.059056
3875.000000	100.060956
3874.000000	100.057561
3873.000000	100.052552
3872.000000	100.051155
3871.000000	100.053155
3870.000000	100.054219
3869.000000	100.053125
3868.000000	100.052673
3867.000000	100.054846
3866.000000	100.057252
3865.000000	100.055713
3864.000000	100.050398
3863.000000	100.045466
3862.000000	100.042695
3861.000000	100.040913
3860.000000	100.039096
3859.000000	100.036317
3858.000000	100.032705
3857.000000	100.030566
3856.000000	100.033145
3855.000000	100.038330
3854.000000	100.035148
3853.000000	100.027435
3852.000000	100.027858
3851.000000	100.034016
3850.000000	100.039252
3849.000000	100.041835
3848.000000	100.042788
3847.000000	100.045034
3846.000000	100.050732
3845.000000	100.059658
3844.000000	100.068568
3843.000000	100.073045
3842.000000	100.070903
3841.000000	100.064286
3840.000000	100.057021
3839.000000	100.051852
3838.000000	100.049976
3837.000000	100.050134
3836.000000	100.050683
3835.000000	100.052237
3834.000000	100.056603
3833.000000	100.063653
3832.000000	100.070397
3831.000000	100.073178
3830.000000	100.071397
3829.000000	100.067579
3828.000000	100.063861
3827.000000	100.059722
3826.000000	100.053768
3825.000000	100.047673
3824.000000	100.045558
3823.000000	100.049119
3822.000000	100.052720
3821.000000	100.050973
3820.000000	100.046501
3819.000000	100.042935
3818.000000	100.042133
3817.000000	100.042819
3816.000000	100.043856
3815.000000	100.047090
3814.000000	100.052945
3813.000000	100.058269
3812.000000	100.059588
3811.000000	100.057527
3810.000000	100.056689
3809.000000	100.060528
3808.000000	100.065315
3807.000000	100.064332
3806.000000	100.057529
3805.000000	100.052019
3804.000000	100.053077
3803.000000	100.058276
3802.000000	100.059604
3801.000000	100.055993
3800.000000	100.053338
3799.000000	100.054638
3798.000000	100.056973
3797.000000	100.055351
3796.000000	100.048943
3795.000000	100.042882
3794.000000	100.042197
3793.000000	100.046787
3792.000000	100.052936
3791.000000	100.057473
3790.000000	100.059686
3789.000000	100.060610
3788.000000	100.061489
3787.000000	100.062545
3786.000000	100.063167
3785.000000	100.063428
3784.000000	100.064689
3783.000000	100.067958
3782.000000	100.071614
3781.000000	100.071153
3780.000000	100.063017
3779.000000	100.050519
3778.000000	100.041525
3777.000000	100.040365
3776.000000	100.045212
3775.000000	100.051541
3774.000000	100.055985
3773.000000	100.057786
3772.000000	100.056986
3771.000000	100.053087
3770.000000	100.047264
3769.000000	100.043078
3768.000000	100.043206
3767.000000	100.046890
3766.000000	100.051266
3765.000000	100.053910
3764.000000	100.054808
3763.000000	100.056160
3762.000000	100.059341
3761.000000	100.062934
3760.000000	100.064351
3759.000000	100.062739
3758.000000	100.057848
3757.000000	100.049721
3756.000000	100.041330
3755.000000	100.037265
3754.000000	100.037841
3753.000000	100.036477
3752.000000	100.026415
3751.000000	100.012252
3750.000000	100.005749
3749.000000	100.007634
3748.000000	100.012895
3747.000000	100.022284
3746.000000	100.037183
3745.000000	100.051954
3744.000000	100.061405
3743.000000	100.066162
3742.000000	100.067852
3741.000000	100.066965
3740.000000	100.064917
3739.000000	100.064424
3738.000000	100.066856
3737.000000	100.068176
3736.000000	100.066447
3735.000000	100.068604
3734.000000	100.078253
3733.000000	100.087574
3732.000000	100.087768
3731.000000	100.077886
3730.000000	100.063151
3729.000000	100.049642
3728.000000	100.041506
3727.000000	100.040371
3726.000000	100.045720
3725.000000	100.054437
3724.000000	100.061781
3723.000000	100.064995
3722.000000	100.064565
3721.000000	100.063063
3720.000000	100.061868
3719.000000	100.059750
3718.000000	100.054926
3717.000000	100.048392
3716.000000	100.045443
3715.000000	100.050950
3714.000000	100.061993
3713.000000	100.067543
3712.000000	100.060030
3711.000000	100.048846
3710.000000	100.049246
3709.000000	100.062406
3708.000000	100.078191
3707.000000	100.087190
3706.000000	100.087160
3705.000000	100.082954
3704.000000	100.081416
3703.000000	100.085366
3702.000000	100.092087
3701.000000	100.096656
3700.000000	100.097010
3699.000000	100.094844
3698.000000	100.092091
3697.000000	100.087994
3696.000000	100.080725
3695.000000	100.070392
3694.000000	100.059342
3693.000000	100.051589
3692.000000	100.050889
3691.000000	100.058623
3690.000000	100.071206
3689.000000	100.081826
3688.000000	100.085134
3687.000000	100.081226
3686.000000	100.075668
3685.000000	100.072578
3684.000000	100.071808
3683.000000	100.071819
3682.000000	100.072080
3681.000000	100.070882
3680.000000	100.065255
3679.000000	100.055216
3678.000000	100.044964
3677.000000	100.038884
3676.000000	100.038712
3675.000000	100.046983
3674.000000	100.059196
3673.000000	100.069616
3672.000000	100.076812
3671.000000	100.078757
3670.000000	100.074839
3669.000000	100.070790
3668.000000	100.069873
3667.000000	100.070476
3666.000000	100.070847
3665.000000	100.070509
3664.000000	100.069929
3663.000000	100.070115
3662.000000	100.071358
3661.000000	100.072928
3660.000000	100.074887
3659.000000	100.078121
3658.000000	100.082187
3657.000000	100.084015
3656.000000	100.081637
3655.000000	100.077218
3654.000000	100.074469
3653.000000	100.075680
3652.000000	100.078963
3651.000000	100.078688
3650.000000	100.073525
3649.000000	100.072700
3648.000000	100.080137
3647.000000	100.086672
3646.000000	100.086255
3645.000000	100.081515
3644.000000	100.076327
3643.000000	100.072045
3642.000000	100.068535
3641.000000	100.065373
3640.000000	100.062155
3639.000000	100.058420
3638.000000	100.054963
3637.000000	100.054229
3636.000000	100.057438
3635.000000	100.061932
3634.000000	100.063318
3633.000000	100.061138
3632.000000	100.059725
3631.000000	100.062762
3630.000000	100.067587
3629.000000	100.071053
3628.000000	100.076288
3627.000000	100.082687
3626.000000	100.088044
3625.000000	100.092613
3624.000000	100.097624
3623.000000	100.103978
3622.000000	100.111417
3621.000000	100.117288
3620.000000	100.117999
3619.000000	100.113059
3618.000000	100.105248
3617.000000	100.096759
3616.000000	100.089475
3615.000000	100.084661
3614.000000	100.081162
3613.000000	100.076223
3612.000000	100.068571
3611.000000	100.060358
3610.000000	100.055251
3609.000000	100.056076
3608.000000	100.063020
3607.000000	100.072667
3606.000000	100.080791
3605.000000	100.085924
3604.000000	100.089682
3603.000000	100.093253
3602.000000	100.096200
3601.000000	100.097789
3600.000000	100.098264
3599.000000	100.097909
3598.000000	100.095862
3597.000000	100.090714
3596.000000	100.082573
3595.000000	100.074654
3594.000000	100.071467
3593.000000	100.075087
3592.000000	100.082875
3591.000000	100.090535
3590.000000	100.094275
3589.000000	100.091732
3588.000000	100.084451
3587.000000	100.079278
3586.000000	100.079916
3585.000000	100.083831
3584.000000	100.088136
3583.000000	100.091079
3582.000000	100.091409
3581.000000	100.089016
3580.000000	100.085194
3579.000000	100.081705
3578.000000	100.079104
3577.000000	100.076737
3576.000000	100.073407
3575.000000	100.068818
3574.000000	100.063945
3573.000000	100.060694
3572.000000	100.061057
3571.000000	100.066366
3570.000000	100.076392
3569.000000	100.087957
3568.000000	100.096514
3567.000000	100.100601
3566.000000	100.101148
3565.000000	100.097689
3564.000000	100.091546
3563.000000	100.086489
3562.000000	100.085235
3561.000000	100.087767
3560.000000	100.092104
3559.000000	100.095905
3558.000000	100.097916
3557.000000	100.098096
3556.000000	100.096872
3555.000000	100.094445
3554.000000	100.090909
3553.000000	100.086997
3552.000000	100.084370
3551.000000	100.083990
3550.000000	100.084468
3549.000000	100.082559
3548.000000	100.075512
3547.000000	100.064688
3546.000000	100.056780
3545.000000	100.058658
3544.000000	100.070233
3543.000000	100.084730
3542.000000	100.094724
3541.000000	100.097517
3540.000000	100.095796
3539.000000	100.093982
3538.000000	100.094046
3537.000000	100.094347
3536.000000	100.092717
3535.000000	100.089521
3534.000000	100.087294
3533.000000	100.088013
3532.000000	100.091283
3531.000000	100.094910
3530.000000	100.096549
3529.000000	100.095166
3528.000000	100.091631
3527.000000	100.088214
3526.000000	100.087147
3525.000000	100.089417
3524.000000	100.094130
3523.000000	100.098749
3522.000000	100.100628
3521.000000	100.099182
3520.000000	100.096606
3519.000000	100.095718
3518.000000	100.097377
3517.000000	100.099937
3516.000000	100.101102
3515.000000	100.100071
3514.000000	100.097851
3513.000000	100.096191
3512.000000	100.096407
3511.000000	100.098777
3510.000000	100.102396
3509.000000	100.105480
3508.000000	100.106388
3507.000000	100.104775
3506.000000	100.101737
3505.000000	100.098591
3504.000000	100.096200
3503.000000	100.094832
3502.000000	100.093753
3501.000000	100.091405
3500.000000	100.086901
3499.000000	100.081495
3498.000000	100.078436
3497.000000	100.081011
3496.000000	100.089254
3495.000000	100.098653
3494.000000	100.103293
3493.000000	100.101040
3492.000000	100.095026
3491.000000	100.089854
3490.000000	100.087264
3489.000000	100.086010
3488.000000	100.084997
3487.000000	100.084825
3486.000000	100.086045
3485.000000	100.087488
3484.000000	100.087606
3483.000000	100.086921
3482.000000	100.087985
3481.000000	100.092214
3480.000000	100.097519
3479.000000	100.100001
3478.000000	100.097891
3477.000000	100.093098
3476.000000	100.089139
3475.000000	100.088048
3474.000000	100.089522
3473.000000	100.092624
3472.000000	100.097058
3471.000000	100.102277
3470.000000	100.106328
3469.000000	100.106939
3468.000000	100.103804
3467.000000	100.099185
3466.000000	100.096222
3465.000000	100.096917
3464.000000	100.101334
3463.000000	100.107631
3462.000000	100.112708
3461.000000	100.113862
3460.000000	100.110686
3459.000000	100.105397
3458.000000	100.101113
3457.000000	100.099707
3456.000000	100.101216
3455.000000	100.104403
3454.000000	100.107539
3453.000000	100.109066
3452.000000	100.108290
3451.000000	100.105843
3450.000000	100.103104
3449.000000	100.101287
3448.000000	100.101268
3447.000000	100.103602
3446.000000	100.107500
3445.000000	100.110324
3444.000000	100.109393
3443.000000	100.104616
3442.000000	100.099021
3441.000000	100.096236
3440.000000	100.097516
3439.000000	100.101154
3438.000000	100.104358
3437.000000	100.105414
3436.000000	100.104652
3435.000000	100.103612
3434.000000	100.103112
3433.000000	100.102102
3432.000000	100.098835
3431.000000	100.093469
3430.000000	100.088677
3429.000000	100.087381
3428.000000	100.090142
3427.000000	100.094992
3426.000000	100.099221
3425.000000	100.100867
3424.000000	100.099183
3423.000000	100.094690
3422.000000	100.089118
3421.000000	100.084700
3420.000000	100.082663
3419.000000	100.082150
3418.000000	100.080911
3417.000000	100.077284
3416.000000	100.071591
3415.000000	100.065851
3414.000000	100.062215
3413.000000	100.061595
3412.000000	100.063523
3411.000000	100.066759
3410.000000	100.069916
3409.000000	100.072115
3408.000000	100.073549
3407.000000	100.075191
3406.000000	100.077657
3405.000000	100.080428
3404.000000	100.082426
3403.000000	100.083030
3402.000000	100.082293
3401.000000	100.080475
3400.000000	100.077696
3399.000000	100.074102
3398.000000	100.070273
3397.000000	100.067408
3396.000000	100.066858
3395.000000	100.069131
3394.000000	100.073310
3393.000000	100.077625
3392.000000	100.080602
3391.000000	100.081611
3390.000000	100.080726
3389.000000	100.078530
3388.000000	100.075825
3387.000000	100.072710
3386.000000	100.067914
3385.000000	100.059838
3384.000000	100.048781
3383.000000	100.037781
3382.000000	100.030872
3381.000000	100.030429
3380.000000	100.035536
3379.000000	100.042312
3378.000000	100.046181
3377.000000	100.045109
3376.000000	100.040971
3375.000000	100.037295
3374.000000	100.035749
3373.000000	100.035555
3372.000000	100.035857
3371.000000	100.036899
3370.000000	100.038270
3369.000000	100.037648
3368.000000	100.033027
3367.000000	100.025687
3366.000000	100.019332
3365.000000	100.016119
3364.000000	100.014811
3363.000000	100.013102
3362.000000	100.010563
3361.000000	100.008608
3360.000000	100.008207
3359.000000	100.008507
3358.000000	100.007694
3357.000000	100.004729
3356.000000	100.000005
3355.000000	99.994546
3354.000000	99.989010
3353.000000	99.983830
3352.000000	99.980131
3351.000000	99.979702
3350.000000	99.983423
3349.000000	99.989845
3348.000000	99.995823
3347.000000	99.998641
3346.000000	99.997633
3345.000000	99.994142
3344.000000	99.990256
3343.000000	99.987245
3342.000000	99.984458
3341.000000	99.979700
3340.000000	99.971449
3339.000000	99.961174
3338.000000	99.953154
3337.000000	99.951222
3336.000000	99.955235
3335.000000	99.960826
3334.000000	99.962942
3333.000000	99.959838
3332.000000	99.953858
3331.000000	99.948856
3330.000000	99.947099
3329.000000	99.948083
3328.000000	99.949406
3327.000000	99.948406
3326.000000	99.943912
3325.000000	99.937512
3324.000000	99.932976
3323.000000	99.933306
3322.000000	99.937831
3321.000000	99.942960
3320.000000	99.945986
3319.000000	99.947402
3318.000000	99.948973
3317.000000	99.950398
3316.000000	99.949182
3315.000000	99.943950
3314.000000	99.936807
3313.000000	99.931555
3312.000000	99.929762
3311.000000	99.929102
3310.000000	99.925891
3309.000000	99.919258
3308.000000	99.912380
3307.000000	99.909240
3306.000000	99.910451
3305.000000	99.912732
3304.000000	99.912263
3303.000000	99.907965
3302.000000	99.901634
3301.000000	99.895786
3300.000000	99.891976
3299.000000	99.890594
3298.000000	99.891325
3297.000000	99.893664
3296.000000	99.897253
3295.000000	99.901726
3294.000000	99.906174
3293.000000	99.909274
3292.000000	99.910421
3291.000000	99.910393
3290.000000	99.910246
3289.000000	99.909611
3288.000000	99.906795
3287.000000	99.900993
3286.000000	99.894088
3285.000000	99.889734
3284.000000	99.890205
3283.000000	99.893926
3282.000000	99.896396
3281.000000	99.894139
3280.000000	99.887884
3279.000000	99.881586
3278.000000	99.878562
3277.000000	99.878875
3276.000000	99.880253
3275.000000	99.880770
3274.000000	99.880153
3273.000000	99.879229
3272.000000	99.878853
3271.000000	99.879290
3270.000000	99.880133
3269.000000	99.880698
3268.000000	99.880487
3267.000000	99.879272
3266.000000	99.877012
3265.000000	99.874362
3264.000000	99.873124
3263.000000	99.875272
3262.000000	99.880954
3261.000000	99.887772
3260.000000	99.892326
3259.000000	99.892353
3258.000000	99.887795
3257.000000	99.880762
3256.000000	99.874713
3255.000000	99.872516
3254.000000	99.874396
3253.000000	99.878183
3252.000000	99.881842
3251.000000	99.885014
3250.000000	99.887667
3249.000000	99.888530
3248.000000	99.886317
3247.000000	99.882116
3246.000000	99.879284
3245.000000	99.880487
3244.000000	99.885070
3243.000000	99.889351
3242.000000	99.889235
3241.000000	99.883359
3240.000000	99.874783
3239.000000	99.869292
3238.000000	99.870779
3237.000000	99.877733
3236.000000	99.884722
3235.000000	99.887371
3234.000000	99.885390
3233.000000	99.881216
3232.000000	99.877145
3231.000000	99.874220
3230.000000	99.872680
3229.000000	99.872189
3228.000000	99.871780
3227.000000	99.870478
3226.000000	99.868369
3225.000000	99.866767
3224.000000	99.867056
3223.000000	99.869330
3222.000000	99.872154
3221.000000	99.873748
3220.000000	99.873427
3219.000000	99.871919
3218.000000	99.870432
3217.000000	99.869714
3216.000000	99.869902
3215.000000	99.870632
3214.000000	99.870892
3213.000000	99.869332
3212.000000	99.865423
3211.000000	99.860321
3210.000000	99.856072
3209.000000	99.854073
3208.000000	99.854711
3207.000000	99.857982
3206.000000	99.863389
3205.000000	99.869170
3204.000000	99.872799
3203.000000	99.873037
3202.000000	99.870949
3201.000000	99.868444
3200.000000	99.866398
3199.000000	99.864647
3198.000000	99.863139
3197.000000	99.862039
3196.000000	99.860942
3195.000000	99.859056
3194.000000	99.856448
3193.000000	99.854359
3192.000000	99.853842
3191.000000	99.854356
3190.000000	99.854169
3189.000000	99.852192
3188.000000	99.849249
3187.000000	99.847541
3186.000000	99.848878
3185.000000	99.853194
3184.000000	99.858674
3183.000000	99.863267
3182.000000	99.866027
3181.000000	99.866986
3180.000000	99.866077
3179.000000	99.862942
3178.000000	99.858114
3177.000000	99.853939
3176.000000	99.853507
3175.000000	99.858057
3174.000000	99.865443
3173.000000	99.871439
3172.000000	99.872843
3171.000000	99.869597
3170.000000	99.864140
3169.000000	99.859308
3168.000000	99.856897
3167.000000	99.857518
3166.000000	99.860705
3165.000000	99.864824
3164.000000	99.867592
3163.000000	99.867474
3162.000000	99.864766
3161.000000	99.861177
3160.000000	99.858441
3159.000000	99.857320
3158.000000	99.857452
3157.000000	99.857871
3156.000000	99.857927
3155.000000	99.858032
3154.000000	99.859317
3153.000000	99.862341
3152.000000	99.866465
3151.000000	99.870662
3150.000000	99.874281
3149.000000	99.876395
3148.000000	99.875076
3147.000000	99.868692
3146.000000	99.858213
3145.000000	99.847336
3144.000000	99.839832
3143.000000	99.837006
3142.000000	99.837917
3141.000000	99.841231
3140.000000	99.846314
3139.000000	99.853014
3138.000000	99.861177
3137.000000	99.870084
3136.000000	99.877679
3135.000000	99.880730
3134.000000	99.877064
3133.000000	99.868244
3132.000000	99.859433
3131.000000	99.855899
3130.000000	99.859390
3129.000000	99.867337
3128.000000	99.874857
3127.000000	99.877839
3126.000000	99.875365
3125.000000	99.869871
3124.000000	99.864929
3123.000000	99.862597
3122.000000	99.862811
3121.000000	99.864748
3120.000000	99.867787
3119.000000	99.870846
3118.000000	99.871930
3117.000000	99.869545
3116.000000	99.864438
3115.000000	99.859081
3114.000000	99.855494
3113.000000	99.854081
3112.000000	99.854298
3111.000000	99.855423
3110.000000	99.856599
3109.000000	99.857090
3108.000000	99.857029
3107.000000	99.857238
3106.000000	99.857707
3105.000000	99.856998
3104.000000	99.853965
3103.000000	99.849521
3102.000000	99.845697
3101.000000	99.843252
3100.000000	99.841247
3099.000000	99.838822
3098.000000	99.836159
3097.000000	99.833563
3096.000000	99.830811
3095.000000	99.828090
3094.000000	99.826735
3093.000000	99.828105
3092.000000	99.831835
3091.000000	99.835771
3090.000000	99.837725
3089.000000	99.837166
3088.000000	99.835293
3087.000000	99.833609
3086.000000	99.832413
3085.000000	99.830831
3084.000000	99.828482
3083.000000	99.826720
3082.000000	99.827467
3081.000000	99.830640
3080.000000	99.833517
3079.000000	99.833294
3078.000000	99.829997
3077.000000	99.826233
3076.000000	99.824221
3075.000000	99.823706
3074.000000	99.822866
3073.000000	99.820851
3072.000000	99.819072
3071.000000	99.819992
3070.000000	99.824557
3069.000000	99.830713
3068.000000	99.834594
3067.000000	99.833496
3066.000000	99.828000
3065.000000	99.821380
3064.000000	99.816934
3063.000000	99.815814
3062.000000	99.816962
3061.000000	99.818587
3060.000000	99.819450
3059.000000	99.819061
3058.000000	99.817456
3057.000000	99.815297
3056.000000	99.813928
3055.000000	99.814632
3054.000000	99.817440
3053.000000	99.821001
3052.000000	99.823779
3051.000000	99.825218
3050.000000	99.825718
3049.000000	99.825862
3048.000000	99.826018
3047.000000	99.826358
3046.000000	99.826666
3045.000000	99.826047
3044.000000	99.823295
3043.000000	99.818131
3042.000000	99.812247
3041.000000	99.808767
3040.000000	99.810111
3039.000000	99.815854
3038.000000	99.822699
3037.000000	99.826854
3036.000000	99.826691
3035.000000	99.823432
3034.000000	99.819692
3033.000000	99.817492
3032.000000	99.817180
3031.000000	99.817544
3030.000000	99.817088
3029.000000	99.815714
3028.000000	99.815011
3027.000000	99.816353
3026.000000	99.818773
3025.000000	99.819453
3024.000000	99.816635
3023.000000	99.811674
3022.000000	99.808015
3021.000000	99.808538
3020.000000	99.813715
3019.000000	99.821318
3018.000000	99.827362
3017.000000	99.828223
3016.000000	99.823019
3015.000000	99.814215
3014.000000	99.805914
3013.000000	99.801545
3012.000000	99.802525
3011.000000	99.807497
3010.000000	99.812488
3009.000000	99.813309
3008.000000	99.809106
3007.000000	99.803149
3006.000000	99.799290
3005.000000	99.798175
3004.000000	99.797601
3003.000000	99.795742
3002.000000	99.792784
3001.000000	99.789977
3000.000000	99.788520
2999.000000	99.789239
2998.000000	99.791964
2997.000000	99.795137
2996.000000	99.797154
2995.000000	99.798087
2994.000000	99.798975
2993.000000	99.799425
2992.000000	99.797381
2991.000000	99.791683
2990.000000	99.783689
2989.000000	99.775917
2988.000000	99.770203
2987.000000	99.767440
2986.000000	99.767485
2985.000000	99.768148
2984.000000	99.765448
2983.000000	99.756828
2982.000000	99.744177
2981.000000	99.732685
2980.000000	99.726302
2979.000000	99.724734
2978.000000	99.724418
2977.000000	99.721598
2976.000000	99.714474
2975.000000	99.703513
2974.000000	99.690460
2973.000000	99.677016
2972.000000	99.664153
2971.000000	99.652261
2970.000000	99.641398
2969.000000	99.631095
2968.000000	99.620442
2967.000000	99.608902
2966.000000	99.596832
2965.000000	99.584791
2964.000000	99.572641
2963.000000	99.559912
2962.000000	99.546761
2961.000000	99.533806
2960.000000	99.521089
2959.000000	99.508024
2958.000000	99.494553
2957.000000	99.481610
2956.000000	99.470189
2955.000000	99.460745
2954.000000	99.453928
2953.000000	99.451094
2952.000000	99.453065
2951.000000	99.458598
2950.000000	99.464834
2949.000000	99.469335
2948.000000	99.471020
2947.000000	99.469199
2946.000000	99.462626
2945.000000	99.450181
2944.000000	99.432299
2943.000000	99.411117
2942.000000	99.389148
2941.000000	99.367708
2940.000000	99.346262
2939.000000	99.322900
2938.000000	99.295677
2937.000000	99.264141
2936.000000	99.229664
2935.000000	99.194132
2934.000000	99.158364
2933.000000	99.121984
2932.000000	99.084486
2931.000000	99.045673
2930.000000	99.005091
2929.000000	98.961962
2928.000000	98.916358
2927.000000	98.870208
2926.000000	98.826585
2925.000000	98.788098
2924.000000	98.755902
2923.000000	98.729787
2922.000000	98.708859
2921.000000	98.692802
2920.000000	98.683495
2919.000000	98.685022
2918.000000	98.701292
2917.000000	98.733238
2916.000000	98.778482
2915.000000	98.833365
2914.000000	98.894472
2913.000000	98.958499
2912.000000	99.021730
2911.000000	99.080537
2910.000000	99.132172
2909.000000	99.175288
2908.000000	99.210475
2907.000000	99.240316
2906.000000	99.267998
2905.000000	99.295075
2904.000000	99.320901
2903.000000	99.343889
2902.000000	99.363223
2901.000000	99.378421
2900.000000	99.389596
2899.000000	99.398751
2898.000000	99.409507
2897.000000	99.424259
2896.000000	99.441485
2895.000000	99.456939
2894.000000	99.467575
2893.000000	99.473761
2892.000000	99.478210
2891.000000	99.483960
2890.000000	99.493083
2889.000000	99.505658
2888.000000	99.519078
2887.000000	99.529427
2886.000000	99.534786
2885.000000	99.537103
2884.000000	99.540192
2883.000000	99.545941
2882.000000	99.552872
2881.000000	99.558100
2880.000000	99.560162
2879.000000	99.559878
2878.000000	99.559035
2877.000000	99.558565
2876.000000	99.557776
2875.000000	99.555050
2874.000000	99.549183
2873.000000	99.540276
2872.000000	99.529771
2871.000000	99.519891
2870.000000	99.512706
2869.000000	99.508862
2868.000000	99.506789
2867.000000	99.503410
2866.000000	99.496142
2865.000000	99.484414
2864.000000	99.469256
2863.000000	99.451852
2862.000000	99.432748
2861.000000	99.411950
2860.000000	99.388840
2859.000000	99.361667
2858.000000	99.327979
2857.000000	99.286670
2856.000000	99.239874
2855.000000	99.192423
2854.000000	99.149345
2853.000000	99.113989
2852.000000	99.088611
2851.000000	99.076231
2850.000000	99.080804
2849.000000	99.105034
2848.000000	99.147821
2847.000000	99.204068
2846.000000	99.267090
2845.000000	99.331338
2844.000000	99.393026
2843.000000	99.449182
2842.000000	99.497134
2841.000000	99.535428
2840.000000	99.565099
2839.000000	99.589182
2838.000000	99.610622
2837.000000	99.630643
2836.000000	99.648804
2835.000000	99.664051
2834.000000	99.675553
2833.000000	99.683368
2832.000000	99.689084
2831.000000	99.695322
2830.000000	99.703531
2829.000000	99.712214
2828.000000	99.718237
2827.000000	99.720218
2826.000000	99.719932
2825.000000	99.720050
2824.000000	99.721463
2823.000000	99.723574
2822.000000	99.726340
2821.000000	99.730586
2820.000000	99.736341
2819.000000	99.742155
2818.000000	99.746711
2817.000000	99.750387
2816.000000	99.754529
2815.000000	99.759497
2814.000000	99.763899
2813.000000	99.765647
2812.000000	99.763580
2811.000000	99.758393
2810.000000	99.752338
2809.000000	99.747760
2808.000000	99.745568
2807.000000	99.745216
2806.000000	99.746269
2805.000000	99.749376
2804.000000	99.755101
2803.000000	99.762159
2802.000000	99.767864
2801.000000	99.770588
2800.000000	99.771108
2799.000000	99.771150
2798.000000	99.771158
2797.000000	99.770235
2796.000000	99.767988
2795.000000	99.765523
2794.000000	99.764282
2793.000000	99.764409
2792.000000	99.764820
2791.000000	99.764762
2790.000000	99.764883
2789.000000	99.766541
2788.000000	99.770245
2787.000000	99.774943
2786.000000	99.778742
2785.000000	99.780130
2784.000000	99.778683
2783.000000	99.775059
2782.000000	99.770661
2781.000000	99.767161
2780.000000	99.765868
2779.000000	99.767147
2778.000000	99.770214
2777.000000	99.773453
2776.000000	99.775216
2775.000000	99.774883
2774.000000	99.773549
2773.000000	99.773526
2772.000000	99.776684
2771.000000	99.782929
2770.000000	99.790218
2769.000000	99.795958
2768.000000	99.798365
2767.000000	99.796946
2766.000000	99.792503
2765.000000	99.786980
2764.000000	99.782843
2763.000000	99.781890
2762.000000	99.784230
2761.000000	99.788215
2760.000000	99.791337
2759.000000	99.791685
2758.000000	99.789367
2757.000000	99.786726
2756.000000	99.786561
2755.000000	99.789537
2754.000000	99.793544
2753.000000	99.795837
2752.000000	99.795613
2751.000000	99.794236
2750.000000	99.793344
2749.000000	99.793303
2748.000000	99.793342
2747.000000	99.792586
2746.000000	99.790828
2745.000000	99.788674
2744.000000	99.787094
2743.000000	99.786634
2742.000000	99.786952
2741.000000	99.787178
2740.000000	99.786704
2739.000000	99.785645
2738.000000	99.784876
2737.000000	99.785768
2736.000000	99.789321
2735.000000	99.794957
2734.000000	99.800362
2733.000000	99.803228
2732.000000	99.803240
2731.000000	99.801943
2730.000000	99.800691
2729.000000	99.799248
2728.000000	99.796579
2727.000000	99.792647
2726.000000	99.789128
2725.000000	99.788348
2724.000000	99.791260
2723.000000	99.796176
2722.000000	99.799803
2721.000000	99.800017
2720.000000	99.797592
2719.000000	99.794936
2718.000000	99.793606
2717.000000	99.793739
2716.000000	99.795266
2715.000000	99.798284
2714.000000	99.802173
2713.000000	99.805641
2712.000000	99.808080
2711.000000	99.809851
2710.000000	99.810839
2709.000000	99.809995
2708.000000	99.807155
2707.000000	99.804199
2706.000000	99.803167
2705.000000	99.803816
2704.000000	99.804295
2703.000000	99.803942
2702.000000	99.804281
2701.000000	99.807109
2700.000000	99.812309
2699.000000	99.817562
2698.000000	99.819793
2697.000000	99.817302
2696.000000	99.811411
2695.000000	99.805940
2694.000000	99.804203
2693.000000	99.806316
2692.000000	99.809639
2691.000000	99.811459
2690.000000	99.810613
2689.000000	99.807129
2688.000000	99.801780
2687.000000	99.796389
2686.000000	99.793434
2685.000000	99.794396
2684.000000	99.798576
2683.000000	99.803727
2682.000000	99.807608
2681.000000	99.809051
2680.000000	99.808257
2679.000000	99.806387
2678.000000	99.804533
2677.000000	99.802924
2676.000000	99.801330
2675.000000	99.799984
2674.000000	99.799511
2673.000000	99.800028
2672.000000	99.800963
2671.000000	99.801689
2670.000000	99.801633
2669.000000	99.799941
2668.000000	99.796162
2667.000000	99.791482
2666.000000	99.788090
2665.000000	99.786713
2664.000000	99.785705
2663.000000	99.783289
2662.000000	99.779787
2661.000000	99.776673
2660.000000	99.774224
2659.000000	99.771500
2658.000000	99.768554
2657.000000	99.767298
2656.000000	99.769590
2655.000000	99.774961
2654.000000	99.780684
2653.000000	99.784046
2652.000000	99.784594
2651.000000	99.784321
2650.000000	99.785525
2649.000000	99.788385
2648.000000	99.791027
2647.000000	99.792085
2646.000000	99.792385
2645.000000	99.793486
2644.000000	99.795385
2643.000000	99.796754
2642.000000	99.796975
2641.000000	99.796778
2640.000000	99.797103
2639.000000	99.798573
2638.000000	99.801906
2637.000000	99.807227
2636.000000	99.812558
2635.000000	99.814623
2634.000000	99.812229
2633.000000	99.807992
2632.000000	99.805801
2631.000000	99.807254
2630.000000	99.811383
2629.000000	99.816981
2628.000000	99.823753
2627.000000	99.831342
2626.000000	99.838367
2625.000000	99.842912
2624.000000	99.843695
2623.000000	99.840873
2622.000000	99.836120
2621.000000	99.831739
2620.000000	99.829162
2619.000000	99.828128
2618.000000	99.827204
2617.000000	99.824862
2616.000000	99.820357
2615.000000	99.814750
2614.000000	99.811490
2613.000000	99.814651
2612.000000	99.824946
2611.000000	99.837654
2610.000000	99.845766
2609.000000	99.845457
2608.000000	99.838249
2607.000000	99.828594
2606.000000	99.820696
2605.000000	99.817358
2604.000000	99.819788
2603.000000	99.827107
2602.000000	99.836358
2601.000000	99.843895
2600.000000	99.847276
2599.000000	99.846456
2598.000000	99.843716
2597.000000	99.842020
2596.000000	99.842503
2595.000000	99.843627
2594.000000	99.843382
2593.000000	99.841909
2592.000000	99.840901
2591.000000	99.840982
2590.000000	99.841297
2589.000000	99.841583
2588.000000	99.842739
2587.000000	99.844739
2586.000000	99.845784
2585.000000	99.844625
2584.000000	99.842609
2583.000000	99.842355
2582.000000	99.845193
2581.000000	99.850497
2580.000000	99.856336
2579.000000	99.860164
2578.000000	99.860511
2577.000000	99.859334
2576.000000	99.861348
2575.000000	99.869383
2574.000000	99.881120
2573.000000	99.891534
2572.000000	99.897229
2571.000000	99.897112
2570.000000	99.890827
2569.000000	99.879685
2568.000000	99.868505
2567.000000	99.863167
2566.000000	99.865531
2565.000000	99.872575
2564.000000	99.880504
2563.000000	99.887292
2562.000000	99.890984
2561.000000	99.888853
2560.000000	99.880330
2559.000000	99.869038
2558.000000	99.860008
2557.000000	99.855795
2556.000000	99.856195
2555.000000	99.860074
2554.000000	99.865771
2553.000000	99.870887
2552.000000	99.873763
2551.000000	99.874832
2550.000000	99.875199
2549.000000	99.874375
2548.000000	99.870840
2547.000000	99.864440
2546.000000	99.857056
2545.000000	99.851265
2544.000000	99.849485
2543.000000	99.853664
2542.000000	99.863716
2541.000000	99.875813
2540.000000	99.883613
2539.000000	99.882257
2538.000000	99.871388
2537.000000	99.855209
2536.000000	99.840709
2535.000000	99.834724
2534.000000	99.839915
2533.000000	99.852186
2532.000000	99.863378
2531.000000	99.868098
2530.000000	99.867666
2529.000000	99.866762
2528.000000	99.867068
2527.000000	99.865526
2526.000000	99.858794
2525.000000	99.848159
2524.000000	99.839251
2523.000000	99.837107
2522.000000	99.841638
2521.000000	99.847732
2520.000000	99.849472
2519.000000	99.844329
2518.000000	99.833964
2517.000000	99.822227
2516.000000	99.813191
2515.000000	99.810177
2514.000000	99.814404
2513.000000	99.823208
2512.000000	99.830615
2511.000000	99.831535
2510.000000	99.825695
2509.000000	99.816821
2508.000000	99.808426
2507.000000	99.801869
2506.000000	99.798461
2505.000000	99.800792
2504.000000	99.809957
2503.000000	99.822433
2502.000000	99.832178
2501.000000	99.836447
2500.000000	99.838050
2499.000000	99.841209
2498.000000	99.846185
2497.000000	99.849003
2496.000000	99.846101
2495.000000	99.838478
2494.000000	99.831460
2493.000000	99.830593
2492.000000	99.837219
2491.000000	99.847316
2490.000000	99.854724
2489.000000	99.856278
2488.000000	99.853967
2487.000000	99.852015
2486.000000	99.852227
2485.000000	99.852669
2484.000000	99.850731
2483.000000	99.846654
2482.000000	99.843699
2481.000000	99.845264
2480.000000	99.852055
2479.000000	99.861729
2478.000000	99.870851
2477.000000	99.877298
2476.000000	99.881423
2475.000000	99.885260
2474.000000	99.890329
2473.000000	99.895833
2472.000000	99.899206
2471.000000	99.898877
2470.000000	99.896364
2469.000000	99.894961
2468.000000	99.896316
2467.000000	99.899201
2466.000000	99.901771
2465.000000	99.903615
2464.000000	99.904715
2463.000000	99.903945
2462.000000	99.900631
2461.000000	99.896768
2460.000000	99.895108
2459.000000	99.894684
2458.000000	99.890819
2457.000000	99.881051
2456.000000	99.869567
2455.000000	99.863980
2454.000000	99.868051
2453.000000	99.878570
2452.000000	99.888608
2451.000000	99.892915
2450.000000	99.891182
2449.000000	99.887568
2448.000000	99.887042
2447.000000	99.891066
2446.000000	99.896550
2445.000000	99.899237
2444.000000	99.897721
2443.000000	99.893910
2442.000000	99.890654
2441.000000	99.890000
2440.000000	99.892924
2439.000000	99.898989
2438.000000	99.905995
2437.000000	99.911032
2436.000000	99.912583
2435.000000	99.911530
2434.000000	99.910137
2433.000000	99.910241
2432.000000	99.912078
2431.000000	99.914457
2430.000000	99.916111
2429.000000	99.916959
2428.000000	99.917770
2427.000000	99.918717
2426.000000	99.918989
2425.000000	99.917956
2424.000000	99.916007
2423.000000	99.914001
2422.000000	99.912531
2421.000000	99.911808
2420.000000	99.911417
2419.000000	99.910145
2418.000000	99.907143
2417.000000	99.903568
2416.000000	99.902035
2415.000000	99.904011
2414.000000	99.908450
2413.000000	99.912821
2412.000000	99.914313
2411.000000	99.910632
2410.000000	99.901955
2409.000000	99.892691
2408.000000	99.888937
2407.000000	99.892780
2406.000000	99.900510
2405.000000	99.907193
2404.000000	99.911231
2403.000000	99.913807
2402.000000	99.916219
2401.000000	99.919201
2400.000000	99.922753
2399.000000	99.924991
2398.000000	99.923203
2397.000000	99.917722
2396.000000	99.912828
2395.000000	99.911931
2394.000000	99.913747
2393.000000	99.915325
2392.000000	99.916462
2391.000000	99.918784
2390.000000	99.922373
2389.000000	99.926529
2388.000000	99.932548
2387.000000	99.941337
2386.000000	99.950312
2385.000000	99.955838
2384.000000	99.958780
2383.000000	99.964423
2382.000000	99.974930
2381.000000	99.986562
2380.000000	99.994006
2379.000000	99.994770
2378.000000	99.989004
2377.000000	99.977544
2376.000000	99.962571
2375.000000	99.948576
2374.000000	99.942148
2373.000000	99.948931
2372.000000	99.968961
2371.000000	99.993273
2370.000000	100.009255
2369.000000	100.011729
2368.000000	100.003241
2367.000000	99.987174
2366.000000	99.967002
2365.000000	99.951518
2364.000000	99.950550
2363.000000	99.960447
2362.000000	99.966309
2361.000000	99.962650
2360.000000	99.958968
2359.000000	99.965743
2358.000000	99.981967
2357.000000	99.998242
2356.000000	100.000703
2355.000000	99.980076
2354.000000	99.950464
2353.000000	99.936067
2352.000000	99.940152
2351.000000	99.944949
2350.000000	99.938740
2349.000000	99.926360
2348.000000	99.919562
2347.000000	99.927356
2346.000000	99.943338
2345.000000	99.946293
2344.000000	99.926976
2343.000000	99.901147
2342.000000	99.888560
2341.000000	99.892724
2340.000000	99.903282
2339.000000	99.910282
2338.000000	99.914429
2337.000000	99.919811
2336.000000	99.924777
2335.000000	99.926549
2334.000000	99.931062
2333.000000	99.944985
2332.000000	99.961348
2331.000000	99.967034
2330.000000	99.958697
2329.000000	99.943373
2328.000000	99.924738
2327.000000	99.903352
2326.000000	99.884369
2325.000000	99.875354
2324.000000	99.878549
2323.000000	99.887789
2322.000000	99.894141
2321.000000	99.890291
2320.000000	99.874125
2319.000000	99.849679
2318.000000	99.824498
2317.000000	99.805615
2316.000000	99.797190
2315.000000	99.801229
2314.000000	99.815450
2313.000000	99.832450
2312.000000	99.843543
2311.000000	99.846898
2310.000000	99.848551
2309.000000	99.854863
2308.000000	99.866274
2307.000000	99.878343
2306.000000	99.886783
2305.000000	99.890451
2304.000000	99.892281
2303.000000	99.896215
2302.000000	99.902615
2301.000000	99.907053
2300.000000	99.906195
2299.000000	99.902766
2298.000000	99.901071
2297.000000	99.900175
2296.000000	99.894307
2295.000000	99.881999
2294.000000	99.870099
2293.000000	99.867422
2292.000000	99.875674
2291.000000	99.888282
2290.000000	99.896794
2289.000000	99.897119
2288.000000	99.891039
2287.000000	99.882856
2286.000000	99.875270
2285.000000	99.868167
2284.000000	99.861321
2283.000000	99.855400
2282.000000	99.850263
2281.000000	99.844515
2280.000000	99.839364
2279.000000	99.839890
2278.000000	99.849033
2277.000000	99.861778
2276.000000	99.868764
2275.000000	99.866041
2274.000000	99.858576
2273.000000	99.854543
2272.000000	99.858286
2271.000000	99.868509
2270.000000	99.880198
2269.000000	99.887936
2268.000000	99.889593
2267.000000	99.887370
2266.000000	99.883935
2265.000000	99.878947
2264.000000	99.872042
2263.000000	99.867721
2262.000000	99.872653
2261.000000	99.886903
2260.000000	99.901104
2259.000000	99.904400
2258.000000	99.894443
2257.000000	99.879061
2256.000000	99.869392
2255.000000	99.870650
2254.000000	99.877960
2253.000000	99.881325
2252.000000	99.875978
2251.000000	99.867723
2250.000000	99.867551
2249.000000	99.881551
2248.000000	99.906288
2247.000000	99.931756
2246.000000	99.947496
2245.000000	99.948590
2244.000000	99.938523
2243.000000	99.925878
2242.000000	99.917328
2241.000000	99.914766
2240.000000	99.917817
2239.000000	99.924698
2238.000000	99.929953
2237.000000	99.927225
2236.000000	99.917955
2235.000000	99.913132
2234.000000	99.922176
2233.000000	99.942674
2232.000000	99.963241
2231.000000	99.972466
2230.000000	99.963059
2229.000000	99.934997
2228.000000	99.901269
2227.000000	99.884372
2226.000000	99.898066
2225.000000	99.933522
2224.000000	99.968958
2223.000000	99.990212
2222.000000	99.996017
2221.000000	99.987980
2220.000000	99.965646
2219.000000	99.931283
2218.000000	99.892076
2217.000000	99.857219
2216.000000	99.837013
2215.000000	99.841273
2214.000000	99.870424
2213.000000	99.908565
2212.000000	99.933436
2211.000000	99.935289
2210.000000	99.920750
2209.000000	99.900021
2208.000000	99.878171
2207.000000	99.858233
2206.000000	99.844297
2205.000000	99.837886
2204.000000	99.835196
2203.000000	99.829484
2202.000000	99.814461
2201.000000	99.788894
2200.000000	99.762995
2199.000000	99.755708
2198.000000	99.776855
2197.000000	99.812870
2196.000000	99.839193
2195.000000	99.847484
2194.000000	99.851912
2193.000000	99.868208
2192.000000	99.894903
2191.000000	99.916466
2190.000000	99.916717
2189.000000	99.888372
2188.000000	99.839423
2187.000000	99.792295
2186.000000	99.768372
2185.000000	99.769989
2184.000000	99.782759
2183.000000	99.796189
2182.000000	99.812790
2181.000000	99.835143
2180.000000	99.856344
2179.000000	99.868289
2178.000000	99.869051
2177.000000	99.857960
2176.000000	99.835710
2175.000000	99.815123
2174.000000	99.818903
2173.000000	99.854005
2172.000000	99.894835
2171.000000	99.904351
2170.000000	99.869263
2169.000000	99.809616
2168.000000	99.757921
2167.000000	99.734474
2166.000000	99.740468
2165.000000	99.764339
2164.000000	99.791111
2163.000000	99.812231
2162.000000	99.831243
2161.000000	99.860376
2160.000000	99.910231
2159.000000	99.978484
2158.000000	100.045000
2157.000000	100.083013
2156.000000	100.080824
2155.000000	100.049882
2154.000000	100.012793
2153.000000	99.988704
2152.000000	99.986930
2151.000000	100.005996
2150.000000	100.033796
2149.000000	100.051792
2148.000000	100.047732
2147.000000	100.027130
2146.000000	100.009273
2145.000000	100.010975
2144.000000	100.034646
2143.000000	100.069291
2142.000000	100.098672
2141.000000	100.110153
2140.000000	100.102512
2139.000000	100.086688
2138.000000	100.075276
2137.000000	100.070730
2136.000000	100.065668
2135.000000	100.054161
2134.000000	100.038809
2133.000000	100.025944
2132.000000	100.018262
2131.000000	100.014502
2130.000000	100.013451
2129.000000	100.014971
2128.000000	100.017556
2127.000000	100.017161
2126.000000	100.009947
2125.000000	99.996860
2124.000000	99.984637
2123.000000	99.980124
2122.000000	99.982573
2121.000000	99.982749
2120.000000	99.971679
2119.000000	99.949969
2118.000000	99.927283
2117.000000	99.913573
2116.000000	99.911864
2115.000000	99.918382
2114.000000	99.926936
2113.000000	99.932519
2112.000000	99.933271
2111.000000	99.931089
2110.000000	99.930307
2109.000000	99.935087
2108.000000	99.947286
2107.000000	99.965627
2106.000000	99.985716
2105.000000	100.001075
2104.000000	100.005834
2103.000000	99.998116
2102.000000	99.982231
2101.000000	99.968009
2100.000000	99.965241
2099.000000	99.975097
2098.000000	99.987328
2097.000000	99.989423
2096.000000	99.979268
2095.000000	99.965170
2094.000000	99.953250
2093.000000	99.941278
2092.000000	99.927930
2091.000000	99.921069
2090.000000	99.929630
2089.000000	99.949596
2088.000000	99.965101
2087.000000	99.964927
2086.000000	99.952524
2085.000000	99.938454
2084.000000	99.927901
2083.000000	99.918408
2082.000000	99.907173
2081.000000	99.896091
2080.000000	99.889441
2079.000000	99.889558
2078.000000	99.896282
2077.000000	99.909042
2076.000000	99.926614
2075.000000	99.944398
2074.000000	99.954472
2073.000000	99.951750
2072.000000	99.940074
2071.000000	99.928963
2070.000000	99.924083
2069.000000	99.923278
2068.000000	99.921560
2067.000000	99.916424
2066.000000	99.907628
2065.000000	99.896385
2064.000000	99.886630
2063.000000	99.883415
2062.000000	99.888218
2061.000000	99.897725
2060.000000	99.906737
2059.000000	99.909314
2058.000000	99.899081
2057.000000	99.876482
2056.000000	99.856401
2055.000000	99.857486
2054.000000	99.877826
2053.000000	99.891150
2052.000000	99.877290
2051.000000	99.849101
2050.000000	99.839334
2049.000000	99.863846
2048.000000	99.906229
2047.000000	99.940108
2046.000000	99.954909
2045.000000	99.954971
2044.000000	99.947912
2043.000000	99.941037
2042.000000	99.939006
2041.000000	99.938179
2040.000000	99.928731
2039.000000	99.905760
2038.000000	99.873069
2037.000000	99.836290
2036.000000	99.800411
2035.000000	99.775138
2034.000000	99.774414
2033.000000	99.805027
2032.000000	99.858942
2031.000000	99.919919
2030.000000	99.972332
2029.000000	100.004381
2028.000000	100.014934
2027.000000	100.018233
2026.000000	100.030727
2025.000000	100.050806
2024.000000	100.060166
2023.000000	100.047658
2022.000000	100.023394
2021.000000	100.006016
2020.000000	100.003526
2019.000000	100.011834
2018.000000	100.026845
2017.000000	100.049896
2016.000000	100.080048
2015.000000	100.106040
2014.000000	100.108684
2013.000000	100.073175
2012.000000	100.004641
2011.000000	99.931005
2010.000000	99.885885
2009.000000	99.885432
2008.000000	99.917771
2007.000000	99.955976
2006.000000	99.981969
2005.000000	99.995253
2004.000000	100.000880
2003.000000	99.994818
2002.000000	99.966558
2001.000000	99.916627
2000.000000	99.865409
1999.000000	99.838458
1998.000000	99.844493
1997.000000	99.871410
1996.000000	99.900668
1995.000000	99.919751
1994.000000	99.922339
1993.000000	99.908477
1992.000000	99.889592
1991.000000	99.882381
1990.000000	99.892689
1989.000000	99.913572
1988.000000	99.939078
1987.000000	99.967399
1986.000000	99.987065
1985.000000	99.975197
1984.000000	99.922571
1983.000000	99.851696
1982.000000	99.796850
1981.000000	99.771144
1980.000000	99.764862
1979.000000	99.771996
1978.000000	99.800918
1977.000000	99.853185
1976.000000	99.909253
1975.000000	99.947823
1974.000000	99.966616
1973.000000	99.976626
1972.000000	99.987308
1971.000000	100.002671
1970.000000	100.024579
1969.000000	100.053756
1968.000000	100.087559
1967.000000	100.118364
1966.000000	100.137114
1965.000000	100.140923
1964.000000	100.135152
1963.000000	100.125080
1962.000000	100.108129
1961.000000	100.079812
1960.000000	100.045689
1959.000000	100.018911
1958.000000	100.005453
1957.000000	100.000198
1956.000000	99.998482
1955.000000	100.002657
1954.000000	100.013796
1953.000000	100.024171
1952.000000	100.023089
1951.000000	100.006995
1950.000000	99.982119
1949.000000	99.960997
1948.000000	99.957124
1947.000000	99.976553
1946.000000	100.010882
1945.000000	100.043485
1944.000000	100.065075
1943.000000	100.077776
1942.000000	100.082051
1941.000000	100.070677
1940.000000	100.043745
1939.000000	100.017832
1938.000000	100.011535
1937.000000	100.026725
1936.000000	100.048809
1935.000000	100.064203
1934.000000	100.070626
1933.000000	100.071656
1932.000000	100.069330
1931.000000	100.063762
1930.000000	100.055782
1929.000000	100.046542
1928.000000	100.037384
1927.000000	100.030922
1926.000000	100.029251
1925.000000	100.030919
1924.000000	100.031903
1923.000000	100.030734
1922.000000	100.029306
1921.000000	100.027608
1920.000000	100.022993
1919.000000	100.015403
1918.000000	100.009489
1917.000000	100.008147
1916.000000	100.006861
1915.000000	100.000542
1914.000000	99.990868
1913.000000	99.983353
1912.000000	99.980449
1911.000000	99.980224
1910.000000	99.982687
1909.000000	99.992465
1908.000000	100.012136
1907.000000	100.036028
1906.000000	100.053475
1905.000000	100.057555
1904.000000	100.050196
1903.000000	100.039147
1902.000000	100.029690
1901.000000	100.020651
1900.000000	100.010013
1899.000000	100.000731
1898.000000	99.997594
1897.000000	100.000896
1896.000000	100.006378
1895.000000	100.012086
1894.000000	100.021376
1893.000000	100.035816
1892.000000	100.049253
1891.000000	100.051583
1890.000000	100.038285
1889.000000	100.017906
1888.000000	100.005070
1887.000000	100.005609
1886.000000	100.013379
1885.000000	100.018421
1884.000000	100.016829
1883.000000	100.013865
1882.000000	100.016840
1881.000000	100.026331
1880.000000	100.036727
1879.000000	100.043294
1878.000000	100.045549
1877.000000	100.045465
1876.000000	100.044971
1875.000000	100.044817
1874.000000	100.044423
1873.000000	100.042724
1872.000000	100.040348
1871.000000	100.040500
1870.000000	100.045734
1869.000000	100.054186
1868.000000	100.060909
1867.000000	100.064806
1866.000000	100.070598
1865.000000	100.080809
1864.000000	100.091271
1863.000000	100.094979
1862.000000	100.087192
1861.000000	100.068633
1860.000000	100.046026
1859.000000	100.028986
1858.000000	100.024301
1857.000000	100.031054
1856.000000	100.042000
1855.000000	100.050937
1854.000000	100.056411
1853.000000	100.058718
1852.000000	100.057919
1851.000000	100.055306
1850.000000	100.053164
1849.000000	100.052825
1848.000000	100.053725
1847.000000	100.055075
1846.000000	100.057552
1845.000000	100.062203
1844.000000	100.067908
1843.000000	100.072645
1842.000000	100.076411
1841.000000	100.079760
1840.000000	100.083281
1839.000000	100.087924
1838.000000	100.093291
1837.000000	100.097337
1836.000000	100.098176
1835.000000	100.096132
1834.000000	100.093432
1833.000000	100.092988
1832.000000	100.097753
1831.000000	100.106472
1830.000000	100.110952
1829.000000	100.106013
1828.000000	100.096900
1827.000000	100.090176
1826.000000	100.085820
1825.000000	100.081728
1824.000000	100.079649
1823.000000	100.081619
1822.000000	100.084815
1821.000000	100.084782
1820.000000	100.081957
1819.000000	100.081226
1818.000000	100.085790
1817.000000	100.094220
1816.000000	100.102782
1815.000000	100.109745
1814.000000	100.115571
1813.000000	100.119952
1812.000000	100.120731
1811.000000	100.114347
1810.000000	100.100185
1809.000000	100.083230
1808.000000	100.068931
1807.000000	100.058936
1806.000000	100.051754
1805.000000	100.044583
1804.000000	100.035025
1803.000000	100.022553
1802.000000	100.008119
1801.000000	99.993803
1800.000000	99.981441
1799.000000	99.970938
1798.000000	99.962291
1797.000000	99.955085
1796.000000	99.946522
1795.000000	99.934468
1794.000000	99.920737
1793.000000	99.912825
1792.000000	99.920462
1791.000000	99.944033
1790.000000	99.973119
1789.000000	99.996983
1788.000000	100.010286
1787.000000	100.014660
1786.000000	100.017189
1785.000000	100.023660
1784.000000	100.033425
1783.000000	100.043116
1782.000000	100.050811
1781.000000	100.055115
1780.000000	100.055421
1779.000000	100.053547
1778.000000	100.053531
1777.000000	100.057517
1776.000000	100.064259
1775.000000	100.072982
1774.000000	100.084577
1773.000000	100.098448
1772.000000	100.109912
1771.000000	100.112997
1770.000000	100.106409
1769.000000	100.093860
1768.000000	100.080764
1767.000000	100.072439
1766.000000	100.071021
1765.000000	100.074290
1764.000000	100.078345
1763.000000	100.079899
1762.000000	100.076825
1761.000000	100.070883
1760.000000	100.066276
1759.000000	100.063044
1758.000000	100.058045
1757.000000	100.049673
1756.000000	100.041367
1755.000000	100.036322
1754.000000	100.031147
1753.000000	100.020762
1752.000000	100.005668
1751.000000	99.992465
1750.000000	99.984657
1749.000000	99.978299
1748.000000	99.971659
1747.000000	99.968033
1746.000000	99.967473
1745.000000	99.966981
1744.000000	99.966152
1743.000000	99.964962
1742.000000	99.959586
1741.000000	99.946962
1740.000000	99.931744
1739.000000	99.922395
1738.000000	99.917226
1737.000000	99.907334
1736.000000	99.890185
1735.000000	99.877616
1734.000000	99.889535
1733.000000	99.924746
1732.000000	99.963162
1731.000000	99.997011
1730.000000	100.026489
1729.000000	100.046706
1728.000000	100.056188
1727.000000	100.060912
1726.000000	100.066488
1725.000000	100.072053
1724.000000	100.075678
1723.000000	100.078267
1722.000000	100.081529
1721.000000	100.084337
1720.000000	100.086070
1719.000000	100.086090
1718.000000	100.080891
1717.000000	100.075558
1716.000000	100.075550
1715.000000	100.076545
1714.000000	100.076620
1713.000000	100.074035
1712.000000	100.066255
1711.000000	100.056240
1710.000000	100.050295
1709.000000	100.051057
1708.000000	100.055147
1707.000000	100.057090
1706.000000	100.054260
1705.000000	100.048737
1704.000000	100.039424
1703.000000	100.021022
1702.000000	99.991581
1701.000000	99.960899
1700.000000	99.942711
1699.000000	99.938436
1698.000000	99.939287
1697.000000	99.939057
1696.000000	99.938596
1695.000000	99.936794
1694.000000	99.933371
1693.000000	99.930605
1692.000000	99.928412
1691.000000	99.925501
1690.000000	99.918926
1689.000000	99.905740
1688.000000	99.887748
1687.000000	99.869807
1686.000000	99.855522
1685.000000	99.846160
1684.000000	99.837012
1683.000000	99.824767
1682.000000	99.813540
1681.000000	99.806279
1680.000000	99.802476
1679.000000	99.798270
1678.000000	99.788227
1677.000000	99.767668
1676.000000	99.740630
1675.000000	99.720850
1674.000000	99.716549
1673.000000	99.718277
1672.000000	99.714039
1671.000000	99.701531
1670.000000	99.687540
1669.000000	99.678618
1668.000000	99.674001
1667.000000	99.670308
1666.000000	99.663580
1665.000000	99.651877
1664.000000	99.637887
1663.000000	99.626308
1662.000000	99.618747
1661.000000	99.611325
1660.000000	99.602405
1659.000000	99.594192
1658.000000	99.588742
1657.000000	99.582119
1656.000000	99.572479
1655.000000	99.561978
1654.000000	99.559366
1653.000000	99.564591
1652.000000	99.566770
1651.000000	99.567460
1650.000000	99.564846
1649.000000	99.555224
1648.000000	99.538259
1647.000000	99.526992
1646.000000	99.535633
1645.000000	99.555342
1644.000000	99.570922
1643.000000	99.578891
1642.000000	99.580530
1641.000000	99.580231
1640.000000	99.580422
1639.000000	99.580965
1638.000000	99.582013
1637.000000	99.586941
1636.000000	99.600470
1635.000000	99.617796
1634.000000	99.628527
1633.000000	99.634232
1632.000000	99.639148
1631.000000	99.643900
1630.000000	99.649302
1629.000000	99.654452
1628.000000	99.659422
1627.000000	99.665134
1626.000000	99.670182
1625.000000	99.672423
1624.000000	99.675537
1623.000000	99.686966
1622.000000	99.705187
1621.000000	99.718679
1620.000000	99.722858
1619.000000	99.722633
1618.000000	99.723901
1617.000000	99.729063
1616.000000	99.737208
1615.000000	99.747731
1614.000000	99.758580
1613.000000	99.766395
1612.000000	99.771413
1611.000000	99.778316
1610.000000	99.788800
1609.000000	99.797382
1608.000000	99.799905
1607.000000	99.800285
1606.000000	99.801945
1605.000000	99.801492
1604.000000	99.796612
1603.000000	99.791546
1602.000000	99.790340
1601.000000	99.789860
1600.000000	99.785045
1599.000000	99.776559
1598.000000	99.767950
1597.000000	99.760767
1596.000000	99.754711
1595.000000	99.749014
1594.000000	99.741506
1593.000000	99.729448
1592.000000	99.714700
1591.000000	99.703831
1590.000000	99.699314
1589.000000	99.694732
1588.000000	99.683270
1587.000000	99.665786
1586.000000	99.645714
1585.000000	99.621622
1584.000000	99.591500
1583.000000	99.559197
1582.000000	99.530076
1581.000000	99.504789
1580.000000	99.481677
1579.000000	99.462412
1578.000000	99.450790
1577.000000	99.450133
1576.000000	99.463293
1575.000000	99.487491
1574.000000	99.510250
1573.000000	99.521938
1572.000000	99.524688
1571.000000	99.528580
1570.000000	99.543699
1569.000000	99.565264
1568.000000	99.582083
1567.000000	99.593429
1566.000000	99.602528
1565.000000	99.608475
1564.000000	99.610054
1563.000000	99.609993
1562.000000	99.608607
1561.000000	99.607922
1560.000000	99.603916
1559.000000	99.581268
1558.000000	99.555962
1557.000000	99.536835
1556.000000	99.519019
1555.000000	99.507388
1554.000000	99.496462
1553.000000	99.484423
1552.000000	99.465109
1551.000000	99.436756
1550.000000	99.398089
1549.000000	99.352151
1548.000000	99.301709
1547.000000	99.245942
1546.000000	99.180597
1545.000000	99.104841
1544.000000	99.026740
1543.000000	98.955648
1542.000000	98.892006
1541.000000	98.838352
1540.000000	98.815534
1539.000000	98.826416
1538.000000	98.839772
1537.000000	98.841022
1536.000000	98.834072
1535.000000	98.825118
1534.000000	98.822201
1533.000000	98.825312
1532.000000	98.826484
1531.000000	98.816504
1530.000000	98.794281
1529.000000	98.762079
1528.000000	98.723221
1527.000000	98.680818
1526.000000	98.636723
1525.000000	98.593788
1524.000000	98.554956
1523.000000	98.518648
1522.000000	98.480559
1521.000000	98.442892
1520.000000	98.409383
1519.000000	98.376556
1518.000000	98.337451
1517.000000	98.290493
1516.000000	98.243628
1515.000000	98.200759
1514.000000	98.156353
1513.000000	98.108681
1512.000000	98.064296
1511.000000	98.026824
1510.000000	97.987001
1509.000000	97.932636
1508.000000	97.863053
1507.000000	97.807751
1506.000000	97.781812
1505.000000	97.755587
1504.000000	97.721283
1503.000000	97.681903
1502.000000	97.631790
1501.000000	97.573677
1500.000000	97.514654
1499.000000	97.463249
1498.000000	97.414892
1497.000000	97.365256
1496.000000	97.321407
1495.000000	97.286623
1494.000000	97.251261
1493.000000	97.206899
1492.000000	97.156137
1491.000000	97.108531
1490.000000	97.069362
1489.000000	97.036447
1488.000000	97.003508
1487.000000	96.966582
1486.000000	96.927062
1485.000000	96.884249
1484.000000	96.837076
1483.000000	96.787809
1482.000000	96.738611
1481.000000	96.690832
1480.000000	96.644858
1479.000000	96.599530
1478.000000	96.552246
1477.000000	96.500588
1476.000000	96.442409
1475.000000	96.375928
1474.000000	96.301865
1473.000000	96.233100
1472.000000	96.188381
1471.000000	96.161107
1470.000000	96.130433
1469.000000	96.089789
1468.000000	96.043466
1467.000000	95.997352
1466.000000	95.955032
1465.000000	95.919449
1464.000000	95.892920
1463.000000	95.870337
1462.000000	95.842875
1461.000000	95.805844
1460.000000	95.758329
1459.000000	95.699899
1458.000000	95.632427
1457.000000	95.579609
1456.000000	95.562018
1455.000000	95.557177
1454.000000	95.539062
1453.000000	95.507022
1452.000000	95.471476
1451.000000	95.439097
1450.000000	95.405648
1449.000000	95.369401
1448.000000	95.337336
1447.000000	95.312630
1446.000000	95.285246
1445.000000	95.247576
1444.000000	95.205262
1443.000000	95.167978
1442.000000	95.138273
1441.000000	95.109906
1440.000000	95.075115
1439.000000	95.030989
1438.000000	94.982794
1437.000000	94.946914
1436.000000	94.935012
1435.000000	94.930381
1434.000000	94.908233
1433.000000	94.866052
1432.000000	94.817475
1431.000000	94.774527
1430.000000	94.735513
1429.000000	94.694104
1428.000000	94.652344
1427.000000	94.613134
1426.000000	94.572581
1425.000000	94.526983
1424.000000	94.481530
1423.000000	94.438513
1422.000000	94.386802
1421.000000	94.318810
1420.000000	94.248859
1419.000000	94.201938
1418.000000	94.174500
1417.000000	94.139705
1416.000000	94.088969
1415.000000	94.028896
1414.000000	93.962779
1413.000000	93.893300
1412.000000	93.829437
1411.000000	93.779181
1410.000000	93.735668
1409.000000	93.687025
1408.000000	93.633734
1407.000000	93.583834
1406.000000	93.538771
1405.000000	93.496077
1404.000000	93.460686
1403.000000	93.434925
1402.000000	93.408393
1401.000000	93.372499
1400.000000	93.334188
1399.000000	93.305114
1398.000000	93.279460
1397.000000	93.243332
1396.000000	93.201495
1395.000000	93.171839
1394.000000	93.155438
1393.000000	93.138426
1392.000000	93.119641
1391.000000	93.106586
1390.000000	93.099841
1389.000000	93.098656
1388.000000	93.112993
1387.000000	93.153202
1386.000000	93.207769
1385.000000	93.258667
1384.000000	93.309198
1383.000000	93.372318
1382.000000	93.448115
1381.000000	93.528149
1380.000000	93.612799
1379.000000	93.707846
1378.000000	93.807830
1377.000000	93.902578
1376.000000	93.997682
1375.000000	94.111391
1374.000000	94.246240
1373.000000	94.380570
1372.000000	94.497878
1371.000000	94.603249
1370.000000	94.708363
1369.000000	94.818876
1368.000000	94.933800
1367.000000	95.045922
1366.000000	95.147989
1365.000000	95.244280
1364.000000	95.350459
1363.000000	95.475936
1362.000000	95.607490
1361.000000	95.723384
1360.000000	95.819900
1359.000000	95.907364
1358.000000	95.993453
1357.000000	96.081297
1356.000000	96.172454
1355.000000	96.263862
1354.000000	96.347656
1353.000000	96.420977
1352.000000	96.489528
1351.000000	96.558236
1350.000000	96.625337
1349.000000	96.687244
1348.000000	96.744924
1347.000000	96.800856
1346.000000	96.854620
1345.000000	96.905377
1344.000000	96.953979
1343.000000	96.999816
1342.000000	97.041180
1341.000000	97.081042
1340.000000	97.127146
1339.000000	97.180983
1338.000000	97.232289
1337.000000	97.273506
1336.000000	97.309419
1335.000000	97.346464
1334.000000	97.383973
1333.000000	97.419226
1332.000000	97.453590
1331.000000	97.489550
1330.000000	97.526306
1329.000000	97.562236
1328.000000	97.597949
1327.000000	97.633924
1326.000000	97.668324
1325.000000	97.699626
1324.000000	97.729311
1323.000000	97.758546
1322.000000	97.785693
1321.000000	97.809821
1320.000000	97.833173
1319.000000	97.857665
1318.000000	97.882264
1317.000000	97.906546
1316.000000	97.932433
1315.000000	97.959932
1314.000000	97.986003
1313.000000	98.010422
1312.000000	98.037519
1311.000000	98.068831
1310.000000	98.098955
1309.000000	98.122540
1308.000000	98.141087
1307.000000	98.159922
1306.000000	98.181882
1305.000000	98.206452
1304.000000	98.232813
1303.000000	98.259419
1302.000000	98.283046
1301.000000	98.301842
1300.000000	98.317995
1299.000000	98.335267
1298.000000	98.355314
1297.000000	98.377477
1296.000000	98.399642
1295.000000	98.418456
1294.000000	98.431560
1293.000000	98.440971
1292.000000	98.451646
1291.000000	98.465450
1290.000000	98.479150
1289.000000	98.489507
1288.000000	98.497111
1287.000000	98.503920
1286.000000	98.510375
1285.000000	98.516953
1284.000000	98.525527
1283.000000	98.536537
1282.000000	98.547119
1281.000000	98.554208
1280.000000	98.558119
1279.000000	98.561917
1278.000000	98.568512
1277.000000	98.579176
1276.000000	98.593043
1275.000000	98.607384
1274.000000	98.619800
1273.000000	98.630530
1272.000000	98.641044
1271.000000	98.650614
1270.000000	98.656810
1269.000000	98.659327
1268.000000	98.660374
1267.000000	98.660962
1266.000000	98.659953
1265.000000	98.657850
1264.000000	98.658314
1263.000000	98.664095
1262.000000	98.673811
1261.000000	98.684113
1260.000000	98.693044
1259.000000	98.700336
1258.000000	98.706420
1257.000000	98.712471
1256.000000	98.719404
1255.000000	98.725857
1254.000000	98.729025
1253.000000	98.728188
1252.000000	98.725621
1251.000000	98.723662
1250.000000	98.722507
1249.000000	98.721028
1248.000000	98.718162
1247.000000	98.713452
1246.000000	98.708058
1245.000000	98.705317
1244.000000	98.707995
1243.000000	98.714818
1242.000000	98.722159
1241.000000	98.728756
1240.000000	98.735464
1239.000000	98.740653
1238.000000	98.740325
1237.000000	98.734189
1236.000000	98.727717
1235.000000	98.726279
1234.000000	98.730224
1233.000000	98.737350
1232.000000	98.746821
1231.000000	98.757927
1230.000000	98.768121
1229.000000	98.775988
1228.000000	98.784202
1227.000000	98.796362
1226.000000	98.812054
1225.000000	98.827797
1224.000000	98.842111
1223.000000	98.856756
1222.000000	98.873107
1221.000000	98.889725
1220.000000	98.904161
1219.000000	98.915777
1218.000000	98.925952
1217.000000	98.936013
1216.000000	98.945663
1215.000000	98.953769
1214.000000	98.960431
1213.000000	98.967365
1212.000000	98.975518
1211.000000	98.983065
1210.000000	98.987144
1209.000000	98.987136
1208.000000	98.984993
1207.000000	98.982807
1206.000000	98.981490
1205.000000	98.981392
1204.000000	98.982651
1203.000000	98.985140
1202.000000	98.989293
1201.000000	98.996465
1200.000000	99.006844
1199.000000	99.017510
1198.000000	99.024449
1197.000000	99.026684
1196.000000	99.026899
1195.000000	99.028024
1194.000000	99.030830
1193.000000	99.034724
1192.000000	99.039212
1191.000000	99.044169
1190.000000	99.049781
1189.000000	99.056236
1188.000000	99.062574
1187.000000	99.066273
1186.000000	99.065175
1185.000000	99.059625
1184.000000	99.051735
1183.000000	99.043606
1182.000000	99.037494
1181.000000	99.036090
1180.000000	99.040142
1179.000000	99.046341
1178.000000	99.049830
1177.000000	99.048657
1176.000000	99.044131
1175.000000	99.037888
1174.000000	99.030913
1173.000000	99.024777
1172.000000	99.021504
1171.000000	99.021863
1170.000000	99.025011
1169.000000	99.029473
1168.000000	99.033211
1167.000000	99.033715
1166.000000	99.030326
1165.000000	99.026049
1164.000000	99.024866
1163.000000	99.027279
1162.000000	99.030438
1161.000000	99.032523
1160.000000	99.034846
1159.000000	99.039516
1158.000000	99.046938
1157.000000	99.055907
1156.000000	99.064765
1155.000000	99.072243
1154.000000	99.078384
1153.000000	99.084694
1152.000000	99.092348
1151.000000	99.100856
1150.000000	99.109600
1149.000000	99.119552
1148.000000	99.131582
1147.000000	99.144018
1146.000000	99.154179
1145.000000	99.161929
1144.000000	99.169566
1143.000000	99.178313
1142.000000	99.186771
1141.000000	99.192920
1140.000000	99.196298
1139.000000	99.198266
1138.000000	99.200992
1137.000000	99.205772
1136.000000	99.211736
1135.000000	99.217190
1134.000000	99.222674
1133.000000	99.230628
1132.000000	99.240821
1131.000000	99.248418
1130.000000	99.248989
1129.000000	99.243957
1128.000000	99.239097
1127.000000	99.239173
1126.000000	99.245808
1125.000000	99.258219
1124.000000	99.272988
1123.000000	99.284502
1122.000000	99.288913
1121.000000	99.287435
1120.000000	99.284035
1119.000000	99.281206
1118.000000	99.279430
1117.000000	99.278318
1116.000000	99.275760
1115.000000	99.268444
1114.000000	99.256534
1113.000000	99.245591
1112.000000	99.240339
1111.000000	99.238839
1110.000000	99.236568
1109.000000	99.233805
1108.000000	99.234231
1107.000000	99.237434
1106.000000	99.238660
1105.000000	99.235836
1104.000000	99.231316
1103.000000	99.226532
1102.000000	99.219717
1101.000000	99.210664
1100.000000	99.202978
1099.000000	99.199288
1098.000000	99.198908
1097.000000	99.199784
1096.000000	99.200659
1095.000000	99.200181
1094.000000	99.197453
1093.000000	99.194037
1092.000000	99.192007
1091.000000	99.189448
1090.000000	99.181495
1089.000000	99.166863
1088.000000	99.149712
1087.000000	99.133989
1086.000000	99.119835
1085.000000	99.107272
1084.000000	99.099536
1083.000000	99.099288
1082.000000	99.103376
1081.000000	99.104412
1080.000000	99.097510
1079.000000	99.084760
1078.000000	99.074036
1077.000000	99.073560
1076.000000	99.085457
1075.000000	99.103658
1074.000000	99.119437
1073.000000	99.129224
1072.000000	99.135377
1071.000000	99.140346
1070.000000	99.143768
1069.000000	99.145407
1068.000000	99.146886
1067.000000	99.149067
1066.000000	99.151063
1065.000000	99.153549
1064.000000	99.159738
1063.000000	99.170483
1062.000000	99.180861
1061.000000	99.184618
1060.000000	99.180993
1059.000000	99.175060
1058.000000	99.172202
1057.000000	99.173869
1056.000000	99.177820
1055.000000	99.180731
1054.000000	99.180759
1053.000000	99.178813
1052.000000	99.177505
1051.000000	99.178379
1050.000000	99.180390
1049.000000	99.181407
1048.000000	99.180804
1047.000000	99.180472
1046.000000	99.183377
1045.000000	99.190475
1044.000000	99.198654
1043.000000	99.202740
1042.000000	99.200543
1041.000000	99.195061
1040.000000	99.190712
1039.000000	99.189178
1038.000000	99.190228
1037.000000	99.194135
1036.000000	99.200204
1035.000000	99.204653
1034.000000	99.204013
1033.000000	99.200241
1032.000000	99.198756
1031.000000	99.201286
1030.000000	99.204523
1029.000000	99.206317
1028.000000	99.209005
1027.000000	99.214695
1026.000000	99.220911
1025.000000	99.223968
1024.000000	99.224694
1023.000000	99.228067
1022.000000	99.237915
1021.000000	99.253578
1020.000000	99.270849
1019.000000	99.284415
1018.000000	99.290171
1017.000000	99.286944
1016.000000	99.276824
1015.000000	99.264349
1014.000000	99.255704
1013.000000	99.257045
1012.000000	99.270610
1011.000000	99.291644
1010.000000	99.311232
1009.000000	99.324057
1008.000000	99.332648
1007.000000	99.343021
1006.000000	99.357376
1005.000000	99.372100
1004.000000	99.382179
1003.000000	99.386511
1002.000000	99.389096
1001.000000	99.395813
1000.000000	99.409865
999.000000	99.429707
998.000000	99.450773
997.000000	99.468809
996.000000	99.481683
995.000000	99.489504
994.000000	99.494601
993.000000	99.501083
992.000000	99.512667
991.000000	99.529591
990.000000	99.547651
989.000000	99.561042
988.000000	99.567303
987.000000	99.570066
986.000000	99.576341
985.000000	99.589490
984.000000	99.605022
983.000000	99.614980
982.000000	99.616374
981.000000	99.613450
980.000000	99.611731
979.000000	99.612645
978.000000	99.614902
977.000000	99.617842
976.000000	99.621118
975.000000	99.623463
974.000000	99.624420
973.000000	99.625705
972.000000	99.628422
971.000000	99.630564
970.000000	99.629954
969.000000	99.628276
968.000000	99.629299
967.000000	99.634272
966.000000	99.642055
965.000000	99.652829
964.000000	99.667823
963.000000	99.685174
962.000000	99.699564
961.000000	99.707386
960.000000	99.710458
959.000000	99.713888
958.000000	99.721873
957.000000	99.735346
956.000000	99.751591
955.000000	99.765838
954.000000	99.775069
953.000000	99.780884
952.000000	99.787400
951.000000	99.796287
950.000000	99.805247
949.000000	99.811172
948.000000	99.813293
947.000000	99.813611
946.000000	99.815515
945.000000	99.821193
944.000000	99.828921
943.000000	99.833895
942.000000	99.834042
941.000000	99.833940
940.000000	99.839910
939.000000	99.851935
938.000000	99.863736
937.000000	99.871340
936.000000	99.877996
935.000000	99.888848
934.000000	99.903391
933.000000	99.915152
932.000000	99.917743
931.000000	99.910123
930.000000	99.897428
929.000000	99.888064
928.000000	99.888706
927.000000	99.900085
926.000000	99.917031
925.000000	99.932744
924.000000	99.943258
923.000000	99.948722
922.000000	99.951642
921.000000	99.954115
920.000000	99.956212
919.000000	99.957103
918.000000	99.957778
917.000000	99.961187
916.000000	99.968580
915.000000	99.977127
914.000000	99.983157
913.000000	99.987029
912.000000	99.992233
911.000000	99.999840
910.000000	100.006355
909.000000	100.007850
908.000000	100.004538
907.000000	100.000249
906.000000	99.998593
905.000000	100.000401
904.000000	100.004335
903.000000	100.009405
902.000000	100.016404
901.000000	100.026312
900.000000	100.037657
899.000000	100.047462
898.000000	100.055627
897.000000	100.065425
896.000000	100.078022
895.000000	100.089230
894.000000	100.095272
893.000000	100.099566
892.000000	100.109209
891.000000	100.125586
890.000000	100.142467
889.000000	100.152793
888.000000	100.152138
887.000000	100.133723
886.000000	100.085441
885.000000	99.993474
884.000000	99.845412
883.000000	99.629787
882.000000	99.335238
881.000000	98.954504
880.000000	98.486489
879.000000	97.934898
878.000000	97.309796
877.000000	96.628140
876.000000	95.907608
875.000000	95.161281
874.000000	94.424884
873.000000	93.809857
872.000000	93.516868
871.000000	93.734088
870.000000	94.475556
869.000000	95.531087
868.000000	96.593879
867.000000	97.446199
866.000000	98.039564
865.000000	98.436548
864.000000	98.714925
863.000000	98.925132
862.000000	99.094870
861.000000	99.236775
860.000000	99.349999
859.000000	99.429316
858.000000	99.479684
857.000000	99.515547
856.000000	99.548229
855.000000	99.581153
854.000000	99.614550
853.000000	99.646071
852.000000	99.665519
851.000000	99.659248
850.000000	99.626299
849.000000	99.586633
848.000000	99.568567
847.000000	99.587261
846.000000	99.635300
845.000000	99.691591
844.000000	99.737460
843.000000	99.766897
842.000000	99.785455
841.000000	99.801226
840.000000	99.817168
839.000000	99.830993
838.000000	99.840079
837.000000	99.845012
836.000000	99.849694
835.000000	99.859546
834.000000	99.877530
833.000000	99.899528
832.000000	99.915831
831.000000	99.920941
830.000000	99.921164
829.000000	99.928770
828.000000	99.948231
827.000000	99.971636
826.000000	99.987625
825.000000	99.991263
824.000000	99.985097
823.000000	99.975021
822.000000	99.966944
821.000000	99.964464
820.000000	99.967539
819.000000	99.974206
818.000000	99.983265
817.000000	99.993264
816.000000	100.000060
815.000000	99.999373
814.000000	99.992716
813.000000	99.987441
812.000000	99.989000
811.000000	99.995125
810.000000	99.998955
809.000000	99.996867
808.000000	99.992579
807.000000	99.994122
806.000000	100.006439
805.000000	100.025635
804.000000	100.041205
803.000000	100.045039
802.000000	100.037064
801.000000	100.022010
800.000000	100.004595
799.000000	99.990223
798.000000	99.985304
797.000000	99.990774
796.000000	99.998005
795.000000	99.998154
794.000000	99.994282
793.000000	99.996987
792.000000	100.008648
791.000000	100.020021
790.000000	100.024036
789.000000	100.025273
788.000000	100.031562
787.000000	100.042171
786.000000	100.049592
785.000000	100.049569
784.000000	100.044498
783.000000	100.038623
782.000000	100.034114
781.000000	100.031673
780.000000	100.032100
779.000000	100.036153
778.000000	100.042771
777.000000	100.047516
776.000000	100.044776
775.000000	100.034030
774.000000	100.022767
773.000000	100.019809
772.000000	100.025752
771.000000	100.032908
770.000000	100.034057
769.000000	100.027871
768.000000	100.016954
767.000000	100.006142
766.000000	100.003097
765.000000	100.014113
764.000000	100.036344
763.000000	100.058577
762.000000	100.072451
761.000000	100.079142
760.000000	100.082998
759.000000	100.083741
758.000000	100.079475
757.000000	100.073526
756.000000	100.072574
755.000000	100.078946
754.000000	100.088794
753.000000	100.097804
752.000000	100.105461
751.000000	100.112841
750.000000	100.118279
749.000000	100.117654
748.000000	100.109754
747.000000	100.099768
746.000000	100.095099
745.000000	100.097050
744.000000	100.099315
743.000000	100.096700
742.000000	100.092193
741.000000	100.091849
740.000000	100.095753
739.000000	100.098836
738.000000	100.097854
737.000000	100.091912
736.000000	100.078698
735.000000	100.057482
734.000000	100.035060
733.000000	100.020689
732.000000	100.014520
731.000000	100.008420
730.000000	99.999095
729.000000	99.991433
728.000000	99.990271
727.000000	99.994514
726.000000	99.997116
725.000000	99.989525
724.000000	99.967016
723.000000	99.932296
722.000000	99.892311
721.000000	99.849144
720.000000	99.796181
719.000000	99.724394
718.000000	99.626500
717.000000	99.490505
716.000000	99.300316
715.000000	99.061397
714.000000	98.826924
713.000000	98.679336
712.000000	98.672228
711.000000	98.790284
710.000000	98.967902
709.000000	99.139160
708.000000	99.271495
707.000000	99.368467
706.000000	99.447902
705.000000	99.520555
704.000000	99.585665
703.000000	99.637797
702.000000	99.676659
701.000000	99.707536
700.000000	99.731787
699.000000	99.747261
698.000000	99.753265
697.000000	99.752340
696.000000	99.750020
695.000000	99.752392
694.000000	99.768008
693.000000	99.800971
692.000000	99.839036
691.000000	99.864528
690.000000	99.872311
689.000000	99.871973
688.000000	99.873388
687.000000	99.877031
686.000000	99.884969
685.000000	99.901965
684.000000	99.920093
683.000000	99.923337
682.000000	99.909779
681.000000	99.892858
680.000000	99.878251
679.000000	99.861840
678.000000	99.850075
677.000000	99.851173
676.000000	99.858841
675.000000	99.859821
674.000000	99.858732
673.000000	99.876301
672.000000	99.924832
671.000000	100.007711
670.000000	100.131960
669.000000	100.283881
668.000000	100.344504
667.000000	100.238394
666.000000	100.092625
665.000000	99.959798
664.000000	99.849901
663.000000	99.787277
662.000000	99.777844
661.000000	99.803775
660.000000	99.837374
659.000000	99.862914
658.000000	99.874587
657.000000	99.865599
656.000000	99.842762
655.000000	99.827353
654.000000	99.826450
653.000000	99.825514
652.000000	99.820843
651.000000	99.829165
650.000000	99.857192
649.000000	99.883623
648.000000	99.889265
647.000000	99.881696
646.000000	99.875290
645.000000	99.872454
644.000000	99.869904
643.000000	99.865686
642.000000	99.857346
641.000000	99.841480
640.000000	99.822633
639.000000	99.813227
638.000000	99.816067
637.000000	99.820682
636.000000	99.822861
635.000000	99.828966
634.000000	99.839496
633.000000	99.845317
632.000000	99.843810
631.000000	99.845760
630.000000	99.859252
629.000000	99.876591
628.000000	99.886052
627.000000	99.886699
626.000000	99.882974
625.000000	99.878059
624.000000	99.872499
623.000000	99.863598
622.000000	99.847421
621.000000	99.826460
620.000000	99.812141
619.000000	99.811276
618.000000	99.813995
617.000000	99.805653
616.000000	99.788130
615.000000	99.775890
614.000000	99.773504
613.000000	99.772404
612.000000	99.769593
611.000000	99.773378
610.000000	99.787195
609.000000	99.801332
608.000000	99.807208
607.000000	99.809164
606.000000	99.812440
605.000000	99.814687
604.000000	99.812859
603.000000	99.809563
602.000000	99.809092
601.000000	99.811966
600.000000	99.816989
599.000000	99.824811
598.000000	99.834777
597.000000	99.842467
596.000000	99.844094
595.000000	99.840595
594.000000	99.835087
593.000000	99.829075
592.000000	99.823917
591.000000	99.822608
590.000000	99.826995
589.000000	99.834585
588.000000	99.839874
587.000000	99.836818
586.000000	99.821314
585.000000	99.796534
584.000000	99.774167
583.000000	99.765172
582.000000	99.769908
581.000000	99.781742
580.000000	99.796417
579.000000	99.811722
578.000000	99.819602
577.000000	99.811136
576.000000	99.791319
575.000000	99.776678
574.000000	99.773545
573.000000	99.772005
572.000000	99.767147
571.000000	99.770038
570.000000	99.789615
569.000000	99.811596
568.000000	99.809746
567.000000	99.775494
566.000000	99.727264
565.000000	99.692050
564.000000	99.683937
563.000000	99.698855
562.000000	99.721689
561.000000	99.740413
560.000000	99.755834
559.000000	99.774713
558.000000	99.794848
557.000000	99.805449
556.000000	99.802580
555.000000	99.796271
554.000000	99.797914
553.000000	99.805747
552.000000	99.807112
551.000000	99.790287
550.000000	99.754350
549.000000	99.713256
548.000000	99.690436
547.000000	99.701424
546.000000	99.736458
545.000000	99.765933
544.000000	99.769494
543.000000	99.752676
542.000000	99.734362
541.000000	99.728493
540.000000	99.738942
539.000000	99.759855
538.000000	99.773283
537.000000	99.759497
536.000000	99.721127
535.000000	99.690674
534.000000	99.699510
533.000000	99.742138
532.000000	99.780478
531.000000	99.782799
530.000000	99.750958
529.000000	99.708893
528.000000	99.675107
527.000000	99.656136
526.000000	99.655769
525.000000	99.673561
524.000000	99.697334
523.000000	99.709729
522.000000	99.705300
521.000000	99.697438
520.000000	99.703312
519.000000	99.723323
518.000000	99.743495
517.000000	99.759781
516.000000	99.783624
515.000000	99.816819
514.000000	99.842534
513.000000	99.849572
512.000000	99.850040
511.000000	99.861702
510.000000	99.883226
509.000000	99.901442
508.000000	99.913460
507.000000	99.927269
506.000000	99.940609
505.000000	99.937386
504.000000	99.909833
503.000000	99.870199
502.000000	99.838965
501.000000	99.823962
500.000000	99.816061
499.000000	99.806534
498.000000	99.797233
497.000000	99.794951
496.000000	99.799145
495.000000	99.797701
494.000000	99.782137
493.000000	99.764756
492.000000	99.768295
491.000000	99.795109
490.000000	99.820283
489.000000	99.826914
488.000000	99.827282
487.000000	99.837414
486.000000	99.847626
485.000000	99.838552
484.000000	99.820554
483.000000	99.826520
482.000000	99.862949
481.000000	99.898817
480.000000	99.906767
479.000000	99.887077
478.000000	99.849468
477.000000	99.803688
476.000000	99.774399
475.000000	99.795710
474.000000	99.871072
473.000000	99.953697
472.000000	99.988992
471.000000	99.974851
470.000000	99.942287
469.000000	99.904675
468.000000	99.862658
467.000000	99.826676
466.000000	99.806905
465.000000	99.799078
464.000000	99.800198
463.000000	99.815012
462.000000	99.832584
461.000000	99.823133
460.000000	99.780068
459.000000	99.739111
458.000000	99.736791
457.000000	99.762253
456.000000	99.790105
455.000000	99.835133
454.000000	99.922757
453.000000	100.036432
452.000000	100.123772
451.000000	100.151483
450.000000	100.132895
