PE IR       SUBTECH     SPECTRUM    ASCII       PEDS        4.00        
   -1
AD10-F014_1.ASC
23/09/08
10:57:28.00
23/09/08
11:14:38.00
uco
Sample 014 By uco Date Friday, September 08 2023
450.000000
#HDR
-1
-1
#GR
cm-1
%T
1.0
0.0
4000.000000
-1.000000
3551
8
100.429128
94.520268
#DATA
4000.000000	100.190205
3999.000000	100.187662
3998.000000	100.190693
3997.000000	100.190911
3996.000000	100.190380
3995.000000	100.189505
3994.000000	100.189621
3993.000000	100.191430
3992.000000	100.194033
3991.000000	100.195535
3990.000000	100.194832
3989.000000	100.192843
3988.000000	100.191793
3987.000000	100.193056
3986.000000	100.195632
3985.000000	100.196798
3984.000000	100.194293
3983.000000	100.188164
3982.000000	100.180783
3981.000000	100.175208
3980.000000	100.173385
3979.000000	100.175152
3978.000000	100.178581
3977.000000	100.181271
3976.000000	100.181792
3975.000000	100.180307
3974.000000	100.177853
3973.000000	100.175324
3972.000000	100.173162
3971.000000	100.171785
3970.000000	100.171561
3969.000000	100.172197
3968.000000	100.172742
3967.000000	100.172568
3966.000000	100.172329
3965.000000	100.173364
3964.000000	100.175928
3963.000000	100.178296
3962.000000	100.177936
3961.000000	100.173779
3960.000000	100.167357
3959.000000	100.162057
3958.000000	100.160999
3957.000000	100.164893
3956.000000	100.171322
3955.000000	100.176042
3954.000000	100.176011
3953.000000	100.171302
3952.000000	100.164402
3951.000000	100.158261
3950.000000	100.154620
3949.000000	100.153864
3948.000000	100.155502
3947.000000	100.158749
3946.000000	100.163318
3945.000000	100.168750
3944.000000	100.173010
3943.000000	100.172919
3942.000000	100.166569
3941.000000	100.155585
3940.000000	100.144214
3939.000000	100.136403
3938.000000	100.133720
3937.000000	100.135460
3936.000000	100.140050
3935.000000	100.145468
3934.000000	100.149360
3933.000000	100.150068
3932.000000	100.147880
3931.000000	100.144935
3930.000000	100.143058
3929.000000	100.142968
3928.000000	100.145029
3927.000000	100.148632
3926.000000	100.151552
3925.000000	100.151403
3924.000000	100.148425
3923.000000	100.145143
3922.000000	100.143206
3921.000000	100.141976
3920.000000	100.140408
3919.000000	100.139066
3918.000000	100.139596
3917.000000	100.142278
3916.000000	100.145185
3915.000000	100.146344
3914.000000	100.145182
3913.000000	100.142583
3912.000000	100.140105
3911.000000	100.139418
3910.000000	100.141155
3909.000000	100.144065
3908.000000	100.145906
3907.000000	100.143949
3906.000000	100.135539
3905.000000	100.119805
3904.000000	100.101125
3903.000000	100.088515
3902.000000	100.088210
3901.000000	100.098014
3900.000000	100.109934
3899.000000	100.116798
3898.000000	100.117204
3897.000000	100.114600
3896.000000	100.112579
3895.000000	100.113197
3894.000000	100.116894
3893.000000	100.122168
3892.000000	100.125648
3891.000000	100.124715
3890.000000	100.120617
3889.000000	100.118226
3888.000000	100.121407
3887.000000	100.127824
3886.000000	100.131324
3885.000000	100.130040
3884.000000	100.128327
3883.000000	100.130545
3882.000000	100.136102
3881.000000	100.140359
3880.000000	100.139732
3879.000000	100.134455
3878.000000	100.127808
3877.000000	100.123370
3876.000000	100.121622
3875.000000	100.119485
3874.000000	100.115123
3873.000000	100.111819
3872.000000	100.113899
3871.000000	100.120291
3870.000000	100.125253
3869.000000	100.126269
3868.000000	100.126984
3867.000000	100.131416
3866.000000	100.137860
3865.000000	100.140631
3864.000000	100.137249
3863.000000	100.130614
3862.000000	100.124214
3861.000000	100.119689
3860.000000	100.117741
3859.000000	100.117757
3858.000000	100.119541
3857.000000	100.124797
3856.000000	100.136079
3855.000000	100.150471
3854.000000	100.155246
3853.000000	100.148263
3852.000000	100.139476
3851.000000	100.132584
3850.000000	100.127086
3849.000000	100.123338
3848.000000	100.122163
3847.000000	100.125073
3846.000000	100.132121
3845.000000	100.140985
3844.000000	100.147320
3843.000000	100.147371
3842.000000	100.141279
3841.000000	100.133655
3840.000000	100.129379
3839.000000	100.129719
3838.000000	100.132685
3837.000000	100.134912
3836.000000	100.135589
3835.000000	100.137553
3834.000000	100.143882
3833.000000	100.153882
3832.000000	100.162805
3831.000000	100.165686
3830.000000	100.162374
3829.000000	100.157315
3828.000000	100.154442
3827.000000	100.153281
3826.000000	100.150577
3825.000000	100.145978
3824.000000	100.143119
3823.000000	100.144602
3822.000000	100.146596
3821.000000	100.144637
3820.000000	100.140696
3819.000000	100.138543
3818.000000	100.140085
3817.000000	100.141678
3816.000000	100.138729
3815.000000	100.133438
3814.000000	100.131786
3813.000000	100.135621
3812.000000	100.141510
3811.000000	100.146216
3810.000000	100.149949
3809.000000	100.153919
3808.000000	100.155497
3807.000000	100.151087
3806.000000	100.142874
3805.000000	100.138248
3804.000000	100.141956
3803.000000	100.150334
3802.000000	100.152644
3801.000000	100.144261
3800.000000	100.131818
3799.000000	100.124436
3798.000000	100.125060
3797.000000	100.130217
3796.000000	100.135222
3795.000000	100.138759
3794.000000	100.141971
3793.000000	100.145124
3792.000000	100.146938
3791.000000	100.146578
3790.000000	100.144502
3789.000000	100.141618
3788.000000	100.138746
3787.000000	100.136576
3786.000000	100.135667
3785.000000	100.136489
3784.000000	100.139452
3783.000000	100.144788
3782.000000	100.151613
3781.000000	100.156610
3780.000000	100.155432
3779.000000	100.147778
3778.000000	100.138310
3777.000000	100.131715
3776.000000	100.128737
3775.000000	100.127015
3774.000000	100.124670
3773.000000	100.122338
3772.000000	100.121143
3771.000000	100.120113
3770.000000	100.117875
3769.000000	100.115227
3768.000000	100.114637
3767.000000	100.117196
3766.000000	100.121170
3765.000000	100.123406
3764.000000	100.122765
3763.000000	100.121563
3762.000000	100.122162
3761.000000	100.123725
3760.000000	100.123400
3759.000000	100.119699
3758.000000	100.112716
3757.000000	100.103693
3756.000000	100.095882
3755.000000	100.092434
3754.000000	100.091963
3753.000000	100.088496
3752.000000	100.079631
3751.000000	100.074173
3750.000000	100.080735
3749.000000	100.092111
3748.000000	100.099058
3747.000000	100.102400
3746.000000	100.104876
3745.000000	100.104956
3744.000000	100.104760
3743.000000	100.110063
3742.000000	100.121518
3741.000000	100.134841
3740.000000	100.145511
3739.000000	100.150244
3738.000000	100.146805
3737.000000	100.133310
3736.000000	100.116917
3735.000000	100.114786
3734.000000	100.132632
3733.000000	100.156261
3732.000000	100.169514
3731.000000	100.167980
3730.000000	100.156685
3729.000000	100.142041
3728.000000	100.127897
3727.000000	100.115993
3726.000000	100.107802
3725.000000	100.103826
3724.000000	100.102617
3723.000000	100.103317
3722.000000	100.106938
3721.000000	100.114947
3720.000000	100.126205
3719.000000	100.136443
3718.000000	100.141139
3717.000000	100.139146
3716.000000	100.134442
3715.000000	100.131877
3714.000000	100.130860
3713.000000	100.125569
3712.000000	100.114051
3711.000000	100.105250
3710.000000	100.108074
3709.000000	100.120137
3708.000000	100.133971
3707.000000	100.144791
3706.000000	100.152333
3705.000000	100.159758
3704.000000	100.169504
3703.000000	100.179784
3702.000000	100.185373
3701.000000	100.182604
3700.000000	100.173244
3699.000000	100.162850
3698.000000	100.155859
3697.000000	100.152508
3696.000000	100.150061
3695.000000	100.145618
3694.000000	100.138292
3693.000000	100.130809
3692.000000	100.128941
3691.000000	100.137777
3690.000000	100.155316
3689.000000	100.170455
3688.000000	100.171643
3687.000000	100.158734
3686.000000	100.142528
3685.000000	100.132400
3684.000000	100.130258
3683.000000	100.133134
3682.000000	100.136915
3681.000000	100.137176
3680.000000	100.131340
3679.000000	100.122848
3678.000000	100.119579
3677.000000	100.125979
3676.000000	100.136641
3675.000000	100.142950
3674.000000	100.140072
3673.000000	100.132623
3672.000000	100.127321
3671.000000	100.125184
3670.000000	100.125301
3669.000000	100.129322
3668.000000	100.136456
3667.000000	100.144218
3666.000000	100.150969
3665.000000	100.155608
3664.000000	100.157500
3663.000000	100.156647
3662.000000	100.153222
3661.000000	100.147877
3660.000000	100.143227
3659.000000	100.142888
3658.000000	100.147820
3657.000000	100.153888
3656.000000	100.155250
3655.000000	100.150572
3654.000000	100.143632
3653.000000	100.138935
3652.000000	100.136882
3651.000000	100.134251
3650.000000	100.131323
3649.000000	100.134910
3648.000000	100.144435
3647.000000	100.149944
3646.000000	100.147907
3645.000000	100.143193
3644.000000	100.140383
3643.000000	100.139897
3642.000000	100.139869
3641.000000	100.138845
3640.000000	100.136944
3639.000000	100.134750
3638.000000	100.132994
3637.000000	100.133011
3636.000000	100.135249
3635.000000	100.137438
3634.000000	100.136274
3633.000000	100.132307
3632.000000	100.130217
3631.000000	100.133658
3630.000000	100.140363
3629.000000	100.147177
3628.000000	100.154564
3627.000000	100.159819
3626.000000	100.161299
3625.000000	100.160831
3624.000000	100.161866
3623.000000	100.167675
3622.000000	100.178790
3621.000000	100.190559
3620.000000	100.195320
3619.000000	100.189436
3618.000000	100.176817
3617.000000	100.164337
3616.000000	100.157338
3615.000000	100.156753
3614.000000	100.158180
3613.000000	100.155655
3612.000000	100.147757
3611.000000	100.139201
3610.000000	100.135947
3609.000000	100.141060
3608.000000	100.153303
3607.000000	100.167288
3606.000000	100.177050
3605.000000	100.180136
3604.000000	100.178348
3603.000000	100.174721
3602.000000	100.171195
3601.000000	100.168297
3600.000000	100.166066
3599.000000	100.164395
3598.000000	100.162543
3597.000000	100.159405
3596.000000	100.154828
3595.000000	100.150927
3594.000000	100.150743
3593.000000	100.155505
3592.000000	100.163011
3591.000000	100.170055
3590.000000	100.173986
3589.000000	100.173466
3588.000000	100.170443
3587.000000	100.170486
3586.000000	100.175100
3585.000000	100.180332
3584.000000	100.183036
3583.000000	100.182629
3582.000000	100.179827
3581.000000	100.175724
3580.000000	100.170747
3579.000000	100.164593
3578.000000	100.156828
3577.000000	100.148003
3576.000000	100.139577
3575.000000	100.133344
3574.000000	100.130489
3573.000000	100.130954
3572.000000	100.133727
3571.000000	100.137506
3570.000000	100.141303
3569.000000	100.143875
3568.000000	100.145012
3567.000000	100.146980
3566.000000	100.150731
3565.000000	100.153056
3564.000000	100.152693
3563.000000	100.152081
3562.000000	100.153780
3561.000000	100.158333
3560.000000	100.164642
3559.000000	100.171024
3558.000000	100.176205
3557.000000	100.179407
3556.000000	100.180167
3555.000000	100.178034
3554.000000	100.172619
3553.000000	100.164257
3552.000000	100.154916
3551.000000	100.147344
3550.000000	100.143283
3549.000000	100.142926
3548.000000	100.145824
3547.000000	100.152213
3546.000000	100.162654
3545.000000	100.175590
3544.000000	100.186566
3543.000000	100.191338
3542.000000	100.188842
3541.000000	100.181609
3540.000000	100.174052
3539.000000	100.169611
3538.000000	100.168617
3537.000000	100.168393
3536.000000	100.166176
3535.000000	100.162014
3534.000000	100.158712
3533.000000	100.159195
3532.000000	100.163682
3531.000000	100.169125
3530.000000	100.171024
3529.000000	100.166894
3528.000000	100.158549
3527.000000	100.150872
3526.000000	100.147831
3525.000000	100.150056
3524.000000	100.155390
3523.000000	100.160821
3522.000000	100.164286
3521.000000	100.165832
3520.000000	100.167406
3519.000000	100.170612
3518.000000	100.174707
3517.000000	100.177192
3516.000000	100.176548
3515.000000	100.173817
3514.000000	100.171075
3513.000000	100.169240
3512.000000	100.167901
3511.000000	100.166874
3510.000000	100.166964
3509.000000	100.168816
3508.000000	100.171565
3507.000000	100.173211
3506.000000	100.172263
3505.000000	100.168933
3504.000000	100.165880
3503.000000	100.166910
3502.000000	100.173121
3501.000000	100.181017
3500.000000	100.185710
3499.000000	100.185554
3498.000000	100.183116
3497.000000	100.182484
3496.000000	100.185296
3495.000000	100.189368
3494.000000	100.190979
3493.000000	100.188336
3492.000000	100.182661
3491.000000	100.176376
3490.000000	100.170897
3489.000000	100.166270
3488.000000	100.162337
3487.000000	100.159375
3486.000000	100.157472
3485.000000	100.156037
3484.000000	100.154677
3483.000000	100.154383
3482.000000	100.157016
3481.000000	100.162921
3480.000000	100.169609
3479.000000	100.173696
3478.000000	100.174213
3477.000000	100.173287
3476.000000	100.173559
3475.000000	100.175255
3474.000000	100.176300
3473.000000	100.175292
3472.000000	100.173373
3471.000000	100.172723
3470.000000	100.173888
3469.000000	100.175469
3468.000000	100.175981
3467.000000	100.175248
3466.000000	100.174184
3465.000000	100.174040
3464.000000	100.175990
3463.000000	100.180516
3462.000000	100.186559
3461.000000	100.191841
3460.000000	100.194625
3459.000000	100.195110
3458.000000	100.194798
3457.000000	100.194641
3456.000000	100.194312
3455.000000	100.192997
3454.000000	100.190429
3453.000000	100.187110
3452.000000	100.183767
3451.000000	100.180957
3450.000000	100.178833
3449.000000	100.177328
3448.000000	100.176652
3447.000000	100.177322
3446.000000	100.179068
3445.000000	100.180384
3444.000000	100.179899
3443.000000	100.177880
3442.000000	100.175867
3441.000000	100.174794
3440.000000	100.174057
3439.000000	100.172576
3438.000000	100.170295
3437.000000	100.168240
3436.000000	100.167400
3435.000000	100.167786
3434.000000	100.168503
3433.000000	100.168829
3432.000000	100.169172
3431.000000	100.170775
3430.000000	100.174003
3429.000000	100.177512
3428.000000	100.179770
3427.000000	100.181025
3426.000000	100.182806
3425.000000	100.185614
3424.000000	100.188154
3423.000000	100.188921
3422.000000	100.187619
3421.000000	100.184711
3420.000000	100.180445
3419.000000	100.174997
3418.000000	100.169208
3417.000000	100.164460
3416.000000	100.161746
3415.000000	100.161022
3414.000000	100.161366
3413.000000	100.161919
3412.000000	100.162923
3411.000000	100.165553
3410.000000	100.170294
3409.000000	100.175736
3408.000000	100.179612
3407.000000	100.180941
3406.000000	100.180574
3405.000000	100.179779
3404.000000	100.179066
3403.000000	100.178441
3402.000000	100.177938
3401.000000	100.177485
3400.000000	100.176491
3399.000000	100.174070
3398.000000	100.169828
3397.000000	100.164657
3396.000000	100.160773
3395.000000	100.160444
3394.000000	100.163916
3393.000000	100.168459
3392.000000	100.170166
3391.000000	100.167231
3390.000000	100.161303
3389.000000	100.155466
3388.000000	100.151360
3387.000000	100.148324
3386.000000	100.144824
3385.000000	100.140185
3384.000000	100.134983
3383.000000	100.130300
3382.000000	100.127041
3381.000000	100.125861
3380.000000	100.127008
3379.000000	100.129742
3378.000000	100.132127
3377.000000	100.132311
3376.000000	100.130439
3375.000000	100.128954
3374.000000	100.130451
3373.000000	100.135033
3372.000000	100.139738
3371.000000	100.140519
3370.000000	100.135047
3369.000000	100.124345
3368.000000	100.112372
3367.000000	100.103567
3366.000000	100.099710
3365.000000	100.098639
3364.000000	100.096442
3363.000000	100.091252
3362.000000	100.084836
3361.000000	100.080437
3360.000000	100.079409
3359.000000	100.080278
3358.000000	100.080718
3357.000000	100.079804
3356.000000	100.078228
3355.000000	100.076918
3354.000000	100.076155
3353.000000	100.076031
3352.000000	100.077055
3351.000000	100.079553
3350.000000	100.082591
3349.000000	100.084211
3348.000000	100.083138
3347.000000	100.079896
3346.000000	100.075955
3345.000000	100.072257
3344.000000	100.069077
3343.000000	100.066878
3342.000000	100.066162
3341.000000	100.066262
3340.000000	100.065341
3339.000000	100.062358
3338.000000	100.058625
3337.000000	100.056567
3336.000000	100.056892
3335.000000	100.057585
3334.000000	100.055942
3333.000000	100.051305
3332.000000	100.045588
3331.000000	100.041456
3330.000000	100.040116
3329.000000	100.040566
3328.000000	100.040725
3327.000000	100.039321
3326.000000	100.036888
3325.000000	100.035027
3324.000000	100.034720
3323.000000	100.035477
3322.000000	100.036021
3321.000000	100.035671
3320.000000	100.034944
3319.000000	100.034902
3318.000000	100.035949
3317.000000	100.037180
3316.000000	100.036890
3315.000000	100.033973
3314.000000	100.029030
3313.000000	100.024043
3312.000000	100.020799
3311.000000	100.019555
3310.000000	100.019186
3309.000000	100.018527
3308.000000	100.017418
3307.000000	100.016537
3306.000000	100.016313
3305.000000	100.015902
3304.000000	100.013272
3303.000000	100.006803
3302.000000	99.997280
3301.000000	99.987921
3300.000000	99.981684
3299.000000	99.978554
3298.000000	99.976255
3297.000000	99.973680
3296.000000	99.972672
3295.000000	99.975813
3294.000000	99.983072
3293.000000	99.991511
3292.000000	99.997876
3291.000000	100.000787
3290.000000	100.000706
3289.000000	99.998642
3288.000000	99.995145
3287.000000	99.990157
3286.000000	99.983809
3285.000000	99.977591
3284.000000	99.974161
3283.000000	99.974994
3282.000000	99.978218
3281.000000	99.979883
3280.000000	99.977892
3279.000000	99.973943
3278.000000	99.971401
3277.000000	99.971705
3276.000000	99.973148
3275.000000	99.972884
3274.000000	99.969804
3273.000000	99.965723
3272.000000	99.963857
3271.000000	99.965793
3270.000000	99.969862
3269.000000	99.972793
3268.000000	99.972740
3267.000000	99.970295
3266.000000	99.967026
3265.000000	99.964261
3264.000000	99.963432
3263.000000	99.966077
3262.000000	99.972367
3261.000000	99.980127
3260.000000	99.986115
3259.000000	99.988116
3258.000000	99.985671
3257.000000	99.979667
3256.000000	99.972169
3255.000000	99.966033
3254.000000	99.963406
3253.000000	99.964271
3252.000000	99.966929
3251.000000	99.969892
3250.000000	99.972883
3249.000000	99.976185
3248.000000	99.979536
3247.000000	99.981725
3246.000000	99.981102
3245.000000	99.976844
3244.000000	99.970076
3243.000000	99.963436
3242.000000	99.959208
3241.000000	99.958092
3240.000000	99.959820
3239.000000	99.964018
3238.000000	99.969646
3237.000000	99.974232
3236.000000	99.975231
3235.000000	99.972571
3234.000000	99.968872
3233.000000	99.966647
3232.000000	99.965981
3231.000000	99.965615
3230.000000	99.965654
3229.000000	99.967984
3228.000000	99.973741
3227.000000	99.980924
3226.000000	99.985404
3225.000000	99.984561
3224.000000	99.979771
3223.000000	99.975080
3222.000000	99.973317
3221.000000	99.973905
3220.000000	99.974297
3219.000000	99.972842
3218.000000	99.969815
3217.000000	99.966283
3216.000000	99.963219
3215.000000	99.961593
3214.000000	99.961999
3213.000000	99.963525
3212.000000	99.963898
3211.000000	99.961646
3210.000000	99.957778
3209.000000	99.954676
3208.000000	99.953812
3207.000000	99.955022
3206.000000	99.957474
3205.000000	99.960308
3204.000000	99.962611
3203.000000	99.963926
3202.000000	99.964899
3201.000000	99.966519
3200.000000	99.968524
3199.000000	99.969314
3198.000000	99.967769
3197.000000	99.964242
3196.000000	99.959468
3195.000000	99.953516
3194.000000	99.946660
3193.000000	99.940404
3192.000000	99.936541
3191.000000	99.935377
3190.000000	99.935749
3189.000000	99.936674
3188.000000	99.938169
3187.000000	99.940521
3186.000000	99.943539
3185.000000	99.946582
3184.000000	99.948940
3183.000000	99.950243
3182.000000	99.951093
3181.000000	99.952917
3180.000000	99.956294
3179.000000	99.959521
3178.000000	99.959825
3177.000000	99.956409
3176.000000	99.951473
3175.000000	99.947942
3174.000000	99.946894
3173.000000	99.947551
3172.000000	99.948747
3171.000000	99.949767
3170.000000	99.950316
3169.000000	99.950669
3168.000000	99.951699
3167.000000	99.954131
3166.000000	99.957648
3165.000000	99.960860
3164.000000	99.962121
3163.000000	99.960457
3162.000000	99.956327
3161.000000	99.951470
3160.000000	99.947381
3159.000000	99.943609
3158.000000	99.938435
3157.000000	99.931892
3156.000000	99.927274
3155.000000	99.928331
3154.000000	99.935185
3153.000000	99.943977
3152.000000	99.950676
3151.000000	99.954330
3150.000000	99.956442
3149.000000	99.958177
3148.000000	99.958958
3147.000000	99.957373
3146.000000	99.952947
3145.000000	99.947087
3144.000000	99.942470
3143.000000	99.941031
3142.000000	99.942394
3141.000000	99.944532
3140.000000	99.946171
3139.000000	99.948069
3138.000000	99.951706
3137.000000	99.957083
3136.000000	99.962168
3135.000000	99.964327
3134.000000	99.962338
3133.000000	99.957503
3132.000000	99.953141
3131.000000	99.952610
3130.000000	99.957063
3129.000000	99.964546
3128.000000	99.971179
3127.000000	99.973612
3126.000000	99.970969
3125.000000	99.964886
3124.000000	99.958106
3123.000000	99.952863
3122.000000	99.950106
3121.000000	99.949326
3120.000000	99.948782
3119.000000	99.946258
3118.000000	99.940786
3117.000000	99.934243
3116.000000	99.930803
3115.000000	99.933576
3114.000000	99.941440
3113.000000	99.949371
3112.000000	99.952192
3111.000000	99.948267
3110.000000	99.940379
3109.000000	99.933534
3108.000000	99.931480
3107.000000	99.934185
3106.000000	99.937956
3105.000000	99.938426
3104.000000	99.934156
3103.000000	99.927636
3102.000000	99.922932
3101.000000	99.922547
3100.000000	99.926134
3099.000000	99.931248
3098.000000	99.934779
3097.000000	99.934566
3096.000000	99.930817
3095.000000	99.926266
3094.000000	99.924311
3093.000000	99.926600
3092.000000	99.932067
3091.000000	99.937745
3090.000000	99.940499
3089.000000	99.938911
3088.000000	99.934309
3087.000000	99.929679
3086.000000	99.927083
3085.000000	99.926297
3084.000000	99.926165
3083.000000	99.926420
3082.000000	99.927422
3081.000000	99.928636
3080.000000	99.928645
3079.000000	99.926796
3078.000000	99.924073
3077.000000	99.922052
3076.000000	99.921459
3075.000000	99.921659
3074.000000	99.921013
3073.000000	99.917988
3072.000000	99.912843
3071.000000	99.908312
3070.000000	99.907456
3069.000000	99.910216
3068.000000	99.912930
3067.000000	99.912055
3066.000000	99.907953
3065.000000	99.904225
3064.000000	99.903544
3063.000000	99.905204
3062.000000	99.906732
3061.000000	99.906740
3060.000000	99.905574
3059.000000	99.904013
3058.000000	99.902677
3057.000000	99.902728
3056.000000	99.905776
3055.000000	99.912192
3054.000000	99.919882
3053.000000	99.925678
3052.000000	99.927715
3051.000000	99.926085
3050.000000	99.921876
3049.000000	99.916816
3048.000000	99.913575
3047.000000	99.914509
3046.000000	99.919133
3045.000000	99.923660
3044.000000	99.924087
3043.000000	99.919602
3042.000000	99.912715
3041.000000	99.906750
3040.000000	99.903845
3039.000000	99.904562
3038.000000	99.908151
3037.000000	99.912992
3036.000000	99.917502
3035.000000	99.920876
3034.000000	99.922900
3033.000000	99.923432
3032.000000	99.922538
3031.000000	99.920704
3030.000000	99.918356
3029.000000	99.915479
3028.000000	99.912336
3027.000000	99.910171
3026.000000	99.910155
3025.000000	99.911534
3024.000000	99.911652
3023.000000	99.908429
3022.000000	99.902545
3021.000000	99.897122
3020.000000	99.895451
3019.000000	99.898531
3018.000000	99.903965
3017.000000	99.907164
3016.000000	99.904714
3015.000000	99.897252
3014.000000	99.889077
3013.000000	99.884697
3012.000000	99.885762
3011.000000	99.890477
3010.000000	99.894987
3009.000000	99.895383
3008.000000	99.889828
3007.000000	99.880043
3006.000000	99.870577
3005.000000	99.865740
3004.000000	99.866684
3003.000000	99.871237
3002.000000	99.876339
3001.000000	99.880361
3000.000000	99.883327
2999.000000	99.885545
2998.000000	99.886628
2997.000000	99.886151
2996.000000	99.884883
2995.000000	99.884450
2994.000000	99.885195
2993.000000	99.884972
2992.000000	99.880982
2991.000000	99.872826
2990.000000	99.863095
2989.000000	99.855018
2988.000000	99.850300
2987.000000	99.849077
2986.000000	99.850554
2985.000000	99.852750
2984.000000	99.852371
2983.000000	99.846605
2982.000000	99.835614
2981.000000	99.822926
2980.000000	99.812824
2979.000000	99.807270
2978.000000	99.804936
2977.000000	99.802752
2976.000000	99.798006
2975.000000	99.789361
2974.000000	99.776686
2973.000000	99.760807
2972.000000	99.743630
2971.000000	99.727616
2970.000000	99.714096
2969.000000	99.701932
2968.000000	99.688764
2967.000000	99.673881
2966.000000	99.659153
2965.000000	99.646465
2964.000000	99.634951
2963.000000	99.621978
2962.000000	99.606692
2961.000000	99.591398
2960.000000	99.578891
2959.000000	99.569216
2958.000000	99.559808
2957.000000	99.548374
2956.000000	99.535136
2955.000000	99.522627
2954.000000	99.514123
2953.000000	99.512064
2952.000000	99.516679
2951.000000	99.525191
2950.000000	99.532604
2949.000000	99.534452
2948.000000	99.529523
2947.000000	99.520050
2946.000000	99.509019
2945.000000	99.497303
2944.000000	99.483500
2943.000000	99.466253
2942.000000	99.446172
2941.000000	99.425142
2940.000000	99.404094
2939.000000	99.381983
2938.000000	99.356986
2937.000000	99.328204
2936.000000	99.295804
2935.000000	99.259888
2934.000000	99.220038
2933.000000	99.176183
2932.000000	99.129527
2931.000000	99.082093
2930.000000	99.035399
2929.000000	98.989748
2928.000000	98.944823
2927.000000	98.900901
2926.000000	98.859467
2925.000000	98.822820
2924.000000	98.792783
2923.000000	98.769467
2922.000000	98.751212
2921.000000	98.736324
2920.000000	98.725640
2919.000000	98.723303
2918.000000	98.734575
2917.000000	98.762442
2916.000000	98.806117
2915.000000	98.862452
2914.000000	98.927737
2913.000000	98.997899
2912.000000	99.067723
2911.000000	99.131654
2910.000000	99.185943
2909.000000	99.230018
2908.000000	99.265795
2907.000000	99.296037
2906.000000	99.323281
2905.000000	99.349170
2904.000000	99.373821
2903.000000	99.395859
2902.000000	99.413812
2901.000000	99.428145
2900.000000	99.441119
2899.000000	99.455495
2898.000000	99.472631
2897.000000	99.491816
2896.000000	99.510888
2895.000000	99.527436
2894.000000	99.540115
2893.000000	99.549362
2892.000000	99.556916
2891.000000	99.564472
2890.000000	99.572637
2889.000000	99.581057
2888.000000	99.589196
2887.000000	99.596832
2886.000000	99.604006
2885.000000	99.610738
2884.000000	99.616781
2883.000000	99.621639
2882.000000	99.624959
2881.000000	99.626964
2880.000000	99.628302
2879.000000	99.629304
2878.000000	99.629589
2877.000000	99.628446
2876.000000	99.625404
2875.000000	99.620283
2874.000000	99.613097
2873.000000	99.604338
2872.000000	99.595316
2871.000000	99.587865
2870.000000	99.583508
2869.000000	99.582596
2868.000000	99.583782
2867.000000	99.584067
2866.000000	99.579939
2865.000000	99.569398
2864.000000	99.552966
2863.000000	99.532513
2862.000000	99.509271
2861.000000	99.483304
2860.000000	99.454391
2859.000000	99.422120
2858.000000	99.385082
2857.000000	99.341462
2856.000000	99.291714
2855.000000	99.240207
2854.000000	99.193359
2853.000000	99.155897
2852.000000	99.129549
2851.000000	99.115538
2850.000000	99.117120
2849.000000	99.138723
2848.000000	99.182000
2847.000000	99.243123
2846.000000	99.314086
2845.000000	99.386700
2844.000000	99.455257
2843.000000	99.516588
2842.000000	99.569035
2841.000000	99.612129
2840.000000	99.646872
2839.000000	99.675199
2838.000000	99.699006
2837.000000	99.719805
2836.000000	99.738715
2835.000000	99.755894
2834.000000	99.770179
2833.000000	99.780393
2832.000000	99.787349
2831.000000	99.793587
2830.000000	99.800589
2829.000000	99.807200
2828.000000	99.811455
2827.000000	99.813117
2826.000000	99.813469
2825.000000	99.813367
2824.000000	99.813023
2823.000000	99.813498
2822.000000	99.816704
2821.000000	99.823131
2820.000000	99.830574
2819.000000	99.836159
2818.000000	99.839335
2817.000000	99.842154
2816.000000	99.846720
2815.000000	99.852923
2814.000000	99.858571
2813.000000	99.861286
2812.000000	99.860203
2811.000000	99.856372
2810.000000	99.851783
2809.000000	99.847894
2808.000000	99.844927
2807.000000	99.842535
2806.000000	99.840953
2805.000000	99.841100
2804.000000	99.843461
2803.000000	99.847225
2802.000000	99.850864
2801.000000	99.853404
2800.000000	99.854909
2799.000000	99.855863
2798.000000	99.856551
2797.000000	99.857107
2796.000000	99.857660
2795.000000	99.858083
2794.000000	99.857942
2793.000000	99.857227
2792.000000	99.856946
2791.000000	99.858323
2790.000000	99.861251
2789.000000	99.864207
2788.000000	99.866149
2787.000000	99.867966
2786.000000	99.871113
2785.000000	99.874856
2784.000000	99.875903
2783.000000	99.871676
2782.000000	99.863646
2781.000000	99.856633
2780.000000	99.854426
2779.000000	99.856580
2778.000000	99.859615
2777.000000	99.860766
2776.000000	99.860035
2775.000000	99.859168
2774.000000	99.859696
2773.000000	99.862149
2772.000000	99.866118
2771.000000	99.870291
2770.000000	99.872897
2769.000000	99.872943
2768.000000	99.871136
2767.000000	99.869261
2766.000000	99.868798
2765.000000	99.870315
2764.000000	99.873759
2763.000000	99.878519
2762.000000	99.883227
2761.000000	99.886193
2760.000000	99.886438
2759.000000	99.884231
2758.000000	99.880805
2757.000000	99.877789
2756.000000	99.876601
2755.000000	99.877577
2754.000000	99.879540
2753.000000	99.880673
2752.000000	99.880039
2751.000000	99.878028
2750.000000	99.875508
2749.000000	99.873163
2748.000000	99.871651
2747.000000	99.871536
2746.000000	99.872599
2745.000000	99.873758
2744.000000	99.874169
2743.000000	99.874081
2742.000000	99.874207
2741.000000	99.874607
2740.000000	99.874671
2739.000000	99.873978
2738.000000	99.872849
2737.000000	99.872243
2736.000000	99.873324
2735.000000	99.876604
2734.000000	99.880948
2733.000000	99.883837
2732.000000	99.883504
2731.000000	99.880865
2730.000000	99.878647
2729.000000	99.878370
2728.000000	99.878825
2727.000000	99.878051
2726.000000	99.876302
2725.000000	99.876244
2724.000000	99.880044
2723.000000	99.886797
2722.000000	99.893231
2721.000000	99.896701
2720.000000	99.897052
2719.000000	99.895759
2718.000000	99.894027
2717.000000	99.892166
2716.000000	99.890271
2715.000000	99.888674
2714.000000	99.887689
2713.000000	99.887424
2712.000000	99.887950
2711.000000	99.889214
2710.000000	99.890776
2709.000000	99.892150
2708.000000	99.893488
2707.000000	99.895368
2706.000000	99.897615
2705.000000	99.898854
2704.000000	99.897791
2703.000000	99.894780
2702.000000	99.891779
2701.000000	99.890786
2700.000000	99.892374
2699.000000	99.895315
2698.000000	99.897296
2697.000000	99.896292
2696.000000	99.891926
2695.000000	99.885872
2694.000000	99.880984
2693.000000	99.879828
2692.000000	99.883387
2691.000000	99.890267
2690.000000	99.896979
2689.000000	99.899896
2688.000000	99.897833
2687.000000	99.892883
2686.000000	99.888516
2685.000000	99.886991
2684.000000	99.888473
2683.000000	99.891775
2682.000000	99.895097
2681.000000	99.896491
2680.000000	99.894823
2679.000000	99.890672
2678.000000	99.885821
2677.000000	99.881666
2676.000000	99.878507
2675.000000	99.876365
2674.000000	99.875725
2673.000000	99.877037
2672.000000	99.879911
2671.000000	99.883383
2670.000000	99.886724
2669.000000	99.889428
2668.000000	99.890521
2667.000000	99.888622
2666.000000	99.883191
2665.000000	99.875528
2664.000000	99.868160
2663.000000	99.863106
2662.000000	99.860794
2661.000000	99.860371
2660.000000	99.860609
2659.000000	99.860518
2658.000000	99.859741
2657.000000	99.858926
2656.000000	99.859489
2655.000000	99.862336
2654.000000	99.866714
2653.000000	99.870842
2652.000000	99.873758
2651.000000	99.876038
2650.000000	99.878494
2649.000000	99.880849
2648.000000	99.882177
2647.000000	99.882055
2646.000000	99.880463
2645.000000	99.876995
2644.000000	99.871508
2643.000000	99.865712
2642.000000	99.862824
2641.000000	99.864617
2640.000000	99.869295
2639.000000	99.873330
2638.000000	99.875319
2637.000000	99.877066
2636.000000	99.880699
2635.000000	99.885733
2634.000000	99.889698
2633.000000	99.891133
2632.000000	99.891051
2631.000000	99.891526
2630.000000	99.893605
2629.000000	99.896839
2628.000000	99.900115
2627.000000	99.902489
2626.000000	99.903575
2625.000000	99.903672
2624.000000	99.903548
2623.000000	99.903911
2622.000000	99.905168
2621.000000	99.907597
2620.000000	99.911143
2619.000000	99.914695
2618.000000	99.916103
2617.000000	99.913817
2616.000000	99.908668
2615.000000	99.903674
2614.000000	99.901879
2613.000000	99.904321
2612.000000	99.909619
2611.000000	99.915154
2610.000000	99.918855
2609.000000	99.920325
2608.000000	99.920295
2607.000000	99.919117
2606.000000	99.916523
2605.000000	99.913272
2604.000000	99.911957
2603.000000	99.914838
2602.000000	99.920968
2601.000000	99.926706
2600.000000	99.929426
2599.000000	99.929915
2598.000000	99.930918
2597.000000	99.934109
2596.000000	99.938915
2595.000000	99.943514
2594.000000	99.946198
2593.000000	99.945977
2592.000000	99.942553
2591.000000	99.936323
2590.000000	99.928665
2589.000000	99.922081
2588.000000	99.919335
2587.000000	99.921762
2586.000000	99.928404
2585.000000	99.936916
2584.000000	99.945045
2583.000000	99.951449
2582.000000	99.956060
2581.000000	99.959982
2580.000000	99.963921
2579.000000	99.966196
2578.000000	99.963976
2577.000000	99.957780
2576.000000	99.953049
2575.000000	99.954936
2574.000000	99.962340
2573.000000	99.969511
2572.000000	99.972703
2571.000000	99.972495
2570.000000	99.969935
2569.000000	99.964277
2568.000000	99.955883
2567.000000	99.948351
2566.000000	99.945595
2565.000000	99.948560
2564.000000	99.956021
2563.000000	99.966359
2562.000000	99.976610
2561.000000	99.982068
2560.000000	99.979864
2559.000000	99.972343
2558.000000	99.964722
2557.000000	99.960029
2556.000000	99.957952
2555.000000	99.957528
2554.000000	99.958371
2553.000000	99.959654
2552.000000	99.960435
2551.000000	99.961374
2550.000000	99.964082
2549.000000	99.968033
2548.000000	99.969789
2547.000000	99.966237
2546.000000	99.957901
2545.000000	99.948561
2544.000000	99.942349
2543.000000	99.941250
2542.000000	99.944323
2541.000000	99.948672
2540.000000	99.951698
2539.000000	99.952785
2538.000000	99.952694
2537.000000	99.951719
2536.000000	99.949330
2535.000000	99.945582
2534.000000	99.941771
2533.000000	99.939161
2532.000000	99.937668
2531.000000	99.936311
2530.000000	99.934633
2529.000000	99.932950
2528.000000	99.931068
2527.000000	99.927179
2526.000000	99.919068
2525.000000	99.907378
2524.000000	99.897312
2523.000000	99.895312
2522.000000	99.902556
2521.000000	99.912402
2520.000000	99.915642
2519.000000	99.908804
2518.000000	99.896841
2517.000000	99.888205
2516.000000	99.888087
2515.000000	99.895933
2514.000000	99.907499
2513.000000	99.918011
2512.000000	99.924316
2511.000000	99.925710
2510.000000	99.923313
2509.000000	99.918211
2508.000000	99.910216
2507.000000	99.899184
2506.000000	99.887792
2505.000000	99.881669
2504.000000	99.885055
2503.000000	99.896109
2502.000000	99.908076
2501.000000	99.915977
2500.000000	99.920700
2499.000000	99.925619
2498.000000	99.930591
2497.000000	99.932206
2496.000000	99.929617
2495.000000	99.927047
2494.000000	99.928983
2493.000000	99.934641
2492.000000	99.939163
2491.000000	99.939508
2490.000000	99.937466
2489.000000	99.937352
2488.000000	99.941847
2487.000000	99.949677
2486.000000	99.956154
2485.000000	99.956414
2484.000000	99.949811
2483.000000	99.941434
2482.000000	99.938181
2481.000000	99.943179
2480.000000	99.954138
2479.000000	99.966569
2478.000000	99.977197
2477.000000	99.984591
2476.000000	99.988588
2475.000000	99.990032
2474.000000	99.989906
2473.000000	99.987684
2472.000000	99.981661
2471.000000	99.971997
2470.000000	99.962624
2469.000000	99.958326
2468.000000	99.959738
2467.000000	99.962713
2466.000000	99.963179
2465.000000	99.961497
2464.000000	99.961190
2463.000000	99.964585
2462.000000	99.970966
2461.000000	99.978165
2460.000000	99.983868
2459.000000	99.985281
2458.000000	99.980187
2457.000000	99.970373
2456.000000	99.962742
2455.000000	99.964201
2454.000000	99.974493
2453.000000	99.985332
2452.000000	99.987802
2451.000000	99.980368
2450.000000	99.969531
2449.000000	99.963306
2448.000000	99.964619
2447.000000	99.970076
2446.000000	99.973885
2445.000000	99.972596
2444.000000	99.967084
2443.000000	99.961298
2442.000000	99.959422
2441.000000	99.963407
2440.000000	99.971873
2439.000000	99.980870
2438.000000	99.986312
2437.000000	99.986731
2436.000000	99.984081
2435.000000	99.981898
2434.000000	99.982527
2433.000000	99.985850
2432.000000	99.990269
2431.000000	99.994955
2430.000000	100.001156
2429.000000	100.010733
2428.000000	100.022740
2427.000000	100.032067
2426.000000	100.033174
2425.000000	100.025641
2424.000000	100.014996
2423.000000	100.007616
2422.000000	100.005497
2421.000000	100.006318
2420.000000	100.006903
2419.000000	100.005569
2418.000000	100.002292
2417.000000	99.998403
2416.000000	99.996008
2415.000000	99.996685
2414.000000	100.000283
2413.000000	100.004859
2412.000000	100.007299
2411.000000	100.004562
2410.000000	99.996118
2409.000000	99.985798
2408.000000	99.979498
2407.000000	99.979705
2406.000000	99.983359
2405.000000	99.985958
2404.000000	99.986361
2403.000000	99.986585
2402.000000	99.988616
2401.000000	99.993038
2400.000000	99.999321
2399.000000	100.005467
2398.000000	100.008540
2397.000000	100.007432
2396.000000	100.004296
2395.000000	100.001612
2394.000000	99.999032
2393.000000	99.995311
2392.000000	99.991909
2391.000000	99.992039
2390.000000	99.996478
2389.000000	100.002882
2388.000000	100.009576
2387.000000	100.016501
2386.000000	100.023180
2385.000000	100.027876
2384.000000	100.029971
2383.000000	100.032291
2382.000000	100.038251
2381.000000	100.049209
2380.000000	100.063007
2379.000000	100.074155
2378.000000	100.076614
2377.000000	100.068224
2376.000000	100.053580
2375.000000	100.040944
2374.000000	100.037675
2373.000000	100.047379
2372.000000	100.068537
2371.000000	100.092959
2370.000000	100.109685
2369.000000	100.114230
2368.000000	100.108383
2367.000000	100.093850
2366.000000	100.071967
2365.000000	100.050572
2364.000000	100.040847
2363.000000	100.040662
2362.000000	100.036486
2361.000000	100.026306
2360.000000	100.023292
2359.000000	100.039094
2358.000000	100.068419
2357.000000	100.091871
2356.000000	100.093883
2355.000000	100.068869
2354.000000	100.038157
2353.000000	100.029440
2352.000000	100.047384
2351.000000	100.068913
2350.000000	100.071953
2349.000000	100.055002
2348.000000	100.031446
2347.000000	100.019917
2346.000000	100.026705
2345.000000	100.034671
2344.000000	100.026164
2343.000000	100.002922
2342.000000	99.985246
2341.000000	99.984754
2340.000000	99.992699
2339.000000	99.995292
2338.000000	99.991310
2337.000000	99.990025
2336.000000	99.993847
2335.000000	100.001304
2334.000000	100.012714
2333.000000	100.031728
2332.000000	100.047745
2331.000000	100.050475
2330.000000	100.035540
2329.000000	100.016210
2328.000000	99.996851
2327.000000	99.978659
2326.000000	99.960142
2325.000000	99.945819
2324.000000	99.939303
2323.000000	99.939659
2322.000000	99.939167
2321.000000	99.929102
2320.000000	99.906108
2319.000000	99.881359
2318.000000	99.865917
2317.000000	99.865429
2316.000000	99.872860
2315.000000	99.886668
2314.000000	99.905395
2313.000000	99.927706
2312.000000	99.942751
2311.000000	99.946236
2310.000000	99.940828
2309.000000	99.935522
2308.000000	99.932751
2307.000000	99.933237
2306.000000	99.936700
2305.000000	99.943791
2304.000000	99.951261
2303.000000	99.956715
2302.000000	99.959637
2301.000000	99.963408
2300.000000	99.968465
2299.000000	99.974274
2298.000000	99.976151
2297.000000	99.971078
2296.000000	99.957244
2295.000000	99.940444
2294.000000	99.929081
2293.000000	99.929052
2292.000000	99.937704
2291.000000	99.948618
2290.000000	99.957100
2289.000000	99.961207
2288.000000	99.959560
2287.000000	99.951426
2286.000000	99.939573
2285.000000	99.928403
2284.000000	99.920780
2283.000000	99.915654
2282.000000	99.911370
2281.000000	99.907723
2280.000000	99.906338
2279.000000	99.908497
2278.000000	99.913850
2277.000000	99.920210
2276.000000	99.924431
2275.000000	99.925568
2274.000000	99.926532
2273.000000	99.932167
2272.000000	99.943051
2271.000000	99.953200
2270.000000	99.954836
2269.000000	99.946453
2268.000000	99.934769
2267.000000	99.928541
2266.000000	99.930700
2265.000000	99.937545
2264.000000	99.944423
2263.000000	99.950877
2262.000000	99.959455
2261.000000	99.970208
2260.000000	99.978360
2259.000000	99.977601
2258.000000	99.967023
2257.000000	99.953782
2256.000000	99.948101
2255.000000	99.953507
2254.000000	99.962591
2253.000000	99.964422
2252.000000	99.955526
2251.000000	99.942781
2250.000000	99.935786
2249.000000	99.939644
2248.000000	99.953122
2247.000000	99.970780
2246.000000	99.984955
2245.000000	99.990266
2244.000000	99.988357
2243.000000	99.985969
2242.000000	99.986338
2241.000000	99.985480
2240.000000	99.979154
2239.000000	99.970285
2238.000000	99.965272
2237.000000	99.964077
2236.000000	99.958205
2235.000000	99.940114
2234.000000	99.913738
2233.000000	99.894666
2232.000000	99.898013
2231.000000	99.923379
2230.000000	99.952332
2229.000000	99.964585
2228.000000	99.958054
2227.000000	99.949742
2226.000000	99.955517
2225.000000	99.973861
2224.000000	99.991734
2223.000000	100.000872
2222.000000	100.002388
2221.000000	99.998716
2220.000000	99.987841
2219.000000	99.967107
2218.000000	99.940015
2217.000000	99.918893
2216.000000	99.919729
2215.000000	99.949827
2214.000000	99.998335
2213.000000	100.042800
2212.000000	100.068501
2211.000000	100.077816
2210.000000	100.077420
2209.000000	100.063994
2208.000000	100.030658
2207.000000	99.982365
2206.000000	99.935316
2205.000000	99.902083
2204.000000	99.885502
2203.000000	99.886052
2202.000000	99.905389
2201.000000	99.938657
2200.000000	99.971488
2199.000000	99.991445
2198.000000	99.998424
2197.000000	99.999756
2196.000000	99.998792
2195.000000	99.993157
2194.000000	99.981511
2193.000000	99.967147
2192.000000	99.954670
2191.000000	99.945989
2190.000000	99.939377
2189.000000	99.929854
2188.000000	99.911245
2187.000000	99.882327
2186.000000	99.853053
2185.000000	99.840876
2184.000000	99.855415
2183.000000	99.887142
2182.000000	99.915854
2181.000000	99.930730
2180.000000	99.938058
2179.000000	99.948929
2178.000000	99.965748
2177.000000	99.984197
2176.000000	100.001030
2175.000000	100.013381
2174.000000	100.014046
2173.000000	99.995675
2172.000000	99.959860
2171.000000	99.916807
2170.000000	99.878118
2169.000000	99.854408
2168.000000	99.854022
2167.000000	99.874779
2166.000000	99.899452
2165.000000	99.909099
2164.000000	99.902024
2163.000000	99.890713
2162.000000	99.882020
2161.000000	99.876194
2160.000000	99.885548
2159.000000	99.932034
2158.000000	100.013141
2157.000000	100.092721
2156.000000	100.140329
2155.000000	100.155952
2154.000000	100.150742
2153.000000	100.130712
2152.000000	100.106678
2151.000000	100.098219
2150.000000	100.114335
2149.000000	100.139368
2148.000000	100.150475
2147.000000	100.143183
2146.000000	100.130948
2145.000000	100.125798
2144.000000	100.129137
2143.000000	100.137205
2142.000000	100.146208
2141.000000	100.153463
2140.000000	100.159485
2139.000000	100.166833
2138.000000	100.172902
2137.000000	100.168618
2136.000000	100.149766
2135.000000	100.125685
2134.000000	100.110701
2133.000000	100.109924
2132.000000	100.117638
2131.000000	100.125697
2130.000000	100.128450
2129.000000	100.122922
2128.000000	100.110459
2127.000000	100.096833
2126.000000	100.086920
2125.000000	100.080277
2124.000000	100.074618
2123.000000	100.070862
2122.000000	100.070713
2121.000000	100.071137
2120.000000	100.066480
2119.000000	100.056003
2118.000000	100.044978
2117.000000	100.037892
2116.000000	100.033790
2115.000000	100.029568
2114.000000	100.025242
2113.000000	100.024270
2112.000000	100.029459
2111.000000	100.039233
2110.000000	100.047788
2109.000000	100.049403
2108.000000	100.043421
2107.000000	100.034634
2106.000000	100.028822
2105.000000	100.029319
2104.000000	100.037016
2103.000000	100.049943
2102.000000	100.061685
2101.000000	100.064025
2100.000000	100.054687
2099.000000	100.040676
2098.000000	100.032062
2097.000000	100.033987
2096.000000	100.045050
2095.000000	100.059401
2094.000000	100.068352
2093.000000	100.064677
2092.000000	100.050313
2091.000000	100.037023
2090.000000	100.034683
2089.000000	100.039659
2088.000000	100.038292
2087.000000	100.022484
2086.000000	99.998574
2085.000000	99.980935
2084.000000	99.978877
2083.000000	99.989673
2082.000000	100.002769
2081.000000	100.009612
2080.000000	100.009577
2079.000000	100.006893
2078.000000	100.003934
2077.000000	100.000542
2076.000000	99.998351
2075.000000	100.000227
2074.000000	100.004064
2073.000000	100.002250
2072.000000	99.990801
2071.000000	99.975014
2070.000000	99.963329
2069.000000	99.959119
2068.000000	99.961008
2067.000000	99.967006
2066.000000	99.974027
2065.000000	99.976760
2064.000000	99.972698
2063.000000	99.967592
2062.000000	99.971840
2061.000000	99.990895
2060.000000	100.018532
2059.000000	100.038187
2058.000000	100.033957
2057.000000	100.006925
2056.000000	99.980350
2055.000000	99.978625
2054.000000	99.997233
2053.000000	100.003314
2052.000000	99.973175
2051.000000	99.920609
2050.000000	99.881581
2049.000000	99.876677
2048.000000	99.894688
2047.000000	99.912347
2046.000000	99.921139
2045.000000	99.930429
2044.000000	99.952993
2043.000000	99.991123
2042.000000	100.031310
2041.000000	100.051962
2040.000000	100.042361
2039.000000	100.012876
2038.000000	99.983527
2037.000000	99.969967
2036.000000	99.982712
2035.000000	100.028030
2034.000000	100.097694
2033.000000	100.162795
2032.000000	100.191649
2031.000000	100.174096
2030.000000	100.121895
2029.000000	100.056871
2028.000000	100.006851
2027.000000	99.997379
2026.000000	100.031697
2025.000000	100.080854
2024.000000	100.106065
2023.000000	100.092643
2022.000000	100.055874
2021.000000	100.021841
2020.000000	100.011431
2019.000000	100.035193
2018.000000	100.089627
2017.000000	100.154621
2016.000000	100.203989
2015.000000	100.223309
2014.000000	100.212668
2013.000000	100.179719
2012.000000	100.138079
2011.000000	100.102748
2010.000000	100.079147
2009.000000	100.061963
2008.000000	100.049513
2007.000000	100.051757
2006.000000	100.075036
2005.000000	100.105965
2004.000000	100.122151
2003.000000	100.115053
2002.000000	100.093851
2001.000000	100.071774
2000.000000	100.055168
1999.000000	100.043615
1998.000000	100.035445
1997.000000	100.032609
1996.000000	100.039731
1995.000000	100.055377
1994.000000	100.065851
1993.000000	100.056510
1992.000000	100.033047
1991.000000	100.018814
1990.000000	100.024186
1989.000000	100.033887
1988.000000	100.030657
1987.000000	100.016703
1986.000000	100.002488
1985.000000	99.986799
1984.000000	99.961396
1983.000000	99.927823
1982.000000	99.896083
1981.000000	99.871356
1980.000000	99.855482
1979.000000	99.859405
1978.000000	99.897368
1977.000000	99.963469
1976.000000	100.028651
1975.000000	100.070002
1974.000000	100.091289
1973.000000	100.112854
1972.000000	100.150362
1971.000000	100.200867
1970.000000	100.243278
1969.000000	100.255012
1968.000000	100.233096
1967.000000	100.196105
1966.000000	100.164055
1965.000000	100.145153
1964.000000	100.141674
1963.000000	100.151063
1962.000000	100.155949
1961.000000	100.131363
1960.000000	100.075565
1959.000000	100.020823
1958.000000	100.001512
1957.000000	100.021649
1956.000000	100.060279
1955.000000	100.096852
1954.000000	100.120940
1953.000000	100.126608
1952.000000	100.112002
1951.000000	100.084206
1950.000000	100.057837
1949.000000	100.047477
1948.000000	100.060932
1947.000000	100.093812
1946.000000	100.127800
1945.000000	100.142450
1944.000000	100.135194
1943.000000	100.124740
1942.000000	100.127450
1941.000000	100.136608
1940.000000	100.137343
1939.000000	100.129409
1938.000000	100.122529
1937.000000	100.120800
1936.000000	100.121080
1935.000000	100.122150
1934.000000	100.126025
1933.000000	100.131151
1932.000000	100.132008
1931.000000	100.126362
1930.000000	100.118705
1929.000000	100.115305
1928.000000	100.119655
1927.000000	100.132345
1926.000000	100.150171
1925.000000	100.165225
1924.000000	100.167765
1923.000000	100.153694
1922.000000	100.128361
1921.000000	100.101814
1920.000000	100.082332
1919.000000	100.074182
1918.000000	100.075517
1917.000000	100.077219
1916.000000	100.071130
1915.000000	100.059331
1914.000000	100.049651
1913.000000	100.047216
1912.000000	100.052107
1911.000000	100.061714
1910.000000	100.072846
1909.000000	100.081952
1908.000000	100.087374
1907.000000	100.090879
1906.000000	100.093003
1905.000000	100.090024
1904.000000	100.079014
1903.000000	100.064828
1902.000000	100.056533
1901.000000	100.057097
1900.000000	100.062462
1899.000000	100.070025
1898.000000	100.080803
1897.000000	100.093930
1896.000000	100.104625
1895.000000	100.110385
1894.000000	100.114352
1893.000000	100.119162
1892.000000	100.122028
1891.000000	100.118491
1890.000000	100.108199
1889.000000	100.095710
1888.000000	100.085708
1887.000000	100.080455
1886.000000	100.080041
1885.000000	100.082165
1884.000000	100.083974
1883.000000	100.085489
1882.000000	100.089488
1881.000000	100.096277
1880.000000	100.101791
1879.000000	100.102567
1878.000000	100.100466
1877.000000	100.102033
1876.000000	100.112329
1875.000000	100.128672
1874.000000	100.141416
1873.000000	100.142616
1872.000000	100.134302
1871.000000	100.126936
1870.000000	100.129513
1869.000000	100.141281
1868.000000	100.152855
1867.000000	100.158779
1866.000000	100.162693
1865.000000	100.166818
1864.000000	100.168159
1863.000000	100.164368
1862.000000	100.156415
1861.000000	100.145841
1860.000000	100.133543
1859.000000	100.121965
1858.000000	100.115425
1857.000000	100.116543
1856.000000	100.124386
1855.000000	100.137018
1854.000000	100.151624
1853.000000	100.162266
1852.000000	100.163536
1851.000000	100.157889
1850.000000	100.153139
1849.000000	100.153753
1848.000000	100.156655
1847.000000	100.156290
1846.000000	100.151345
1845.000000	100.145585
1844.000000	100.143731
1843.000000	100.146198
1842.000000	100.151359
1841.000000	100.157932
1840.000000	100.164246
1839.000000	100.168123
1838.000000	100.167196
1837.000000	100.161639
1836.000000	100.155241
1835.000000	100.152104
1834.000000	100.152028
1833.000000	100.151762
1832.000000	100.151228
1831.000000	100.153419
1830.000000	100.157052
1829.000000	100.155931
1828.000000	100.150148
1827.000000	100.147979
1826.000000	100.153518
1825.000000	100.161661
1824.000000	100.164829
1823.000000	100.162666
1822.000000	100.160160
1821.000000	100.159271
1820.000000	100.159011
1819.000000	100.159512
1818.000000	100.162593
1817.000000	100.168841
1816.000000	100.175254
1815.000000	100.178614
1814.000000	100.178908
1813.000000	100.177439
1812.000000	100.174740
1811.000000	100.169402
1810.000000	100.161138
1809.000000	100.153043
1808.000000	100.147073
1807.000000	100.141899
1806.000000	100.135849
1805.000000	100.128579
1804.000000	100.120177
1803.000000	100.110550
1802.000000	100.099648
1801.000000	100.087880
1800.000000	100.076016
1799.000000	100.064369
1798.000000	100.055072
1797.000000	100.049574
1796.000000	100.044916
1795.000000	100.036557
1794.000000	100.023811
1793.000000	100.013272
1792.000000	100.015223
1791.000000	100.029474
1790.000000	100.047025
1789.000000	100.062664
1788.000000	100.075601
1787.000000	100.087030
1786.000000	100.098297
1785.000000	100.108352
1784.000000	100.114261
1783.000000	100.116194
1782.000000	100.117096
1781.000000	100.118253
1780.000000	100.120344
1779.000000	100.124226
1778.000000	100.130961
1777.000000	100.138860
1776.000000	100.144056
1775.000000	100.144984
1774.000000	100.142881
1773.000000	100.140676
1772.000000	100.142897
1771.000000	100.148594
1770.000000	100.151812
1769.000000	100.148880
1768.000000	100.139711
1767.000000	100.128802
1766.000000	100.122174
1765.000000	100.121938
1764.000000	100.125780
1763.000000	100.130505
1762.000000	100.133790
1761.000000	100.134237
1760.000000	100.133364
1759.000000	100.131990
1758.000000	100.127603
1757.000000	100.116492
1756.000000	100.100656
1755.000000	100.086791
1754.000000	100.076426
1753.000000	100.065024
1752.000000	100.051125
1751.000000	100.041607
1750.000000	100.040303
1749.000000	100.039505
1748.000000	100.032949
1747.000000	100.024764
1746.000000	100.020087
1745.000000	100.018033
1744.000000	100.015419
1743.000000	100.009549
1742.000000	99.998624
1741.000000	99.983157
1740.000000	99.967612
1739.000000	99.956513
1738.000000	99.948844
1737.000000	99.941276
1736.000000	99.933858
1735.000000	99.934328
1734.000000	99.953711
1733.000000	99.979920
1732.000000	99.999923
1731.000000	100.021107
1730.000000	100.047534
1729.000000	100.071412
1728.000000	100.085991
1727.000000	100.095415
1726.000000	100.105197
1725.000000	100.114337
1724.000000	100.119531
1723.000000	100.120680
1722.000000	100.120272
1721.000000	100.118908
1720.000000	100.115141
1719.000000	100.107933
1718.000000	100.099762
1717.000000	100.099656
1716.000000	100.105465
1715.000000	100.107490
1714.000000	100.105629
1713.000000	100.102205
1712.000000	100.097729
1711.000000	100.094333
1710.000000	100.094072
1709.000000	100.094904
1708.000000	100.093344
1707.000000	100.089700
1706.000000	100.088715
1705.000000	100.092864
1704.000000	100.095276
1703.000000	100.089105
1702.000000	100.072493
1701.000000	100.049753
1700.000000	100.031105
1699.000000	100.018108
1698.000000	100.011558
1697.000000	100.009894
1696.000000	100.008607
1695.000000	100.000221
1694.000000	99.988325
1693.000000	99.982336
1692.000000	99.980109
1691.000000	99.975046
1690.000000	99.963819
1689.000000	99.948305
1688.000000	99.933798
1687.000000	99.923508
1686.000000	99.915776
1685.000000	99.909575
1684.000000	99.905726
1683.000000	99.894871
1682.000000	99.880055
1681.000000	99.870990
1680.000000	99.866439
1679.000000	99.861914
1678.000000	99.853940
1677.000000	99.840411
1676.000000	99.823599
1675.000000	99.811536
1674.000000	99.807050
1673.000000	99.803893
1672.000000	99.796183
1671.000000	99.783129
1670.000000	99.771836
1669.000000	99.766950
1668.000000	99.763422
1667.000000	99.758916
1666.000000	99.753029
1665.000000	99.744384
1664.000000	99.733128
1663.000000	99.721714
1662.000000	99.711546
1661.000000	99.700856
1660.000000	99.690671
1659.000000	99.683657
1658.000000	99.678685
1657.000000	99.672214
1656.000000	99.662579
1655.000000	99.653720
1654.000000	99.658181
1653.000000	99.680823
1652.000000	99.675955
1651.000000	99.653915
1650.000000	99.638601
1649.000000	99.628471
1648.000000	99.620953
1647.000000	99.624735
1646.000000	99.640897
1645.000000	99.651800
1644.000000	99.653712
1643.000000	99.652204
1642.000000	99.651548
1641.000000	99.652631
1640.000000	99.653736
1639.000000	99.653650
1638.000000	99.655225
1637.000000	99.667116
1636.000000	99.697215
1635.000000	99.729663
1634.000000	99.740690
1633.000000	99.739426
1632.000000	99.736924
1631.000000	99.736130
1630.000000	99.738604
1629.000000	99.744596
1628.000000	99.750618
1627.000000	99.752758
1626.000000	99.751020
1625.000000	99.749536
1624.000000	99.755021
1623.000000	99.770001
1622.000000	99.785144
1621.000000	99.789978
1620.000000	99.786925
1619.000000	99.783695
1618.000000	99.786306
1617.000000	99.797960
1616.000000	99.813905
1615.000000	99.826899
1614.000000	99.836947
1613.000000	99.843960
1612.000000	99.847713
1611.000000	99.851378
1610.000000	99.858019
1609.000000	99.864813
1608.000000	99.868134
1607.000000	99.870166
1606.000000	99.874182
1605.000000	99.878361
1604.000000	99.880606
1603.000000	99.882043
1602.000000	99.883183
1601.000000	99.881443
1600.000000	99.875677
1599.000000	99.869045
1598.000000	99.864023
1597.000000	99.859716
1596.000000	99.855578
1595.000000	99.853231
1594.000000	99.852534
1593.000000	99.849023
1592.000000	99.839781
1591.000000	99.827688
1590.000000	99.816412
1589.000000	99.804346
1588.000000	99.787685
1587.000000	99.765666
1586.000000	99.738886
1585.000000	99.706183
1584.000000	99.668800
1583.000000	99.633507
1582.000000	99.605049
1581.000000	99.580959
1580.000000	99.557934
1579.000000	99.538638
1578.000000	99.528069
1577.000000	99.530025
1576.000000	99.545231
1575.000000	99.565922
1574.000000	99.583576
1573.000000	99.595973
1572.000000	99.604665
1571.000000	99.614348
1570.000000	99.631352
1569.000000	99.651014
1568.000000	99.663690
1567.000000	99.672928
1566.000000	99.682894
1565.000000	99.690253
1564.000000	99.691191
1563.000000	99.688873
1562.000000	99.687262
1561.000000	99.684906
1560.000000	99.677853
1559.000000	99.672335
1558.000000	99.666545
1557.000000	99.640673
1556.000000	99.618475
1555.000000	99.607755
1554.000000	99.600970
1553.000000	99.587705
1552.000000	99.565548
1551.000000	99.536403
1550.000000	99.502177
1549.000000	99.463489
1548.000000	99.419868
1547.000000	99.369799
1546.000000	99.309109
1545.000000	99.236514
1544.000000	99.160367
1543.000000	99.091204
1542.000000	99.032935
1541.000000	98.998120
1540.000000	99.009988
1539.000000	99.042909
1538.000000	99.051954
1537.000000	99.044328
1536.000000	99.035065
1535.000000	99.034119
1534.000000	99.048893
1533.000000	99.072486
1532.000000	99.083745
1531.000000	99.076650
1530.000000	99.060189
1529.000000	99.041233
1528.000000	99.021644
1527.000000	98.999947
1526.000000	98.972664
1525.000000	98.939905
1524.000000	98.907046
1523.000000	98.878349
1522.000000	98.854349
1521.000000	98.831879
1520.000000	98.803116
1519.000000	98.771209
1518.000000	98.742983
1517.000000	98.719163
1516.000000	98.693656
1515.000000	98.658127
1514.000000	98.612735
1513.000000	98.563874
1512.000000	98.519457
1511.000000	98.482620
1510.000000	98.448315
1509.000000	98.410337
1508.000000	98.376423
1507.000000	98.370953
1506.000000	98.368545
1505.000000	98.325253
1504.000000	98.272016
1503.000000	98.225243
1502.000000	98.180522
1501.000000	98.133814
1500.000000	98.088804
1499.000000	98.051239
1498.000000	98.018642
1497.000000	97.986303
1496.000000	97.954318
1495.000000	97.920550
1494.000000	97.880680
1493.000000	97.833888
1492.000000	97.785426
1491.000000	97.745679
1490.000000	97.721307
1489.000000	97.706431
1488.000000	97.688444
1487.000000	97.661314
1486.000000	97.626271
1485.000000	97.583413
1484.000000	97.534523
1483.000000	97.486625
1482.000000	97.444314
1481.000000	97.405967
1480.000000	97.366689
1479.000000	97.324674
1478.000000	97.280234
1477.000000	97.231885
1476.000000	97.177181
1475.000000	97.116905
1474.000000	97.060180
1473.000000	97.021971
1472.000000	97.003044
1471.000000	96.977684
1470.000000	96.934123
1469.000000	96.881419
1468.000000	96.830331
1467.000000	96.787408
1466.000000	96.756243
1465.000000	96.736736
1464.000000	96.721313
1463.000000	96.698865
1462.000000	96.665845
1461.000000	96.625095
1460.000000	96.580014
1459.000000	96.535026
1458.000000	96.501312
1457.000000	96.495226
1456.000000	96.498786
1455.000000	96.482758
1454.000000	96.449470
1453.000000	96.410622
1452.000000	96.375221
1451.000000	96.344427
1450.000000	96.314509
1449.000000	96.287241
1448.000000	96.269530
1447.000000	96.258150
1446.000000	96.238843
1445.000000	96.206544
1444.000000	96.170504
1443.000000	96.139936
1442.000000	96.113821
1441.000000	96.083644
1440.000000	96.044048
1439.000000	95.998578
1438.000000	95.960309
1437.000000	95.948337
1436.000000	95.959964
1435.000000	95.960637
1434.000000	95.931756
1433.000000	95.884572
1432.000000	95.838051
1431.000000	95.804501
1430.000000	95.781167
1429.000000	95.756582
1428.000000	95.723977
1427.000000	95.684277
1426.000000	95.642919
1425.000000	95.607421
1424.000000	95.582339
1423.000000	95.557066
1422.000000	95.514733
1421.000000	95.456856
1420.000000	95.407110
1419.000000	95.387094
1418.000000	95.376709
1417.000000	95.346272
1416.000000	95.300151
1415.000000	95.250442
1414.000000	95.198038
1413.000000	95.142960
1412.000000	95.093789
1411.000000	95.056588
1410.000000	95.021433
1409.000000	94.975859
1408.000000	94.923593
1407.000000	94.877678
1406.000000	94.844184
1405.000000	94.819359
1404.000000	94.797806
1403.000000	94.773180
1402.000000	94.739722
1401.000000	94.701008
1400.000000	94.670831
1399.000000	94.656136
1398.000000	94.641094
1397.000000	94.612029
1396.000000	94.581727
1395.000000	94.569169
1394.000000	94.566224
1393.000000	94.552513
1392.000000	94.532088
1391.000000	94.520268
1390.000000	94.521729
1389.000000	94.536465
1388.000000	94.572263
1387.000000	94.632206
1386.000000	94.696507
1385.000000	94.747003
1384.000000	94.792988
1383.000000	94.851318
1382.000000	94.922603
1381.000000	94.997614
1380.000000	95.075843
1379.000000	95.162064
1378.000000	95.251337
1377.000000	95.336407
1376.000000	95.426063
1375.000000	95.537777
1374.000000	95.667396
1373.000000	95.785468
1372.000000	95.876471
1371.000000	95.953408
1370.000000	96.034271
1369.000000	96.125193
1368.000000	96.221379
1367.000000	96.312614
1366.000000	96.392139
1365.000000	96.465484
1364.000000	96.548502
1363.000000	96.651532
1362.000000	96.763266
1361.000000	96.862078
1360.000000	96.942525
1359.000000	97.012606
1358.000000	97.078013
1357.000000	97.140516
1356.000000	97.202637
1355.000000	97.265540
1354.000000	97.326413
1353.000000	97.383602
1352.000000	97.439772
1351.000000	97.496002
1350.000000	97.548793
1349.000000	97.594106
1348.000000	97.633418
1347.000000	97.670911
1346.000000	97.708025
1345.000000	97.743568
1344.000000	97.776636
1343.000000	97.806887
1342.000000	97.835474
1341.000000	97.867150
1340.000000	97.907442
1339.000000	97.953666
1338.000000	97.993845
1337.000000	98.021462
1336.000000	98.041996
1335.000000	98.062313
1334.000000	98.083754
1333.000000	98.106391
1332.000000	98.132888
1331.000000	98.164800
1330.000000	98.199124
1329.000000	98.231169
1328.000000	98.258460
1327.000000	98.280347
1326.000000	98.297662
1325.000000	98.313496
1324.000000	98.332114
1323.000000	98.353991
1322.000000	98.375352
1321.000000	98.394315
1320.000000	98.413711
1319.000000	98.435630
1318.000000	98.457142
1317.000000	98.475298
1316.000000	98.491756
1315.000000	98.508891
1314.000000	98.525779
1313.000000	98.541773
1312.000000	98.559904
1311.000000	98.582612
1310.000000	98.607173
1309.000000	98.629088
1308.000000	98.647653
1307.000000	98.665274
1306.000000	98.683766
1305.000000	98.703115
1304.000000	98.723222
1303.000000	98.743226
1302.000000	98.760546
1301.000000	98.773071
1300.000000	98.782007
1299.000000	98.791265
1298.000000	98.804649
1297.000000	98.823752
1296.000000	98.846562
1295.000000	98.867847
1294.000000	98.883004
1293.000000	98.892052
1292.000000	98.898012
1291.000000	98.901904
1290.000000	98.902456
1289.000000	98.901015
1288.000000	98.902476
1287.000000	98.909519
1286.000000	98.919054
1285.000000	98.926863
1284.000000	98.933059
1283.000000	98.940304
1282.000000	98.948982
1281.000000	98.956586
1280.000000	98.961062
1279.000000	98.963189
1278.000000	98.965761
1277.000000	98.971253
1276.000000	98.979731
1275.000000	98.989134
1274.000000	98.998030
1273.000000	99.007340
1272.000000	99.018014
1271.000000	99.027951
1270.000000	99.033687
1269.000000	99.034676
1268.000000	99.033203
1267.000000	99.030615
1266.000000	99.026706
1265.000000	99.023245
1264.000000	99.024403
1263.000000	99.031985
1262.000000	99.042577
1261.000000	99.051089
1260.000000	99.055368
1259.000000	99.056783
1258.000000	99.057997
1257.000000	99.061157
1256.000000	99.066202
1255.000000	99.070185
1254.000000	99.069972
1253.000000	99.066168
1252.000000	99.062519
1251.000000	99.061524
1250.000000	99.062507
1249.000000	99.063621
1248.000000	99.063279
1247.000000	99.059674
1246.000000	99.052059
1245.000000	99.043384
1244.000000	99.038648
1243.000000	99.039453
1242.000000	99.042941
1241.000000	99.046837
1240.000000	99.051814
1239.000000	99.057519
1238.000000	99.060281
1237.000000	99.057780
1236.000000	99.053062
1235.000000	99.051070
1234.000000	99.053348
1233.000000	99.058546
1232.000000	99.065925
1231.000000	99.075072
1230.000000	99.083907
1229.000000	99.090606
1228.000000	99.096681
1227.000000	99.105499
1226.000000	99.118325
1225.000000	99.133968
1224.000000	99.151281
1223.000000	99.169198
1222.000000	99.184962
1221.000000	99.195507
1220.000000	99.201359
1219.000000	99.207137
1218.000000	99.216889
1217.000000	99.229890
1216.000000	99.241781
1215.000000	99.249231
1214.000000	99.253082
1213.000000	99.257319
1212.000000	99.265223
1211.000000	99.276160
1210.000000	99.285974
1209.000000	99.290340
1208.000000	99.287846
1207.000000	99.280584
1206.000000	99.272854
1205.000000	99.268824
1204.000000	99.270001
1203.000000	99.274509
1202.000000	99.279272
1201.000000	99.283003
1200.000000	99.286475
1199.000000	99.290249
1198.000000	99.293382
1197.000000	99.294771
1196.000000	99.294786
1195.000000	99.295031
1194.000000	99.297145
1193.000000	99.301837
1192.000000	99.308372
1191.000000	99.314838
1190.000000	99.319739
1189.000000	99.323465
1188.000000	99.327396
1187.000000	99.331480
1186.000000	99.333447
1185.000000	99.330877
1184.000000	99.323475
1183.000000	99.313577
1182.000000	99.305146
1181.000000	99.301686
1180.000000	99.303734
1179.000000	99.308132
1178.000000	99.310530
1177.000000	99.308776
1176.000000	99.303538
1175.000000	99.296460
1174.000000	99.288932
1173.000000	99.282182
1172.000000	99.277334
1171.000000	99.274869
1170.000000	99.274419
1169.000000	99.275186
1168.000000	99.276351
1167.000000	99.277278
1166.000000	99.277969
1165.000000	99.279176
1164.000000	99.281762
1163.000000	99.286044
1162.000000	99.291872
1161.000000	99.298716
1160.000000	99.305315
1159.000000	99.310106
1158.000000	99.312647
1157.000000	99.314026
1156.000000	99.315501
1155.000000	99.317529
1154.000000	99.320341
1153.000000	99.324305
1152.000000	99.329276
1151.000000	99.335030
1150.000000	99.342800
1149.000000	99.354504
1148.000000	99.369397
1147.000000	99.383474
1146.000000	99.393925
1145.000000	99.402409
1144.000000	99.411859
1143.000000	99.421684
1142.000000	99.428596
1141.000000	99.431346
1140.000000	99.432314
1139.000000	99.434757
1138.000000	99.440096
1137.000000	99.447378
1136.000000	99.453917
1135.000000	99.457374
1134.000000	99.458865
1133.000000	99.462954
1132.000000	99.472568
1131.000000	99.484580
1130.000000	99.492540
1129.000000	99.493586
1128.000000	99.490995
1127.000000	99.490322
1126.000000	99.494471
1125.000000	99.501909
1124.000000	99.508264
1123.000000	99.509944
1122.000000	99.507501
1121.000000	99.504864
1120.000000	99.504366
1119.000000	99.503789
1118.000000	99.499286
1117.000000	99.489908
1116.000000	99.477925
1115.000000	99.466458
1114.000000	99.458346
1113.000000	99.455345
1112.000000	99.456073
1111.000000	99.456189
1110.000000	99.452987
1109.000000	99.448494
1108.000000	99.446076
1107.000000	99.445189
1106.000000	99.442648
1105.000000	99.437857
1104.000000	99.433428
1103.000000	99.430926
1102.000000	99.429015
1101.000000	99.425783
1100.000000	99.421304
1099.000000	99.416368
1098.000000	99.412591
1097.000000	99.411677
1096.000000	99.413072
1095.000000	99.413078
1094.000000	99.408887
1093.000000	99.402776
1092.000000	99.399317
1091.000000	99.398946
1090.000000	99.397093
1089.000000	99.389690
1088.000000	99.376878
1087.000000	99.361533
1086.000000	99.347074
1085.000000	99.336744
1084.000000	99.332117
1083.000000	99.331217
1082.000000	99.329794
1081.000000	99.325082
1080.000000	99.317356
1079.000000	99.308775
1078.000000	99.302863
1077.000000	99.304123
1076.000000	99.314712
1075.000000	99.331350
1074.000000	99.347689
1073.000000	99.359678
1072.000000	99.366466
1071.000000	99.367580
1070.000000	99.363360
1069.000000	99.357848
1068.000000	99.356833
1067.000000	99.361765
1066.000000	99.368619
1065.000000	99.373519
1064.000000	99.376293
1063.000000	99.377587
1062.000000	99.376317
1061.000000	99.371913
1060.000000	99.366506
1059.000000	99.362723
1058.000000	99.361145
1057.000000	99.361379
1056.000000	99.363656
1055.000000	99.367474
1054.000000	99.370216
1053.000000	99.369339
1052.000000	99.365796
1051.000000	99.363897
1050.000000	99.367399
1049.000000	99.375780
1048.000000	99.384267
1047.000000	99.387860
1046.000000	99.385929
1045.000000	99.382004
1044.000000	99.378602
1043.000000	99.374134
1042.000000	99.366342
1041.000000	99.357087
1040.000000	99.350936
1039.000000	99.350126
1038.000000	99.353593
1037.000000	99.359849
1036.000000	99.367304
1035.000000	99.372318
1034.000000	99.371479
1033.000000	99.366565
1032.000000	99.363602
1031.000000	99.365567
1030.000000	99.369294
1029.000000	99.370719
1028.000000	99.369930
1027.000000	99.369253
1026.000000	99.369548
1025.000000	99.370779
1024.000000	99.373948
1023.000000	99.379964
1022.000000	99.388014
1021.000000	99.396846
1020.000000	99.405997
1019.000000	99.414333
1018.000000	99.419418
1017.000000	99.420387
1016.000000	99.419794
1015.000000	99.420712
1014.000000	99.423716
1013.000000	99.428819
1012.000000	99.438636
1011.000000	99.456266
1010.000000	99.480208
1009.000000	99.503974
1008.000000	99.521521
1007.000000	99.531761
1006.000000	99.537864
1005.000000	99.543756
1004.000000	99.551750
1003.000000	99.562035
1002.000000	99.573046
1001.000000	99.582339
1000.000000	99.588242
999.000000	99.591429
998.000000	99.595014
997.000000	99.602547
996.000000	99.615471
995.000000	99.632113
994.000000	99.648810
993.000000	99.662172
992.000000	99.671147
991.000000	99.677993
990.000000	99.686726
989.000000	99.699056
988.000000	99.712119
987.000000	99.722146
986.000000	99.730068
985.000000	99.740795
984.000000	99.755855
983.000000	99.770036
982.000000	99.777650
981.000000	99.779493
980.000000	99.780759
979.000000	99.783867
978.000000	99.787121
977.000000	99.789359
976.000000	99.791896
975.000000	99.795518
974.000000	99.798659
973.000000	99.799493
972.000000	99.797711
971.000000	99.793897
970.000000	99.789292
969.000000	99.786585
968.000000	99.788736
967.000000	99.796168
966.000000	99.806663
965.000000	99.818348
964.000000	99.830782
963.000000	99.842642
962.000000	99.850728
961.000000	99.853016
960.000000	99.851925
959.000000	99.853412
958.000000	99.862813
957.000000	99.880733
956.000000	99.902029
955.000000	99.919615
954.000000	99.930698
953.000000	99.938727
952.000000	99.947883
951.000000	99.957196
950.000000	99.963085
949.000000	99.966400
948.000000	99.972642
947.000000	99.984429
946.000000	99.997243
945.000000	100.004504
944.000000	100.004098
943.000000	99.998643
942.000000	99.992299
941.000000	99.989296
940.000000	99.992688
939.000000	100.001247
938.000000	100.008726
937.000000	100.009786
936.000000	100.006683
935.000000	100.007317
934.000000	100.016044
933.000000	100.028062
932.000000	100.034106
931.000000	100.029776
930.000000	100.019209
929.000000	100.010550
928.000000	100.009273
927.000000	100.015987
926.000000	100.028838
925.000000	100.045565
924.000000	100.062827
923.000000	100.075496
922.000000	100.079071
921.000000	100.073214
920.000000	100.062482
919.000000	100.053892
918.000000	100.053513
917.000000	100.063238
916.000000	100.078891
915.000000	100.092167
914.000000	100.097056
913.000000	100.095109
912.000000	100.093145
911.000000	100.095898
910.000000	100.102213
909.000000	100.108033
908.000000	100.111212
907.000000	100.112588
906.000000	100.113924
905.000000	100.115909
904.000000	100.117834
903.000000	100.118920
902.000000	100.119872
901.000000	100.122433
900.000000	100.127152
899.000000	100.133002
898.000000	100.140685
897.000000	100.153783
896.000000	100.173817
895.000000	100.194896
894.000000	100.207160
893.000000	100.206811
892.000000	100.200275
891.000000	100.197668
890.000000	100.203455
889.000000	100.213248
888.000000	100.217530
887.000000	100.206485
886.000000	100.172880
885.000000	100.110427
884.000000	100.008754
883.000000	99.853187
882.000000	99.630546
881.000000	99.335487
880.000000	98.968346
879.000000	98.530791
878.000000	98.030727
877.000000	97.485865
876.000000	96.915119
875.000000	96.327877
874.000000	95.748609
873.000000	95.267308
872.000000	95.050840
871.000000	95.250816
870.000000	95.867500
869.000000	96.719002
868.000000	97.557592
867.000000	98.219616
866.000000	98.677091
865.000000	98.980989
864.000000	99.187934
863.000000	99.335858
862.000000	99.451032
861.000000	99.549334
860.000000	99.632591
859.000000	99.695765
858.000000	99.740508
857.000000	99.774670
856.000000	99.802397
855.000000	99.823392
854.000000	99.840462
853.000000	99.858601
852.000000	99.874174
851.000000	99.874200
850.000000	99.852930
849.000000	99.824640
848.000000	99.813732
847.000000	99.832461
846.000000	99.872013
845.000000	99.914365
844.000000	99.948012
843.000000	99.972173
842.000000	99.990922
841.000000	100.007193
840.000000	100.020955
839.000000	100.029630
838.000000	100.030243
837.000000	100.023527
836.000000	100.016917
835.000000	100.021538
834.000000	100.043492
833.000000	100.077479
832.000000	100.110321
831.000000	100.131039
830.000000	100.137193
829.000000	100.132695
828.000000	100.122499
827.000000	100.111107
826.000000	100.103271
825.000000	100.101974
824.000000	100.105187
823.000000	100.107245
822.000000	100.104761
821.000000	100.100606
820.000000	100.101490
819.000000	100.111765
818.000000	100.128550
817.000000	100.142304
816.000000	100.143543
815.000000	100.131122
814.000000	100.114289
813.000000	100.105325
812.000000	100.109609
811.000000	100.122328
810.000000	100.133482
809.000000	100.135930
808.000000	100.130806
807.000000	100.126530
806.000000	100.131541
805.000000	100.146134
804.000000	100.162090
803.000000	100.171102
802.000000	100.171625
801.000000	100.166507
800.000000	100.157133
799.000000	100.143391
798.000000	100.127662
797.000000	100.114826
796.000000	100.108327
795.000000	100.108627
794.000000	100.114356
793.000000	100.122058
792.000000	100.126282
791.000000	100.124459
790.000000	100.122002
789.000000	100.128137
788.000000	100.144921
787.000000	100.163037
786.000000	100.170229
785.000000	100.162656
784.000000	100.146915
783.000000	100.132640
782.000000	100.124650
781.000000	100.121796
780.000000	100.121991
779.000000	100.126430
778.000000	100.136524
777.000000	100.147526
776.000000	100.150129
775.000000	100.141250
774.000000	100.129458
773.000000	100.125304
772.000000	100.128897
771.000000	100.132172
770.000000	100.131044
769.000000	100.128578
768.000000	100.126840
767.000000	100.123452
766.000000	100.118223
765.000000	100.116417
764.000000	100.121746
763.000000	100.130891
762.000000	100.138507
761.000000	100.143129
760.000000	100.144555
759.000000	100.140412
758.000000	100.131277
757.000000	100.125861
756.000000	100.133756
755.000000	100.153107
754.000000	100.171090
753.000000	100.178313
752.000000	100.178468
751.000000	100.180975
750.000000	100.187260
749.000000	100.188925
748.000000	100.179320
747.000000	100.162606
746.000000	100.149356
745.000000	100.145479
744.000000	100.148467
743.000000	100.153419
742.000000	100.158090
741.000000	100.161176
740.000000	100.160936
739.000000	100.158752
738.000000	100.159052
737.000000	100.161017
736.000000	100.154790
735.000000	100.132942
734.000000	100.103712
733.000000	100.084494
732.000000	100.081759
731.000000	100.084177
730.000000	100.077276
729.000000	100.057946
728.000000	100.035712
727.000000	100.023680
726.000000	100.025766
725.000000	100.033158
724.000000	100.033718
723.000000	100.023643
722.000000	100.006115
721.000000	99.979621
720.000000	99.934625
719.000000	99.864040
718.000000	99.769430
717.000000	99.651054
716.000000	99.501097
715.000000	99.321769
714.000000	99.149430
713.000000	99.044242
712.000000	99.046459
711.000000	99.144415
710.000000	99.287598
709.000000	99.424934
708.000000	99.530859
707.000000	99.606471
706.000000	99.660431
705.000000	99.695860
704.000000	99.716078
703.000000	99.731672
702.000000	99.755613
701.000000	99.790413
700.000000	99.824023
699.000000	99.846500
698.000000	99.859599
697.000000	99.867179
696.000000	99.867887
695.000000	99.861563
694.000000	99.860496
693.000000	99.877632
692.000000	99.904054
691.000000	99.920843
690.000000	99.925338
689.000000	99.932438
688.000000	99.949805
687.000000	99.965480
686.000000	99.970934
685.000000	99.972152
684.000000	99.970937
683.000000	99.961066
682.000000	99.947379
681.000000	99.946068
680.000000	99.957559
679.000000	99.963356
678.000000	99.956722
677.000000	99.945045
676.000000	99.933798
675.000000	99.921424
674.000000	99.915668
673.000000	99.934222
672.000000	99.986999
671.000000	100.074852
670.000000	100.202398
669.000000	100.355917
668.000000	100.429128
667.000000	100.333333
666.000000	100.194662
665.000000	100.072000
664.000000	99.976316
663.000000	99.923281
662.000000	99.911700
661.000000	99.922263
660.000000	99.937299
659.000000	99.951442
658.000000	99.961283
657.000000	99.955233
656.000000	99.937199
655.000000	99.928441
654.000000	99.934059
653.000000	99.934776
652.000000	99.925345
651.000000	99.926305
650.000000	99.949424
649.000000	99.974666
648.000000	99.979854
647.000000	99.967167
646.000000	99.946343
645.000000	99.921548
644.000000	99.900760
643.000000	99.895320
642.000000	99.905289
641.000000	99.916372
640.000000	99.920870
639.000000	99.927980
638.000000	99.942592
637.000000	99.952958
636.000000	99.950240
635.000000	99.939534
634.000000	99.925596
633.000000	99.904858
632.000000	99.879746
631.000000	99.867860
630.000000	99.884086
629.000000	99.921063
628.000000	99.959108
627.000000	99.987025
626.000000	100.002812
625.000000	100.008069
624.000000	100.004697
623.000000	99.993285
622.000000	99.974147
621.000000	99.952609
620.000000	99.939799
619.000000	99.940459
618.000000	99.943431
617.000000	99.933895
616.000000	99.913258
615.000000	99.895707
614.000000	99.887428
613.000000	99.882599
612.000000	99.878661
611.000000	99.879980
610.000000	99.885151
609.000000	99.885747
608.000000	99.882767
607.000000	99.891242
606.000000	99.917390
605.000000	99.948818
604.000000	99.971077
603.000000	99.982594
602.000000	99.989122
601.000000	99.992173
600.000000	99.989972
599.000000	99.984012
598.000000	99.976181
597.000000	99.964424
596.000000	99.948497
595.000000	99.935436
594.000000	99.932295
593.000000	99.935982
592.000000	99.937814
591.000000	99.936184
590.000000	99.937982
589.000000	99.947307
588.000000	99.958902
587.000000	99.963083
586.000000	99.953452
585.000000	99.932161
584.000000	99.910309
583.000000	99.902499
582.000000	99.916459
581.000000	99.945724
580.000000	99.972309
579.000000	99.980337
578.000000	99.968495
577.000000	99.950184
576.000000	99.941519
575.000000	99.946067
574.000000	99.952605
573.000000	99.951198
572.000000	99.946074
571.000000	99.948111
570.000000	99.959803
569.000000	99.972302
568.000000	99.976838
567.000000	99.972067
566.000000	99.961879
565.000000	99.952056
564.000000	99.946403
563.000000	99.941836
562.000000	99.929608
561.000000	99.908437
560.000000	99.892364
559.000000	99.895597
558.000000	99.911487
557.000000	99.917926
556.000000	99.901883
555.000000	99.870827
554.000000	99.842041
553.000000	99.827977
552.000000	99.831042
551.000000	99.843692
550.000000	99.855004
549.000000	99.865787
548.000000	99.892664
547.000000	99.945192
546.000000	100.001590
545.000000	100.023817
544.000000	99.997972
543.000000	99.944220
542.000000	99.891597
541.000000	99.858472
540.000000	99.853433
539.000000	99.874337
538.000000	99.899969
537.000000	99.901053
536.000000	99.870446
535.000000	99.834192
534.000000	99.823840
533.000000	99.845889
532.000000	99.880687
531.000000	99.902514
530.000000	99.896994
529.000000	99.867098
528.000000	99.826866
527.000000	99.792558
526.000000	99.778092
525.000000	99.791941
524.000000	99.831127
523.000000	99.874290
522.000000	99.889937
521.000000	99.866020
520.000000	99.829182
519.000000	99.820109
518.000000	99.849561
517.000000	99.895689
516.000000	99.941910
515.000000	99.984695
514.000000	100.010394
513.000000	100.000991
512.000000	99.966600
511.000000	99.945407
510.000000	99.958868
509.000000	99.988677
508.000000	100.007098
507.000000	100.010559
506.000000	100.007214
505.000000	99.992906
504.000000	99.963288
503.000000	99.937114
502.000000	99.945414
501.000000	99.991386
500.000000	100.041728
499.000000	100.064069
498.000000	100.050826
497.000000	100.015833
496.000000	99.981144
495.000000	99.961582
494.000000	99.958651
493.000000	99.967181
492.000000	99.983069
491.000000	100.002182
490.000000	100.015745
489.000000	100.019701
488.000000	100.021995
487.000000	100.028113
486.000000	100.024988
485.000000	100.000082
484.000000	99.976328
483.000000	99.996282
482.000000	100.058882
481.000000	100.105417
480.000000	100.086009
479.000000	100.014421
478.000000	99.946694
477.000000	99.926233
476.000000	99.960911
475.000000	100.036362
474.000000	100.121641
473.000000	100.171901
472.000000	100.159566
471.000000	100.104529
470.000000	100.041630
469.000000	99.981238
468.000000	99.923906
467.000000	99.882678
466.000000	99.868691
465.000000	99.875022
464.000000	99.891883
463.000000	99.913490
462.000000	99.921321
461.000000	99.892776
460.000000	99.846855
459.000000	99.848287
458.000000	99.935251
457.000000	100.047185
456.000000	100.099987
455.000000	100.103932
454.000000	100.117560
453.000000	100.161408
452.000000	100.205257
451.000000	100.215047
450.000000	100.189848
