PE IR       SUBTECH     SPECTRUM    ASCII       PEDS        4.00        
   -1
AD10-F008_1.ASC
23/09/08
10:53:00.00
23/09/08
11:14:38.00
uco
Sample 008 By uco Date Friday, September 08 2023
450.000000
#HDR
-1
-1
#GR
cm-1
%T
1.0
0.0
4000.000000
-1.000000
3551
8
100.390979
94.317941
#DATA
4000.000000	100.120164
3999.000000	100.121432
3998.000000	100.121040
3997.000000	100.118799
3996.000000	100.116360
3995.000000	100.115834
3994.000000	100.118187
3993.000000	100.122278
3992.000000	100.125632
3991.000000	100.126394
3990.000000	100.124763
3989.000000	100.122430
3988.000000	100.120685
3987.000000	100.119179
3986.000000	100.116623
3985.000000	100.112516
3984.000000	100.107876
3983.000000	100.104224
3982.000000	100.102182
3981.000000	100.101310
3980.000000	100.101209
3979.000000	100.102345
3978.000000	100.105508
3977.000000	100.110628
3976.000000	100.116380
3975.000000	100.120938
3974.000000	100.122872
3973.000000	100.121431
3972.000000	100.116401
3971.000000	100.108359
3970.000000	100.099148
3969.000000	100.091609
3968.000000	100.088149
3967.000000	100.089074
3966.000000	100.092476
3965.000000	100.095624
3964.000000	100.096774
3963.000000	100.096000
3962.000000	100.094751
3961.000000	100.094906
3960.000000	100.097539
3959.000000	100.102289
3958.000000	100.107552
3957.000000	100.111057
3956.000000	100.110956
3955.000000	100.106615
3954.000000	100.099216
3953.000000	100.091457
3952.000000	100.086003
3951.000000	100.084023
3950.000000	100.084446
3949.000000	100.084911
3948.000000	100.083798
3947.000000	100.081926
3946.000000	100.082393
3945.000000	100.087462
3944.000000	100.095274
3943.000000	100.100542
3942.000000	100.099215
3941.000000	100.092616
3940.000000	100.085642
3939.000000	100.081620
3938.000000	100.080294
3937.000000	100.079896
3936.000000	100.079976
3935.000000	100.081055
3934.000000	100.082937
3933.000000	100.084728
3932.000000	100.085706
3931.000000	100.085710
3930.000000	100.084521
3929.000000	100.082708
3928.000000	100.082702
3927.000000	100.086643
3926.000000	100.093118
3925.000000	100.097253
3924.000000	100.095752
3923.000000	100.090145
3922.000000	100.083731
3921.000000	100.077776
3920.000000	100.072733
3919.000000	100.070689
3918.000000	100.073700
3917.000000	100.079673
3916.000000	100.083195
3915.000000	100.081441
3914.000000	100.076342
3913.000000	100.071549
3912.000000	100.069519
3911.000000	100.070949
3910.000000	100.075274
3909.000000	100.080685
3908.000000	100.085174
3907.000000	100.086421
3906.000000	100.081535
3905.000000	100.067506
3904.000000	100.044904
3903.000000	100.021253
3902.000000	100.007093
3901.000000	100.007556
3900.000000	100.018863
3899.000000	100.032494
3898.000000	100.042727
3897.000000	100.049307
3896.000000	100.053674
3895.000000	100.056774
3894.000000	100.059731
3893.000000	100.063231
3892.000000	100.065452
3891.000000	100.062532
3890.000000	100.054868
3889.000000	100.048761
3888.000000	100.049396
3887.000000	100.054020
3886.000000	100.054916
3885.000000	100.049737
3884.000000	100.046131
3883.000000	100.052165
3882.000000	100.066357
3881.000000	100.078573
3880.000000	100.079713
3879.000000	100.070807
3878.000000	100.061458
3877.000000	100.059448
3876.000000	100.064689
3875.000000	100.070384
3874.000000	100.069903
3873.000000	100.064460
3872.000000	100.060758
3871.000000	100.060770
3870.000000	100.059060
3869.000000	100.052993
3868.000000	100.049383
3867.000000	100.054626
3866.000000	100.064678
3865.000000	100.069888
3864.000000	100.066933
3863.000000	100.061053
3862.000000	100.057511
3861.000000	100.056254
3860.000000	100.054836
3859.000000	100.050068
3858.000000	100.040790
3857.000000	100.029369
3856.000000	100.022526
3855.000000	100.026268
3854.000000	100.035848
3853.000000	100.040912
3852.000000	100.040753
3851.000000	100.042434
3850.000000	100.047757
3849.000000	100.054110
3848.000000	100.060340
3847.000000	100.067918
3846.000000	100.076713
3845.000000	100.083545
3844.000000	100.084611
3843.000000	100.078970
3842.000000	100.070514
3841.000000	100.064746
3840.000000	100.062809
3839.000000	100.060321
3838.000000	100.054665
3837.000000	100.048982
3836.000000	100.049104
3835.000000	100.057763
3834.000000	100.072825
3833.000000	100.088523
3832.000000	100.098206
3831.000000	100.098886
3830.000000	100.094163
3829.000000	100.090482
3828.000000	100.090667
3827.000000	100.090776
3826.000000	100.084893
3825.000000	100.073868
3824.000000	100.065853
3823.000000	100.067564
3822.000000	100.075446
3821.000000	100.077606
3820.000000	100.069756
3819.000000	100.061321
3818.000000	100.061694
3817.000000	100.068353
3816.000000	100.072237
3815.000000	100.071000
3814.000000	100.071310
3813.000000	100.076592
3812.000000	100.081249
3811.000000	100.080147
3810.000000	100.075721
3809.000000	100.074207
3808.000000	100.075492
3807.000000	100.071754
3806.000000	100.059484
3805.000000	100.046910
3804.000000	100.043501
3803.000000	100.049228
3802.000000	100.054712
3801.000000	100.052620
3800.000000	100.047668
3799.000000	100.049032
3798.000000	100.056224
3797.000000	100.061069
3796.000000	100.058882
3795.000000	100.054548
3794.000000	100.055723
3793.000000	100.063741
3792.000000	100.073516
3791.000000	100.079993
3790.000000	100.081309
3789.000000	100.078204
3788.000000	100.073231
3787.000000	100.070119
3786.000000	100.071688
3785.000000	100.077184
3784.000000	100.082664
3783.000000	100.085064
3782.000000	100.084203
3781.000000	100.080470
3780.000000	100.073605
3779.000000	100.064972
3778.000000	100.058633
3777.000000	100.058129
3776.000000	100.062497
3775.000000	100.066684
3774.000000	100.066994
3773.000000	100.065068
3772.000000	100.065167
3771.000000	100.068004
3770.000000	100.070004
3769.000000	100.068456
3768.000000	100.065562
3767.000000	100.064557
3766.000000	100.064878
3765.000000	100.063116
3764.000000	100.058333
3763.000000	100.054113
3762.000000	100.053840
3761.000000	100.056761
3760.000000	100.060091
3759.000000	100.062019
3758.000000	100.060993
3757.000000	100.055813
3756.000000	100.048582
3755.000000	100.043057
3754.000000	100.039047
3753.000000	100.030647
3752.000000	100.013203
3751.000000	99.992195
3750.000000	99.978415
3749.000000	99.975187
3748.000000	99.981283
3747.000000	99.997141
3746.000000	100.019308
3745.000000	100.034930
3744.000000	100.035031
3743.000000	100.031808
3742.000000	100.040756
3741.000000	100.058660
3740.000000	100.073938
3739.000000	100.081390
3738.000000	100.084147
3737.000000	100.085110
3736.000000	100.085953
3735.000000	100.089953
3734.000000	100.096466
3733.000000	100.099135
3732.000000	100.093512
3731.000000	100.082621
3730.000000	100.073293
3729.000000	100.069299
3728.000000	100.069053
3727.000000	100.068443
3726.000000	100.065965
3725.000000	100.064306
3724.000000	100.065665
3723.000000	100.069082
3722.000000	100.072287
3721.000000	100.074785
3720.000000	100.077202
3719.000000	100.078674
3718.000000	100.076851
3717.000000	100.070934
3716.000000	100.065155
3715.000000	100.065027
3714.000000	100.070003
3713.000000	100.072576
3712.000000	100.066626
3711.000000	100.057051
3710.000000	100.054817
3709.000000	100.063687
3708.000000	100.078462
3707.000000	100.091303
3706.000000	100.098136
3705.000000	100.101051
3704.000000	100.104744
3703.000000	100.111181
3702.000000	100.117761
3701.000000	100.120984
3700.000000	100.121572
3699.000000	100.123175
3698.000000	100.126082
3697.000000	100.125169
3696.000000	100.115359
3695.000000	100.097003
3694.000000	100.074565
3693.000000	100.053626
3692.000000	100.040260
3691.000000	100.040115
3690.000000	100.053094
3689.000000	100.069526
3688.000000	100.078352
3687.000000	100.079620
3686.000000	100.081747
3685.000000	100.088300
3684.000000	100.095211
3683.000000	100.097688
3682.000000	100.095444
3681.000000	100.089615
3680.000000	100.079014
3679.000000	100.064128
3678.000000	100.051102
3677.000000	100.047676
3676.000000	100.053499
3675.000000	100.059904
3674.000000	100.061544
3673.000000	100.064858
3672.000000	100.074799
3671.000000	100.087249
3670.000000	100.095362
3669.000000	100.098444
3668.000000	100.101279
3667.000000	100.106449
3666.000000	100.111220
3665.000000	100.112263
3664.000000	100.109997
3663.000000	100.107836
3662.000000	100.107893
3661.000000	100.108951
3660.000000	100.109493
3659.000000	100.109979
3658.000000	100.110264
3657.000000	100.106314
3656.000000	100.093133
3655.000000	100.072843
3654.000000	100.053391
3653.000000	100.040324
3652.000000	100.033188
3651.000000	100.029721
3650.000000	100.032037
3649.000000	100.044748
3648.000000	100.062949
3647.000000	100.075028
3646.000000	100.077486
3645.000000	100.075234
3644.000000	100.073356
3643.000000	100.073482
3642.000000	100.075417
3641.000000	100.078790
3640.000000	100.083175
3639.000000	100.086838
3638.000000	100.088163
3637.000000	100.088784
3636.000000	100.092049
3635.000000	100.097436
3634.000000	100.099169
3633.000000	100.093426
3632.000000	100.083422
3631.000000	100.075366
3630.000000	100.071012
3629.000000	100.068224
3628.000000	100.067446
3627.000000	100.071937
3626.000000	100.082995
3625.000000	100.095833
3624.000000	100.105095
3623.000000	100.110555
3622.000000	100.116180
3621.000000	100.124210
3620.000000	100.131415
3619.000000	100.131808
3618.000000	100.123615
3617.000000	100.112007
3616.000000	100.104138
3615.000000	100.102258
3614.000000	100.101658
3613.000000	100.095669
3612.000000	100.083604
3611.000000	100.072571
3610.000000	100.069986
3609.000000	100.077385
3608.000000	100.090360
3607.000000	100.102607
3606.000000	100.110757
3605.000000	100.114492
3604.000000	100.114523
3603.000000	100.111534
3602.000000	100.106919
3601.000000	100.103135
3600.000000	100.102358
3599.000000	100.104751
3598.000000	100.107760
3597.000000	100.108351
3596.000000	100.105552
3595.000000	100.101486
3594.000000	100.098929
3593.000000	100.098978
3592.000000	100.099836
3591.000000	100.099542
3590.000000	100.097908
3589.000000	100.096902
3588.000000	100.099185
3587.000000	100.105271
3586.000000	100.111485
3585.000000	100.114895
3584.000000	100.116067
3583.000000	100.115746
3582.000000	100.113230
3581.000000	100.107986
3580.000000	100.101068
3579.000000	100.095158
3578.000000	100.092110
3577.000000	100.091545
3576.000000	100.091413
3575.000000	100.090131
3574.000000	100.087451
3573.000000	100.083870
3572.000000	100.080430
3571.000000	100.079181
3570.000000	100.082943
3569.000000	100.092206
3568.000000	100.102981
3567.000000	100.109232
3566.000000	100.108318
3565.000000	100.103094
3564.000000	100.099191
3563.000000	100.099916
3562.000000	100.104679
3561.000000	100.110844
3560.000000	100.115773
3559.000000	100.117698
3558.000000	100.116191
3557.000000	100.111831
3556.000000	100.105760
3555.000000	100.099432
3554.000000	100.094705
3553.000000	100.093107
3552.000000	100.094409
3551.000000	100.096042
3550.000000	100.095311
3549.000000	100.092004
3548.000000	100.088649
3547.000000	100.088583
3546.000000	100.092910
3545.000000	100.098997
3544.000000	100.103299
3543.000000	100.105026
3542.000000	100.105729
3541.000000	100.106781
3540.000000	100.108513
3539.000000	100.110579
3538.000000	100.112250
3537.000000	100.112415
3536.000000	100.110550
3535.000000	100.107839
3534.000000	100.106478
3533.000000	100.107756
3532.000000	100.110694
3531.000000	100.113134
3530.000000	100.113619
3529.000000	100.112431
3528.000000	100.110966
3527.000000	100.110566
3526.000000	100.111616
3525.000000	100.113418
3524.000000	100.114573
3523.000000	100.113890
3522.000000	100.111596
3521.000000	100.109669
3520.000000	100.110351
3519.000000	100.113686
3518.000000	100.116958
3517.000000	100.117075
3516.000000	100.113354
3515.000000	100.107780
3514.000000	100.102818
3513.000000	100.099911
3512.000000	100.099672
3511.000000	100.102615
3510.000000	100.108616
3509.000000	100.115613
3508.000000	100.119819
3507.000000	100.118175
3506.000000	100.110744
3505.000000	100.100885
3504.000000	100.093853
3503.000000	100.093603
3502.000000	100.099325
3501.000000	100.105820
3500.000000	100.108079
3499.000000	100.105456
3498.000000	100.101789
3497.000000	100.102085
3496.000000	100.107772
3495.000000	100.114927
3494.000000	100.117696
3493.000000	100.113815
3492.000000	100.106187
3491.000000	100.099264
3490.000000	100.094881
3489.000000	100.091961
3488.000000	100.089358
3487.000000	100.087713
3486.000000	100.088302
3485.000000	100.090971
3484.000000	100.093792
3483.000000	100.094602
3482.000000	100.092869
3481.000000	100.090241
3480.000000	100.089159
3479.000000	100.090803
3478.000000	100.094400
3477.000000	100.098178
3476.000000	100.100513
3475.000000	100.100282
3474.000000	100.097146
3473.000000	100.092284
3472.000000	100.088475
3471.000000	100.088394
3470.000000	100.092496
3469.000000	100.098832
3468.000000	100.104742
3467.000000	100.108553
3466.000000	100.110350
3465.000000	100.111711
3464.000000	100.114471
3463.000000	100.118900
3462.000000	100.123123
3461.000000	100.125069
3460.000000	100.124831
3459.000000	100.124222
3458.000000	100.124043
3457.000000	100.122903
3456.000000	100.119194
3455.000000	100.113449
3454.000000	100.107909
3453.000000	100.104410
3452.000000	100.103213
3451.000000	100.103687
3450.000000	100.105005
3449.000000	100.106455
3448.000000	100.108021
3447.000000	100.110649
3446.000000	100.114635
3445.000000	100.118027
3444.000000	100.117984
3443.000000	100.113956
3442.000000	100.108769
3441.000000	100.105843
3440.000000	100.105862
3439.000000	100.106709
3438.000000	100.106158
3437.000000	100.103909
3436.000000	100.101351
3435.000000	100.100050
3434.000000	100.100288
3433.000000	100.100840
3432.000000	100.100281
3431.000000	100.098881
3430.000000	100.098404
3429.000000	100.099766
3428.000000	100.101644
3427.000000	100.102114
3426.000000	100.100974
3425.000000	100.099402
3424.000000	100.097833
3423.000000	100.095484
3422.000000	100.092275
3421.000000	100.090013
3420.000000	100.090637
3419.000000	100.093727
3418.000000	100.096828
3417.000000	100.098056
3416.000000	100.097323
3415.000000	100.095037
3414.000000	100.090674
3413.000000	100.083552
3412.000000	100.074623
3411.000000	100.066488
3410.000000	100.061452
3409.000000	100.060183
3408.000000	100.062343
3407.000000	100.067461
3406.000000	100.074560
3405.000000	100.081636
3404.000000	100.086508
3403.000000	100.088322
3402.000000	100.087912
3401.000000	100.086915
3400.000000	100.086593
3399.000000	100.087203
3398.000000	100.088020
3397.000000	100.088082
3396.000000	100.087064
3395.000000	100.085342
3394.000000	100.083277
3393.000000	100.080885
3392.000000	100.078366
3391.000000	100.076529
3390.000000	100.076347
3389.000000	100.077953
3388.000000	100.079933
3387.000000	100.079547
3386.000000	100.074293
3385.000000	100.064257
3384.000000	100.052893
3383.000000	100.044691
3382.000000	100.041700
3381.000000	100.042640
3380.000000	100.044903
3379.000000	100.046660
3378.000000	100.047254
3377.000000	100.046920
3376.000000	100.046564
3375.000000	100.046975
3374.000000	100.047766
3373.000000	100.047662
3372.000000	100.046006
3371.000000	100.043174
3370.000000	100.039315
3369.000000	100.033766
3368.000000	100.026575
3367.000000	100.019717
3366.000000	100.015605
3365.000000	100.014655
3364.000000	100.015267
3363.000000	100.015859
3362.000000	100.015912
3361.000000	100.015263
3360.000000	100.013499
3359.000000	100.010399
3358.000000	100.006285
3357.000000	100.001629
3356.000000	99.996762
3355.000000	99.992151
3354.000000	99.988641
3353.000000	99.987267
3352.000000	99.988865
3351.000000	99.993421
3350.000000	99.999258
3349.000000	100.003174
3348.000000	100.002423
3347.000000	99.997018
3346.000000	99.989797
3345.000000	99.984105
3344.000000	99.981472
3343.000000	99.981140
3342.000000	99.980884
3341.000000	99.978176
3340.000000	99.971767
3339.000000	99.963107
3338.000000	99.955873
3337.000000	99.953024
3336.000000	99.953965
3335.000000	99.955034
3334.000000	99.953068
3333.000000	99.948249
3332.000000	99.943350
3331.000000	99.940816
3330.000000	99.940970
3329.000000	99.942692
3328.000000	99.945029
3327.000000	99.947702
3326.000000	99.950438
3325.000000	99.952555
3324.000000	99.953330
3323.000000	99.952356
3322.000000	99.949434
3321.000000	99.944796
3320.000000	99.939801
3319.000000	99.936756
3318.000000	99.937017
3317.000000	99.939137
3316.000000	99.939530
3315.000000	99.935538
3314.000000	99.927699
3313.000000	99.918832
3312.000000	99.911269
3311.000000	99.905470
3310.000000	99.901144
3309.000000	99.898916
3308.000000	99.900118
3307.000000	99.904953
3306.000000	99.911451
3305.000000	99.916426
3304.000000	99.917271
3303.000000	99.913065
3302.000000	99.904783
3301.000000	99.894979
3300.000000	99.886774
3299.000000	99.882152
3298.000000	99.880896
3297.000000	99.881562
3296.000000	99.883383
3295.000000	99.886757
3294.000000	99.891885
3293.000000	99.897773
3292.000000	99.902808
3291.000000	99.905671
3290.000000	99.905405
3289.000000	99.901369
3288.000000	99.893954
3287.000000	99.885141
3286.000000	99.877714
3285.000000	99.873775
3284.000000	99.873894
3283.000000	99.876915
3282.000000	99.880211
3281.000000	99.880927
3280.000000	99.878065
3279.000000	99.873317
3278.000000	99.869268
3277.000000	99.866772
3276.000000	99.864528
3275.000000	99.861319
3274.000000	99.857834
3273.000000	99.855915
3272.000000	99.856329
3271.000000	99.857737
3270.000000	99.857979
3269.000000	99.856192
3268.000000	99.853515
3267.000000	99.851759
3266.000000	99.851819
3265.000000	99.853841
3264.000000	99.858482
3263.000000	99.866595
3262.000000	99.877146
3261.000000	99.886411
3260.000000	99.890345
3259.000000	99.887717
3258.000000	99.880573
3257.000000	99.872113
3256.000000	99.864895
3255.000000	99.860458
3254.000000	99.859213
3253.000000	99.860119
3252.000000	99.861255
3251.000000	99.861402
3250.000000	99.860859
3249.000000	99.860558
3248.000000	99.860795
3247.000000	99.861242
3246.000000	99.861844
3245.000000	99.863122
3244.000000	99.865249
3243.000000	99.867074
3242.000000	99.866640
3241.000000	99.863188
3240.000000	99.858668
3239.000000	99.856522
3238.000000	99.858384
3237.000000	99.862214
3236.000000	99.864351
3235.000000	99.863336
3234.000000	99.860886
3233.000000	99.859228
3232.000000	99.858707
3231.000000	99.858751
3230.000000	99.859999
3229.000000	99.863733
3228.000000	99.869211
3227.000000	99.873040
3226.000000	99.872257
3225.000000	99.867281
3224.000000	99.861139
3223.000000	99.856301
3222.000000	99.853261
3221.000000	99.851993
3220.000000	99.853235
3219.000000	99.857345
3218.000000	99.862586
3217.000000	99.865811
3216.000000	99.865072
3215.000000	99.861236
3214.000000	99.856922
3213.000000	99.854115
3212.000000	99.852914
3211.000000	99.852160
3210.000000	99.850971
3209.000000	99.849633
3208.000000	99.849285
3207.000000	99.850740
3206.000000	99.853614
3205.000000	99.856726
3204.000000	99.859406
3203.000000	99.862115
3202.000000	99.865545
3201.000000	99.869293
3200.000000	99.871918
3199.000000	99.872318
3198.000000	99.870660
3197.000000	99.867593
3196.000000	99.863000
3195.000000	99.856225
3194.000000	99.847636
3193.000000	99.839440
3192.000000	99.834479
3191.000000	99.834070
3190.000000	99.837089
3189.000000	99.841089
3188.000000	99.844286
3187.000000	99.846536
3186.000000	99.848659
3185.000000	99.850895
3184.000000	99.852303
3183.000000	99.851852
3182.000000	99.849966
3181.000000	99.848398
3180.000000	99.848330
3179.000000	99.849010
3178.000000	99.848564
3177.000000	99.845988
3176.000000	99.842013
3175.000000	99.838331
3174.000000	99.836438
3173.000000	99.837014
3172.000000	99.839590
3171.000000	99.842593
3170.000000	99.844285
3169.000000	99.844223
3168.000000	99.843752
3167.000000	99.844757
3166.000000	99.847962
3165.000000	99.852318
3164.000000	99.855894
3163.000000	99.857291
3162.000000	99.856571
3161.000000	99.854987
3160.000000	99.853811
3159.000000	99.853338
3158.000000	99.853083
3157.000000	99.852919
3156.000000	99.853701
3155.000000	99.856438
3154.000000	99.860833
3153.000000	99.864982
3152.000000	99.866969
3151.000000	99.866851
3150.000000	99.866711
3149.000000	99.868283
3148.000000	99.870606
3147.000000	99.870541
3146.000000	99.865898
3145.000000	99.857822
3144.000000	99.850000
3143.000000	99.845651
3142.000000	99.845429
3141.000000	99.847783
3140.000000	99.850798
3139.000000	99.853683
3138.000000	99.856899
3137.000000	99.860995
3136.000000	99.865168
3135.000000	99.867130
3134.000000	99.864907
3133.000000	99.859000
3132.000000	99.852669
3131.000000	99.849912
3130.000000	99.852766
3129.000000	99.859634
3128.000000	99.865876
3127.000000	99.867125
3126.000000	99.863265
3125.000000	99.858574
3124.000000	99.857053
3123.000000	99.858104
3122.000000	99.858050
3121.000000	99.855406
3120.000000	99.852762
3119.000000	99.852963
3118.000000	99.855337
3117.000000	99.857020
3116.000000	99.856892
3115.000000	99.856668
3114.000000	99.858311
3113.000000	99.861534
3112.000000	99.863984
3111.000000	99.863288
3110.000000	99.859043
3109.000000	99.853326
3108.000000	99.849147
3107.000000	99.847911
3106.000000	99.848355
3105.000000	99.848018
3104.000000	99.845516
3103.000000	99.841091
3102.000000	99.835685
3101.000000	99.830348
3100.000000	99.826410
3099.000000	99.825062
3098.000000	99.826352
3097.000000	99.829119
3096.000000	99.832074
3095.000000	99.834570
3094.000000	99.836296
3093.000000	99.837000
3092.000000	99.836771
3091.000000	99.836029
3090.000000	99.834757
3089.000000	99.832203
3088.000000	99.827850
3087.000000	99.822554
3086.000000	99.818272
3085.000000	99.816529
3084.000000	99.817275
3083.000000	99.819077
3082.000000	99.820391
3081.000000	99.820739
3080.000000	99.820879
3079.000000	99.821787
3078.000000	99.823596
3077.000000	99.825590
3076.000000	99.826938
3075.000000	99.827076
3074.000000	99.825570
3073.000000	99.822318
3072.000000	99.818180
3071.000000	99.814979
3070.000000	99.814231
3069.000000	99.815646
3068.000000	99.817054
3067.000000	99.816026
3066.000000	99.811948
3065.000000	99.806787
3064.000000	99.803669
3063.000000	99.804391
3062.000000	99.808142
3061.000000	99.812502
3060.000000	99.815317
3059.000000	99.815554
3058.000000	99.813327
3057.000000	99.810114
3056.000000	99.808537
3055.000000	99.810622
3054.000000	99.815719
3053.000000	99.820908
3052.000000	99.823711
3051.000000	99.823960
3050.000000	99.823086
3049.000000	99.822575
3048.000000	99.823501
3047.000000	99.826417
3046.000000	99.830572
3045.000000	99.833506
3044.000000	99.832504
3043.000000	99.826906
3042.000000	99.818906
3041.000000	99.812119
3040.000000	99.809438
3039.000000	99.811639
3038.000000	99.817162
3037.000000	99.822827
3036.000000	99.825334
3035.000000	99.823072
3034.000000	99.817270
3033.000000	99.811229
3032.000000	99.807775
3031.000000	99.806981
3030.000000	99.806809
3029.000000	99.806196
3028.000000	99.806629
3027.000000	99.810044
3026.000000	99.815775
3025.000000	99.820604
3024.000000	99.821694
3023.000000	99.818768
3022.000000	99.813675
3021.000000	99.809107
3020.000000	99.807739
3019.000000	99.810804
3018.000000	99.816369
3017.000000	99.819782
3016.000000	99.817289
3015.000000	99.809411
3014.000000	99.800568
3013.000000	99.795488
3012.000000	99.795969
3011.000000	99.799999
3010.000000	99.803333
3009.000000	99.802520
3008.000000	99.797369
3007.000000	99.790687
3006.000000	99.785371
3005.000000	99.782023
3004.000000	99.779550
3003.000000	99.777392
3002.000000	99.776339
3001.000000	99.777366
3000.000000	99.780382
2999.000000	99.784154
2998.000000	99.787127
2997.000000	99.788492
2996.000000	99.788800
2995.000000	99.789248
2994.000000	99.789961
2993.000000	99.789227
2992.000000	99.784909
2991.000000	99.776471
2990.000000	99.765487
2989.000000	99.754639
2988.000000	99.746598
2987.000000	99.742978
2986.000000	99.743174
2985.000000	99.744146
2984.000000	99.742168
2983.000000	99.735481
2982.000000	99.725283
2981.000000	99.714473
2980.000000	99.705473
2979.000000	99.698839
2978.000000	99.693087
2977.000000	99.685939
2976.000000	99.676213
2975.000000	99.664629
2974.000000	99.652444
2973.000000	99.639622
2972.000000	99.625052
2971.000000	99.608411
2970.000000	99.591013
2969.000000	99.574676
2968.000000	99.560549
2967.000000	99.549019
2966.000000	99.539548
2965.000000	99.529860
2964.000000	99.516385
2963.000000	99.497037
2962.000000	99.473598
2961.000000	99.450353
2960.000000	99.430269
2959.000000	99.413279
2958.000000	99.398281
2957.000000	99.385299
2956.000000	99.374908
2955.000000	99.366770
2954.000000	99.360401
2953.000000	99.357045
2952.000000	99.358773
2951.000000	99.364894
2950.000000	99.370475
2949.000000	99.369889
2948.000000	99.361710
2947.000000	99.349375
2946.000000	99.337165
2945.000000	99.326333
2944.000000	99.315014
2943.000000	99.300665
2942.000000	99.281959
2941.000000	99.259040
2940.000000	99.232873
2939.000000	99.204392
2938.000000	99.173540
2937.000000	99.139008
2936.000000	99.099287
2935.000000	99.054535
2934.000000	99.007344
2933.000000	98.961193
2932.000000	98.917679
2931.000000	98.875270
2930.000000	98.831047
2929.000000	98.783630
2928.000000	98.734198
2927.000000	98.685033
2926.000000	98.637979
2925.000000	98.594694
2924.000000	98.557262
2923.000000	98.527510
2922.000000	98.505932
2921.000000	98.492246
2920.000000	98.487250
2919.000000	98.493299
2918.000000	98.512974
2917.000000	98.547757
2916.000000	98.597694
2915.000000	98.661210
2914.000000	98.734456
2913.000000	98.811686
2912.000000	98.886969
2911.000000	98.955824
2910.000000	99.015245
2909.000000	99.063588
2908.000000	99.101618
2907.000000	99.133033
2906.000000	99.162312
2905.000000	99.191363
2904.000000	99.218876
2903.000000	99.243071
2902.000000	99.264139
2901.000000	99.283880
2900.000000	99.303093
2899.000000	99.321292
2898.000000	99.337856
2897.000000	99.352859
2896.000000	99.366520
2895.000000	99.378624
2894.000000	99.389006
2893.000000	99.398349
2892.000000	99.408088
2891.000000	99.419449
2890.000000	99.432487
2889.000000	99.445820
2888.000000	99.457291
2887.000000	99.465449
2886.000000	99.470939
2885.000000	99.476270
2884.000000	99.483577
2883.000000	99.492431
2882.000000	99.500193
2881.000000	99.504640
2880.000000	99.506020
2879.000000	99.506335
2878.000000	99.507070
2877.000000	99.507827
2876.000000	99.506755
2875.000000	99.501826
2874.000000	99.492038
2873.000000	99.478267
2872.000000	99.463426
2871.000000	99.451327
2870.000000	99.444482
2869.000000	99.442211
2868.000000	99.440790
2867.000000	99.435906
2866.000000	99.425711
2865.000000	99.411714
2864.000000	99.396391
2863.000000	99.380052
2862.000000	99.360311
2861.000000	99.334490
2860.000000	99.301693
2859.000000	99.262464
2858.000000	99.217720
2857.000000	99.168984
2856.000000	99.118979
2855.000000	99.070772
2854.000000	99.026680
2853.000000	98.988854
2852.000000	98.960871
2851.000000	98.948015
2850.000000	98.955454
2849.000000	98.986017
2848.000000	99.038328
2847.000000	99.106069
2846.000000	99.179784
2845.000000	99.251426
2844.000000	99.317672
2843.000000	99.378636
2842.000000	99.433978
2841.000000	99.481723
2840.000000	99.520985
2839.000000	99.553560
2838.000000	99.581834
2837.000000	99.606431
2836.000000	99.626958
2835.000000	99.643888
2834.000000	99.658177
2833.000000	99.669692
2832.000000	99.677597
2831.000000	99.682324
2830.000000	99.685889
2829.000000	99.690061
2828.000000	99.694912
2827.000000	99.699293
2826.000000	99.702195
2825.000000	99.703573
2824.000000	99.704555
2823.000000	99.707023
2822.000000	99.712439
2821.000000	99.720561
2820.000000	99.729304
2819.000000	99.736112
2818.000000	99.739746
2817.000000	99.741112
2816.000000	99.742429
2815.000000	99.745323
2814.000000	99.749533
2813.000000	99.753611
2812.000000	99.756603
2811.000000	99.758465
2810.000000	99.758993
2809.000000	99.757449
2808.000000	99.753899
2807.000000	99.750109
2806.000000	99.748234
2805.000000	99.748936
2804.000000	99.751328
2803.000000	99.754264
2802.000000	99.756835
2801.000000	99.758156
2800.000000	99.757906
2799.000000	99.757216
2798.000000	99.757973
2797.000000	99.760807
2796.000000	99.764259
2795.000000	99.766314
2794.000000	99.766446
2793.000000	99.766029
2792.000000	99.766969
2791.000000	99.769882
2790.000000	99.773293
2789.000000	99.774872
2788.000000	99.773876
2787.000000	99.772121
2786.000000	99.771892
2785.000000	99.773083
2784.000000	99.773303
2783.000000	99.770966
2782.000000	99.767332
2781.000000	99.765032
2780.000000	99.765250
2779.000000	99.767031
2778.000000	99.768789
2777.000000	99.769739
2776.000000	99.770052
2775.000000	99.770445
2774.000000	99.771766
2773.000000	99.774460
2772.000000	99.778081
2771.000000	99.781479
2770.000000	99.783669
2769.000000	99.784536
2768.000000	99.784717
2767.000000	99.784874
2766.000000	99.785086
2765.000000	99.784872
2764.000000	99.783818
2763.000000	99.782260
2762.000000	99.781265
2761.000000	99.781789
2760.000000	99.783758
2759.000000	99.786059
2758.000000	99.787464
2757.000000	99.787601
2756.000000	99.787109
2755.000000	99.787094
2754.000000	99.788464
2753.000000	99.791420
2752.000000	99.795111
2751.000000	99.797776
2750.000000	99.797745
2749.000000	99.794763
2748.000000	99.790374
2747.000000	99.786761
2746.000000	99.785228
2745.000000	99.785721
2744.000000	99.787410
2743.000000	99.789318
2742.000000	99.790601
2741.000000	99.790801
2740.000000	99.790011
2739.000000	99.788558
2738.000000	99.786645
2737.000000	99.784690
2736.000000	99.783856
2735.000000	99.785474
2734.000000	99.789569
2733.000000	99.794430
2732.000000	99.798079
2731.000000	99.799850
2730.000000	99.800312
2729.000000	99.800128
2728.000000	99.799568
2727.000000	99.798842
2726.000000	99.798179
2725.000000	99.797464
2724.000000	99.796335
2723.000000	99.794842
2722.000000	99.793758
2721.000000	99.794028
2720.000000	99.796001
2719.000000	99.799175
2718.000000	99.802481
2717.000000	99.804788
2716.000000	99.805383
2715.000000	99.804264
2714.000000	99.802193
2713.000000	99.800540
2712.000000	99.800702
2711.000000	99.802999
2710.000000	99.805886
2709.000000	99.806857
2708.000000	99.804823
2707.000000	99.801505
2706.000000	99.799896
2705.000000	99.801231
2704.000000	99.803897
2703.000000	99.805406
2702.000000	99.804986
2701.000000	99.804008
2700.000000	99.804245
2699.000000	99.806142
2698.000000	99.808686
2697.000000	99.810546
2696.000000	99.811164
2695.000000	99.810915
2694.000000	99.810524
2693.000000	99.810469
2692.000000	99.810754
2691.000000	99.810863
2690.000000	99.809840
2689.000000	99.806828
2688.000000	99.802021
2687.000000	99.797128
2686.000000	99.794444
2685.000000	99.795089
2684.000000	99.798100
2683.000000	99.801286
2682.000000	99.802931
2681.000000	99.802705
2680.000000	99.801244
2679.000000	99.799203
2678.000000	99.796862
2677.000000	99.794437
2676.000000	99.792383
2675.000000	99.791196
2674.000000	99.791038
2673.000000	99.791849
2672.000000	99.793777
2671.000000	99.797111
2670.000000	99.801528
2669.000000	99.805697
2668.000000	99.808081
2667.000000	99.808127
2666.000000	99.806272
2665.000000	99.802784
2664.000000	99.797202
2663.000000	99.789425
2662.000000	99.781015
2661.000000	99.774491
2660.000000	99.771018
2659.000000	99.769407
2658.000000	99.768112
2657.000000	99.767789
2656.000000	99.770908
2655.000000	99.778541
2654.000000	99.788405
2653.000000	99.796772
2652.000000	99.801656
2651.000000	99.803401
2650.000000	99.802821
2649.000000	99.800269
2648.000000	99.796726
2647.000000	99.794283
2646.000000	99.794416
2645.000000	99.796426
2644.000000	99.798694
2643.000000	99.801050
2642.000000	99.804730
2641.000000	99.810027
2640.000000	99.815279
2639.000000	99.818769
2638.000000	99.820654
2637.000000	99.822148
2636.000000	99.823471
2635.000000	99.823900
2634.000000	99.823770
2633.000000	99.825040
2632.000000	99.829166
2631.000000	99.835092
2630.000000	99.840149
2629.000000	99.842581
2628.000000	99.842409
2627.000000	99.840258
2626.000000	99.836475
2625.000000	99.831684
2624.000000	99.827352
2623.000000	99.825160
2622.000000	99.826113
2621.000000	99.830288
2620.000000	99.836650
2619.000000	99.842671
2618.000000	99.844993
2617.000000	99.841609
2616.000000	99.833571
2615.000000	99.824294
2614.000000	99.817492
2613.000000	99.815801
2612.000000	99.820041
2611.000000	99.828306
2610.000000	99.836221
2609.000000	99.839916
2608.000000	99.839449
2607.000000	99.838527
2606.000000	99.840376
2605.000000	99.844812
2604.000000	99.849535
2603.000000	99.853040
2602.000000	99.855295
2601.000000	99.856551
2600.000000	99.857113
2599.000000	99.858115
2598.000000	99.860963
2597.000000	99.865403
2596.000000	99.869248
2595.000000	99.871040
2594.000000	99.872166
2593.000000	99.874781
2592.000000	99.877591
2591.000000	99.875829
2590.000000	99.866882
2589.000000	99.854922
2588.000000	99.847884
2587.000000	99.849575
2586.000000	99.856515
2585.000000	99.862856
2584.000000	99.866677
2583.000000	99.870427
2582.000000	99.876742
2581.000000	99.885557
2580.000000	99.894304
2579.000000	99.899277
2578.000000	99.897436
2577.000000	99.888892
2576.000000	99.877881
2575.000000	99.870082
2574.000000	99.868855
2573.000000	99.874546
2572.000000	99.886014
2571.000000	99.900685
2570.000000	99.913778
2569.000000	99.920513
2568.000000	99.920254
2567.000000	99.916845
2566.000000	99.914198
2565.000000	99.913066
2564.000000	99.912273
2563.000000	99.910771
2562.000000	99.907187
2561.000000	99.899964
2560.000000	99.890122
2559.000000	99.882336
2558.000000	99.880570
2557.000000	99.883156
2556.000000	99.884394
2555.000000	99.881150
2554.000000	99.876112
2553.000000	99.874301
2552.000000	99.878089
2551.000000	99.885965
2550.000000	99.894511
2549.000000	99.900420
2548.000000	99.901451
2547.000000	99.896859
2546.000000	99.887578
2545.000000	99.876252
2544.000000	99.867132
2543.000000	99.864805
2542.000000	99.871230
2541.000000	99.883318
2540.000000	99.894352
2539.000000	99.898874
2538.000000	99.896175
2537.000000	99.889243
2536.000000	99.881464
2535.000000	99.875188
2534.000000	99.872289
2533.000000	99.873846
2532.000000	99.878596
2531.000000	99.883179
2530.000000	99.885280
2529.000000	99.885919
2528.000000	99.887477
2527.000000	99.889817
2526.000000	99.889863
2525.000000	99.885520
2524.000000	99.878664
2523.000000	99.873316
2522.000000	99.871329
2521.000000	99.870897
2520.000000	99.869024
2519.000000	99.864384
2518.000000	99.857625
2517.000000	99.850096
2516.000000	99.843338
2515.000000	99.839391
2514.000000	99.839971
2513.000000	99.844251
2512.000000	99.848188
2511.000000	99.847845
2510.000000	99.843706
2509.000000	99.840269
2508.000000	99.840412
2507.000000	99.841632
2506.000000	99.839673
2505.000000	99.834645
2504.000000	99.831147
2503.000000	99.832352
2502.000000	99.836666
2501.000000	99.841093
2500.000000	99.845298
2499.000000	99.850726
2498.000000	99.857119
2497.000000	99.861924
2496.000000	99.862497
2495.000000	99.858083
2494.000000	99.850852
2493.000000	99.845873
2492.000000	99.848263
2491.000000	99.858269
2490.000000	99.870151
2489.000000	99.877670
2488.000000	99.879743
2487.000000	99.878928
2486.000000	99.876000
2485.000000	99.869523
2484.000000	99.860761
2483.000000	99.855560
2482.000000	99.859472
2481.000000	99.872619
2480.000000	99.890003
2479.000000	99.905495
2478.000000	99.914774
2477.000000	99.916422
2476.000000	99.912414
2475.000000	99.907087
2474.000000	99.904245
2473.000000	99.904814
2472.000000	99.907335
2471.000000	99.909971
2470.000000	99.911585
2469.000000	99.911683
2468.000000	99.910420
2467.000000	99.908717
2466.000000	99.907726
2465.000000	99.907968
2464.000000	99.909255
2463.000000	99.911549
2462.000000	99.915349
2461.000000	99.920355
2460.000000	99.923593
2459.000000	99.920292
2458.000000	99.908568
2457.000000	99.893518
2456.000000	99.885006
2455.000000	99.889796
2454.000000	99.905710
2453.000000	99.923162
2452.000000	99.931840
2451.000000	99.926732
2450.000000	99.910923
2449.000000	99.894260
2448.000000	99.887376
2447.000000	99.893907
2446.000000	99.908123
2445.000000	99.920963
2444.000000	99.927894
2443.000000	99.930465
2442.000000	99.932360
2441.000000	99.936266
2440.000000	99.942971
2439.000000	99.950216
2438.000000	99.952583
2437.000000	99.946000
2436.000000	99.933489
2435.000000	99.923970
2434.000000	99.923736
2433.000000	99.930325
2432.000000	99.935738
2431.000000	99.934634
2430.000000	99.928077
2429.000000	99.920514
2428.000000	99.915143
2427.000000	99.912409
2426.000000	99.911667
2425.000000	99.912900
2424.000000	99.916435
2423.000000	99.921596
2422.000000	99.926356
2421.000000	99.928405
2420.000000	99.926226
2419.000000	99.919599
2418.000000	99.910016
2417.000000	99.900518
2416.000000	99.893956
2415.000000	99.891114
2414.000000	99.891285
2413.000000	99.894261
2412.000000	99.900095
2411.000000	99.907110
2410.000000	99.912592
2409.000000	99.916053
2408.000000	99.919630
2407.000000	99.924203
2406.000000	99.927466
2405.000000	99.927208
2404.000000	99.924380
2403.000000	99.921415
2402.000000	99.919731
2401.000000	99.920439
2400.000000	99.924779
2399.000000	99.931334
2398.000000	99.935313
2397.000000	99.933906
2396.000000	99.930699
2395.000000	99.931298
2394.000000	99.935395
2393.000000	99.936824
2392.000000	99.931314
2391.000000	99.921505
2390.000000	99.913967
2389.000000	99.913414
2388.000000	99.920226
2387.000000	99.930364
2386.000000	99.938259
2385.000000	99.940924
2384.000000	99.939929
2383.000000	99.939460
2382.000000	99.941562
2381.000000	99.945989
2380.000000	99.951563
2379.000000	99.955699
2378.000000	99.954734
2377.000000	99.947267
2376.000000	99.936862
2375.000000	99.928494
2374.000000	99.925499
2373.000000	99.931282
2372.000000	99.950039
2371.000000	99.979362
2370.000000	100.006348
2369.000000	100.018081
2368.000000	100.010957
2367.000000	99.989479
2366.000000	99.960956
2365.000000	99.935727
2364.000000	99.924311
2363.000000	99.925042
2362.000000	99.926020
2361.000000	99.924291
2360.000000	99.928933
2359.000000	99.946678
2358.000000	99.971224
2357.000000	99.988403
2356.000000	99.988309
2355.000000	99.966505
2354.000000	99.939713
2353.000000	99.931352
2352.000000	99.944828
2351.000000	99.959244
2350.000000	99.957109
2349.000000	99.940127
2348.000000	99.922328
2347.000000	99.919690
2346.000000	99.933164
2345.000000	99.941280
2344.000000	99.928458
2343.000000	99.904355
2342.000000	99.892397
2341.000000	99.900510
2340.000000	99.914470
2339.000000	99.918609
2338.000000	99.913040
2337.000000	99.908286
2336.000000	99.907840
2335.000000	99.912085
2334.000000	99.923694
2333.000000	99.946205
2332.000000	99.966969
2331.000000	99.972488
2330.000000	99.957384
2329.000000	99.933613
2328.000000	99.907278
2327.000000	99.883102
2326.000000	99.864844
2325.000000	99.858775
2324.000000	99.865245
2323.000000	99.877832
2322.000000	99.885289
2321.000000	99.878663
2320.000000	99.855315
2319.000000	99.825301
2318.000000	99.798767
2317.000000	99.782437
2316.000000	99.774738
2315.000000	99.779760
2314.000000	99.798826
2313.000000	99.826964
2312.000000	99.847518
2311.000000	99.852538
2310.000000	99.847050
2309.000000	99.844200
2308.000000	99.848148
2307.000000	99.856332
2306.000000	99.863994
2305.000000	99.869796
2304.000000	99.872429
2303.000000	99.872828
2302.000000	99.873212
2301.000000	99.877884
2300.000000	99.887178
2299.000000	99.899114
2298.000000	99.907416
2297.000000	99.907262
2296.000000	99.895591
2295.000000	99.876984
2294.000000	99.860445
2293.000000	99.854651
2292.000000	99.859920
2291.000000	99.869098
2290.000000	99.874028
2289.000000	99.872322
2288.000000	99.867663
2287.000000	99.863922
2286.000000	99.861140
2285.000000	99.856923
2284.000000	99.852719
2283.000000	99.854062
2282.000000	99.865129
2281.000000	99.883011
2280.000000	99.900404
2279.000000	99.911351
2278.000000	99.913256
2277.000000	99.905401
2276.000000	99.888953
2275.000000	99.869749
2274.000000	99.857624
2273.000000	99.860989
2272.000000	99.879516
2271.000000	99.902877
2270.000000	99.917599
2269.000000	99.917851
2268.000000	99.909868
2267.000000	99.904756
2266.000000	99.906863
2265.000000	99.911535
2264.000000	99.913672
2263.000000	99.914728
2262.000000	99.919298
2261.000000	99.927510
2260.000000	99.933978
2259.000000	99.932739
2258.000000	99.922931
2257.000000	99.910486
2256.000000	99.904612
2255.000000	99.908909
2254.000000	99.915596
2253.000000	99.912903
2252.000000	99.899096
2251.000000	99.885276
2250.000000	99.882627
2249.000000	99.892574
2248.000000	99.910378
2247.000000	99.931948
2246.000000	99.951703
2245.000000	99.960468
2244.000000	99.953546
2243.000000	99.938990
2242.000000	99.930847
2241.000000	99.934553
2240.000000	99.943126
2239.000000	99.947070
2238.000000	99.943626
2237.000000	99.936292
2236.000000	99.928810
2235.000000	99.921002
2234.000000	99.910823
2233.000000	99.901104
2232.000000	99.901041
2231.000000	99.915074
2230.000000	99.931286
2229.000000	99.930261
2228.000000	99.908943
2227.000000	99.887470
2226.000000	99.887215
2225.000000	99.909599
2224.000000	99.941180
2223.000000	99.969919
2222.000000	99.987711
2221.000000	99.986433
2220.000000	99.964816
2219.000000	99.935248
2218.000000	99.912719
2217.000000	99.900434
2216.000000	99.894710
2215.000000	99.898124
2214.000000	99.914772
2213.000000	99.936127
2212.000000	99.946425
2211.000000	99.942497
2210.000000	99.934355
2209.000000	99.924735
2208.000000	99.902880
2207.000000	99.863753
2206.000000	99.821682
2205.000000	99.796767
2204.000000	99.794830
2203.000000	99.806944
2202.000000	99.822929
2201.000000	99.838772
2200.000000	99.855035
2199.000000	99.873382
2198.000000	99.891977
2197.000000	99.901851
2196.000000	99.893086
2195.000000	99.869054
2194.000000	99.850376
2193.000000	99.858931
2192.000000	99.896006
2191.000000	99.937462
2190.000000	99.951387
2189.000000	99.923640
2188.000000	99.871088
2187.000000	99.828344
2186.000000	99.816924
2185.000000	99.827071
2184.000000	99.831041
2183.000000	99.813813
2182.000000	99.787900
2181.000000	99.780609
2180.000000	99.811000
2179.000000	99.875533
2178.000000	99.948614
2177.000000	99.996995
2176.000000	100.003818
2175.000000	99.981721
2174.000000	99.955792
2173.000000	99.934288
2172.000000	99.904701
2171.000000	99.857506
2170.000000	99.802088
2169.000000	99.756307
2168.000000	99.728298
2167.000000	99.715851
2166.000000	99.719435
2165.000000	99.745302
2164.000000	99.793461
2163.000000	99.850078
2162.000000	99.898607
2161.000000	99.936579
2160.000000	99.976077
2159.000000	100.021904
2158.000000	100.054764
2157.000000	100.052353
2156.000000	100.021303
2155.000000	99.989176
2154.000000	99.972203
2153.000000	99.967040
2152.000000	99.970208
2151.000000	99.988988
2150.000000	100.025994
2149.000000	100.063428
2148.000000	100.077804
2147.000000	100.068306
2146.000000	100.059301
2145.000000	100.073189
2144.000000	100.107342
2143.000000	100.139592
2142.000000	100.150990
2141.000000	100.141408
2140.000000	100.126550
2139.000000	100.120690
2138.000000	100.122209
2137.000000	100.117541
2136.000000	100.098905
2135.000000	100.074700
2134.000000	100.059820
2133.000000	100.059782
2132.000000	100.067448
2131.000000	100.072064
2130.000000	100.067745
2129.000000	100.055551
2128.000000	100.041729
2127.000000	100.033028
2126.000000	100.031079
2125.000000	100.031238
2124.000000	100.027696
2123.000000	100.018393
2122.000000	100.004629
2121.000000	99.988920
2120.000000	99.975380
2119.000000	99.969284
2118.000000	99.972408
2117.000000	99.979539
2116.000000	99.982463
2115.000000	99.977780
2114.000000	99.968881
2113.000000	99.960986
2112.000000	99.956026
2111.000000	99.952374
2110.000000	99.948500
2109.000000	99.946449
2108.000000	99.951059
2107.000000	99.963975
2106.000000	99.978946
2105.000000	99.986715
2104.000000	99.985851
2103.000000	99.984893
2102.000000	99.991447
2101.000000	100.003070
2100.000000	100.012156
2099.000000	100.015818
2098.000000	100.016104
2097.000000	100.013572
2096.000000	100.006841
2095.000000	99.997622
2094.000000	99.990446
2093.000000	99.987307
2092.000000	99.987156
2091.000000	99.990508
2090.000000	99.998744
2089.000000	100.007132
2088.000000	100.003746
2087.000000	99.980762
2086.000000	99.945744
2085.000000	99.917867
2084.000000	99.910707
2083.000000	99.919537
2082.000000	99.927780
2081.000000	99.924828
2080.000000	99.915157
2079.000000	99.910258
2078.000000	99.916064
2077.000000	99.931213
2076.000000	99.952749
2075.000000	99.976693
2074.000000	99.994653
2073.000000	99.998206
2072.000000	99.988908
2071.000000	99.976854
2070.000000	99.967482
2069.000000	99.956841
2068.000000	99.942660
2067.000000	99.931720
2066.000000	99.930425
2065.000000	99.934481
2064.000000	99.935270
2063.000000	99.932936
2062.000000	99.935308
2061.000000	99.946356
2060.000000	99.961254
2059.000000	99.970737
2058.000000	99.966796
2057.000000	99.948786
2056.000000	99.928926
2055.000000	99.925188
2054.000000	99.940323
2053.000000	99.952979
2052.000000	99.940349
2051.000000	99.906578
2050.000000	99.879446
2049.000000	99.879804
2048.000000	99.902525
2047.000000	99.931185
2046.000000	99.959681
2045.000000	99.988130
2044.000000	100.008759
2043.000000	100.010353
2042.000000	99.993065
2041.000000	99.970015
2040.000000	99.954042
2039.000000	99.947763
2038.000000	99.947101
2037.000000	99.949032
2036.000000	99.954729
2035.000000	99.968407
2034.000000	99.993500
2033.000000	100.027026
2032.000000	100.056244
2031.000000	100.064225
2030.000000	100.043635
2029.000000	100.008270
2028.000000	99.987564
2027.000000	100.002020
2026.000000	100.043962
2025.000000	100.085029
2024.000000	100.102308
2023.000000	100.094649
2022.000000	100.075505
2021.000000	100.058834
2020.000000	100.052275
2019.000000	100.056232
2018.000000	100.067034
2017.000000	100.083461
2016.000000	100.108017
2015.000000	100.136643
2014.000000	100.151540
2013.000000	100.134893
2012.000000	100.091424
2011.000000	100.046431
2010.000000	100.019333
2009.000000	100.010392
2008.000000	100.014339
2007.000000	100.033940
2006.000000	100.070292
2005.000000	100.107955
2004.000000	100.122773
2003.000000	100.103500
2002.000000	100.060735
2001.000000	100.018225
2000.000000	99.995268
1999.000000	99.992297
1998.000000	99.994464
1997.000000	99.992073
1996.000000	99.992803
1995.000000	100.006602
1994.000000	100.023763
1993.000000	100.020835
1992.000000	99.991113
1991.000000	99.955111
1990.000000	99.932830
1989.000000	99.923911
1988.000000	99.922874
1987.000000	99.934586
1986.000000	99.962720
1985.000000	99.995736
1984.000000	100.017308
1983.000000	100.022416
1982.000000	100.011783
1981.000000	99.981474
1980.000000	99.935164
1979.000000	99.901080
1978.000000	99.914246
1977.000000	99.974283
1976.000000	100.038945
1975.000000	100.070788
1974.000000	100.071471
1973.000000	100.064626
1972.000000	100.063493
1971.000000	100.062299
1970.000000	100.050435
1969.000000	100.027215
1968.000000	100.003899
1967.000000	99.993956
1966.000000	100.003461
1965.000000	100.030847
1964.000000	100.069701
1963.000000	100.106206
1962.000000	100.119295
1961.000000	100.095750
1960.000000	100.046606
1959.000000	99.997648
1958.000000	99.965446
1957.000000	99.952926
1956.000000	99.962455
1955.000000	99.997307
1954.000000	100.048027
1953.000000	100.090659
1952.000000	100.106242
1951.000000	100.095762
1950.000000	100.073469
1949.000000	100.054228
1948.000000	100.049161
1947.000000	100.062598
1946.000000	100.086768
1945.000000	100.106834
1944.000000	100.116434
1943.000000	100.121563
1942.000000	100.124816
1941.000000	100.117140
1940.000000	100.094469
1939.000000	100.069438
1938.000000	100.058559
1937.000000	100.065222
1936.000000	100.080288
1935.000000	100.096062
1934.000000	100.111421
1933.000000	100.124920
1932.000000	100.131663
1931.000000	100.128901
1930.000000	100.120625
1929.000000	100.114711
1928.000000	100.116754
1927.000000	100.125646
1926.000000	100.133654
1925.000000	100.132018
1924.000000	100.118471
1923.000000	100.099114
1922.000000	100.080925
1921.000000	100.065214
1920.000000	100.051849
1919.000000	100.045359
1918.000000	100.050723
1917.000000	100.063437
1916.000000	100.072704
1915.000000	100.074638
1914.000000	100.072754
1913.000000	100.069629
1912.000000	100.063755
1911.000000	100.054231
1910.000000	100.045965
1909.000000	100.047074
1908.000000	100.060115
1907.000000	100.077806
1906.000000	100.088167
1905.000000	100.084020
1904.000000	100.069529
1903.000000	100.057053
1902.000000	100.055750
1901.000000	100.063732
1900.000000	100.072340
1899.000000	100.075510
1898.000000	100.072668
1897.000000	100.066453
1896.000000	100.061113
1895.000000	100.061207
1894.000000	100.067788
1893.000000	100.075833
1892.000000	100.078180
1891.000000	100.071686
1890.000000	100.059450
1889.000000	100.048817
1888.000000	100.045897
1887.000000	100.052055
1886.000000	100.064353
1885.000000	100.077408
1884.000000	100.086098
1883.000000	100.087909
1882.000000	100.083461
1881.000000	100.076358
1880.000000	100.072917
1879.000000	100.078083
1878.000000	100.090167
1877.000000	100.102683
1876.000000	100.111420
1875.000000	100.116016
1874.000000	100.114487
1873.000000	100.102417
1872.000000	100.080006
1871.000000	100.056104
1870.000000	100.043217
1869.000000	100.048727
1868.000000	100.068259
1867.000000	100.090771
1866.000000	100.108923
1865.000000	100.119182
1864.000000	100.120779
1863.000000	100.116116
1862.000000	100.107202
1861.000000	100.093643
1860.000000	100.077491
1859.000000	100.066405
1858.000000	100.067155
1857.000000	100.077813
1856.000000	100.091063
1855.000000	100.103726
1854.000000	100.116170
1853.000000	100.124385
1852.000000	100.121537
1851.000000	100.107803
1850.000000	100.091366
1849.000000	100.079631
1848.000000	100.072906
1847.000000	100.067923
1846.000000	100.064684
1845.000000	100.067452
1844.000000	100.078978
1843.000000	100.095388
1842.000000	100.111222
1841.000000	100.122272
1840.000000	100.124815
1839.000000	100.118007
1838.000000	100.105706
1837.000000	100.094538
1836.000000	100.089181
1835.000000	100.090200
1834.000000	100.095710
1833.000000	100.104157
1832.000000	100.115727
1831.000000	100.128947
1830.000000	100.136555
1829.000000	100.131595
1828.000000	100.118181
1827.000000	100.106200
1826.000000	100.100256
1825.000000	100.099326
1824.000000	100.101091
1823.000000	100.104896
1822.000000	100.110404
1821.000000	100.115789
1820.000000	100.119460
1819.000000	100.121265
1818.000000	100.122023
1817.000000	100.122974
1816.000000	100.124834
1815.000000	100.126748
1814.000000	100.126299
1813.000000	100.121776
1812.000000	100.115151
1811.000000	100.110421
1810.000000	100.109077
1809.000000	100.108916
1808.000000	100.106980
1807.000000	100.102899
1806.000000	100.097613
1805.000000	100.089733
1804.000000	100.076630
1803.000000	100.059091
1802.000000	100.041745
1801.000000	100.028529
1800.000000	100.018959
1799.000000	100.010293
1798.000000	100.003099
1797.000000	99.999495
1796.000000	99.997931
1795.000000	99.994156
1794.000000	99.986217
1793.000000	99.978856
1792.000000	99.981258
1791.000000	99.995876
1790.000000	100.017240
1789.000000	100.038294
1788.000000	100.052566
1787.000000	100.058105
1786.000000	100.059339
1785.000000	100.061909
1784.000000	100.066295
1783.000000	100.069958
1782.000000	100.072439
1781.000000	100.075861
1780.000000	100.081382
1779.000000	100.086563
1778.000000	100.089407
1777.000000	100.091246
1776.000000	100.095561
1775.000000	100.104799
1774.000000	100.117599
1773.000000	100.129344
1772.000000	100.135423
1771.000000	100.132937
1770.000000	100.123627
1769.000000	100.112812
1768.000000	100.105075
1767.000000	100.102093
1766.000000	100.101956
1765.000000	100.101183
1764.000000	100.097372
1763.000000	100.091083
1762.000000	100.084741
1761.000000	100.080434
1760.000000	100.079060
1759.000000	100.078059
1758.000000	100.072749
1757.000000	100.061463
1756.000000	100.049017
1755.000000	100.039589
1754.000000	100.028457
1753.000000	100.007870
1752.000000	99.978892
1751.000000	99.953882
1750.000000	99.941686
1749.000000	99.937113
1748.000000	99.933363
1747.000000	99.929759
1746.000000	99.925147
1745.000000	99.917092
1744.000000	99.907209
1743.000000	99.899301
1742.000000	99.892924
1741.000000	99.885077
1740.000000	99.878462
1739.000000	99.878654
1738.000000	99.881856
1737.000000	99.878684
1736.000000	99.866110
1735.000000	99.855817
1734.000000	99.868516
1733.000000	99.896807
1732.000000	99.920767
1731.000000	99.941937
1730.000000	99.966725
1729.000000	99.992980
1728.000000	100.014581
1727.000000	100.029669
1726.000000	100.038839
1725.000000	100.042996
1724.000000	100.045130
1723.000000	100.049586
1722.000000	100.057244
1721.000000	100.064642
1720.000000	100.069307
1719.000000	100.072206
1718.000000	100.074219
1717.000000	100.075785
1716.000000	100.075133
1715.000000	100.072334
1714.000000	100.069469
1713.000000	100.064438
1712.000000	100.055244
1711.000000	100.046154
1710.000000	100.043567
1709.000000	100.048406
1708.000000	100.055689
1707.000000	100.060154
1706.000000	100.060735
1705.000000	100.058909
1704.000000	100.053885
1703.000000	100.043507
1702.000000	100.025378
1701.000000	100.001506
1700.000000	99.981591
1699.000000	99.970026
1698.000000	99.964722
1697.000000	99.959137
1696.000000	99.950253
1695.000000	99.937788
1694.000000	99.926461
1693.000000	99.919370
1692.000000	99.910637
1691.000000	99.894909
1690.000000	99.872871
1689.000000	99.851195
1688.000000	99.837483
1687.000000	99.832262
1686.000000	99.828308
1685.000000	99.817975
1684.000000	99.801903
1683.000000	99.781678
1682.000000	99.761540
1681.000000	99.744641
1680.000000	99.730210
1679.000000	99.718909
1678.000000	99.708963
1677.000000	99.694518
1676.000000	99.673432
1675.000000	99.653383
1674.000000	99.641539
1673.000000	99.634168
1672.000000	99.622821
1671.000000	99.602990
1670.000000	99.578625
1669.000000	99.556821
1668.000000	99.540235
1667.000000	99.529465
1666.000000	99.521088
1665.000000	99.509391
1664.000000	99.491819
1663.000000	99.471682
1662.000000	99.453325
1661.000000	99.435956
1660.000000	99.418498
1659.000000	99.402845
1658.000000	99.390972
1657.000000	99.383931
1656.000000	99.382013
1655.000000	99.385371
1654.000000	99.389644
1653.000000	99.381894
1652.000000	99.351947
1651.000000	99.329704
1650.000000	99.323308
1649.000000	99.320312
1648.000000	99.313316
1647.000000	99.308904
1646.000000	99.313591
1645.000000	99.318028
1644.000000	99.318264
1643.000000	99.315974
1642.000000	99.313047
1641.000000	99.311886
1640.000000	99.314980
1639.000000	99.322944
1638.000000	99.333670
1637.000000	99.343643
1636.000000	99.350991
1635.000000	99.353544
1634.000000	99.349482
1633.000000	99.346475
1632.000000	99.347366
1631.000000	99.350954
1630.000000	99.356137
1629.000000	99.361836
1628.000000	99.368433
1627.000000	99.378916
1626.000000	99.394119
1625.000000	99.410894
1624.000000	99.426757
1623.000000	99.442062
1622.000000	99.456274
1621.000000	99.468270
1620.000000	99.481141
1619.000000	99.498458
1618.000000	99.520085
1617.000000	99.541601
1616.000000	99.557412
1615.000000	99.568759
1614.000000	99.581010
1613.000000	99.593744
1612.000000	99.605605
1611.000000	99.619250
1610.000000	99.636561
1609.000000	99.652733
1608.000000	99.662729
1607.000000	99.669495
1606.000000	99.678751
1605.000000	99.690765
1604.000000	99.702859
1603.000000	99.713663
1602.000000	99.721795
1601.000000	99.724568
1600.000000	99.721601
1599.000000	99.716999
1598.000000	99.714962
1597.000000	99.716180
1596.000000	99.719281
1595.000000	99.722673
1594.000000	99.723967
1593.000000	99.720099
1592.000000	99.710802
1591.000000	99.699356
1590.000000	99.688209
1589.000000	99.676105
1588.000000	99.661272
1587.000000	99.643725
1586.000000	99.622437
1585.000000	99.594271
1584.000000	99.559855
1583.000000	99.525529
1582.000000	99.496250
1581.000000	99.471456
1580.000000	99.450284
1579.000000	99.435561
1578.000000	99.429427
1577.000000	99.429487
1576.000000	99.431450
1575.000000	99.433480
1574.000000	99.436724
1573.000000	99.441285
1572.000000	99.446767
1571.000000	99.454944
1570.000000	99.468196
1569.000000	99.480745
1568.000000	99.486376
1567.000000	99.490105
1566.000000	99.495115
1565.000000	99.497427
1564.000000	99.494113
1563.000000	99.488623
1562.000000	99.484068
1561.000000	99.478076
1560.000000	99.464707
1559.000000	99.446024
1558.000000	99.430152
1557.000000	99.398736
1556.000000	99.363314
1555.000000	99.333659
1554.000000	99.313105
1553.000000	99.296779
1552.000000	99.275328
1551.000000	99.243441
1550.000000	99.205441
1549.000000	99.168619
1548.000000	99.132024
1547.000000	99.086062
1546.000000	99.023185
1545.000000	98.948851
1544.000000	98.881112
1543.000000	98.831638
1542.000000	98.794918
1541.000000	98.770450
1540.000000	98.779711
1539.000000	98.812742
1538.000000	98.830791
1537.000000	98.834259
1536.000000	98.833811
1535.000000	98.837483
1534.000000	98.851715
1533.000000	98.873154
1532.000000	98.887471
1531.000000	98.889060
1530.000000	98.880996
1529.000000	98.865160
1528.000000	98.843734
1527.000000	98.821065
1526.000000	98.800662
1525.000000	98.784005
1524.000000	98.769491
1523.000000	98.750964
1522.000000	98.722725
1521.000000	98.689696
1520.000000	98.660613
1519.000000	98.635713
1518.000000	98.605675
1517.000000	98.566147
1516.000000	98.526144
1515.000000	98.491657
1514.000000	98.455553
1513.000000	98.410833
1512.000000	98.362693
1511.000000	98.321669
1510.000000	98.288570
1509.000000	98.255580
1508.000000	98.223315
1507.000000	98.210124
1506.000000	98.206148
1505.000000	98.177533
1504.000000	98.138935
1503.000000	98.099790
1502.000000	98.057649
1501.000000	98.011928
1500.000000	97.968035
1499.000000	97.928771
1498.000000	97.884960
1497.000000	97.829679
1496.000000	97.776329
1495.000000	97.739612
1494.000000	97.712304
1493.000000	97.677315
1492.000000	97.625916
1491.000000	97.563961
1490.000000	97.507189
1489.000000	97.467684
1488.000000	97.441425
1487.000000	97.416727
1486.000000	97.387990
1485.000000	97.353876
1484.000000	97.314488
1483.000000	97.270613
1482.000000	97.223110
1481.000000	97.175933
1480.000000	97.133432
1479.000000	97.093094
1478.000000	97.046309
1477.000000	96.987725
1476.000000	96.921372
1475.000000	96.853800
1474.000000	96.786335
1473.000000	96.723937
1472.000000	96.679461
1471.000000	96.649035
1470.000000	96.617557
1469.000000	96.579192
1468.000000	96.537542
1467.000000	96.497680
1466.000000	96.460599
1465.000000	96.426486
1464.000000	96.398771
1463.000000	96.376813
1462.000000	96.353388
1461.000000	96.321196
1460.000000	96.276293
1459.000000	96.216555
1458.000000	96.145438
1457.000000	96.088499
1456.000000	96.068769
1455.000000	96.068613
1454.000000	96.062660
1453.000000	96.042898
1452.000000	96.016335
1451.000000	95.989667
1450.000000	95.959768
1449.000000	95.923499
1448.000000	95.889172
1447.000000	95.865930
1446.000000	95.847430
1445.000000	95.823582
1444.000000	95.794926
1443.000000	95.767551
1442.000000	95.742738
1441.000000	95.715578
1440.000000	95.681340
1439.000000	95.637968
1438.000000	95.587747
1437.000000	95.544275
1436.000000	95.524701
1435.000000	95.522079
1434.000000	95.513082
1433.000000	95.487388
1432.000000	95.451565
1431.000000	95.416911
1430.000000	95.385898
1429.000000	95.354299
1428.000000	95.321607
1427.000000	95.287725
1426.000000	95.247338
1425.000000	95.198893
1424.000000	95.153949
1423.000000	95.121412
1422.000000	95.088427
1421.000000	95.036587
1420.000000	94.967302
1419.000000	94.905748
1418.000000	94.866702
1417.000000	94.837249
1416.000000	94.805549
1415.000000	94.767664
1414.000000	94.719934
1413.000000	94.662905
1412.000000	94.607041
1411.000000	94.562415
1410.000000	94.523613
1409.000000	94.478617
1408.000000	94.428023
1407.000000	94.382414
1406.000000	94.347785
1405.000000	94.324983
1404.000000	94.317941
1403.000000	94.325162
1402.000000	94.332455
1401.000000	94.328589
1400.000000	94.320069
1399.000000	94.321996
1398.000000	94.333729
1397.000000	94.346135
1396.000000	94.367890
1395.000000	94.418203
1394.000000	94.493968
1393.000000	94.574035
1392.000000	94.652451
1391.000000	94.733657
1390.000000	94.816304
1389.000000	94.900114
1388.000000	94.997135
1387.000000	95.117079
1386.000000	95.245224
1385.000000	95.361699
1384.000000	95.467925
1383.000000	95.574168
1382.000000	95.680679
1381.000000	95.781293
1380.000000	95.876863
1379.000000	95.972387
1378.000000	96.065695
1377.000000	96.151981
1376.000000	96.237021
1375.000000	96.334833
1374.000000	96.448271
1373.000000	96.561124
1372.000000	96.658623
1371.000000	96.741504
1370.000000	96.819005
1369.000000	96.899970
1368.000000	96.986112
1367.000000	97.068471
1366.000000	97.136722
1365.000000	97.192638
1364.000000	97.250370
1363.000000	97.322639
1362.000000	97.406815
1361.000000	97.489981
1360.000000	97.565233
1359.000000	97.632374
1358.000000	97.691992
1357.000000	97.745554
1356.000000	97.795376
1355.000000	97.841416
1354.000000	97.882079
1353.000000	97.918995
1352.000000	97.955705
1351.000000	97.991501
1350.000000	98.022291
1349.000000	98.046538
1348.000000	98.066812
1347.000000	98.085140
1346.000000	98.101766
1345.000000	98.117834
1344.000000	98.133897
1343.000000	98.145834
1342.000000	98.148612
1341.000000	98.145267
1340.000000	98.147402
1339.000000	98.163038
1338.000000	98.188004
1337.000000	98.215384
1336.000000	98.244273
1335.000000	98.274543
1334.000000	98.302513
1333.000000	98.325502
1332.000000	98.345941
1331.000000	98.367895
1330.000000	98.392179
1329.000000	98.416601
1328.000000	98.438808
1327.000000	98.457539
1326.000000	98.473241
1325.000000	98.488114
1324.000000	98.504046
1323.000000	98.519318
1322.000000	98.529897
1321.000000	98.534650
1320.000000	98.537288
1319.000000	98.542779
1318.000000	98.553362
1317.000000	98.568406
1316.000000	98.585703
1315.000000	98.602439
1314.000000	98.617624
1313.000000	98.634218
1312.000000	98.655846
1311.000000	98.681195
1310.000000	98.704635
1309.000000	98.722382
1308.000000	98.735290
1307.000000	98.746247
1306.000000	98.757875
1305.000000	98.771966
1304.000000	98.788529
1303.000000	98.804567
1302.000000	98.816640
1301.000000	98.825203
1300.000000	98.834227
1299.000000	98.846342
1298.000000	98.860637
1297.000000	98.874872
1296.000000	98.887139
1295.000000	98.895559
1294.000000	98.899123
1293.000000	98.899051
1292.000000	98.897274
1291.000000	98.894071
1290.000000	98.889309
1289.000000	98.885244
1288.000000	98.884777
1287.000000	98.887077
1286.000000	98.888104
1285.000000	98.886155
1284.000000	98.884043
1283.000000	98.885173
1282.000000	98.889657
1281.000000	98.894629
1280.000000	98.896883
1279.000000	98.895310
1278.000000	98.892250
1277.000000	98.892221
1276.000000	98.897578
1275.000000	98.905922
1274.000000	98.913202
1273.000000	98.918431
1272.000000	98.923523
1271.000000	98.929416
1270.000000	98.934793
1269.000000	98.937955
1268.000000	98.937507
1267.000000	98.932189
1266.000000	98.923110
1265.000000	98.915653
1264.000000	98.915693
1263.000000	98.923268
1262.000000	98.932151
1261.000000	98.936183
1260.000000	98.934119
1259.000000	98.928990
1258.000000	98.925049
1257.000000	98.925010
1256.000000	98.927542
1255.000000	98.927247
1254.000000	98.919493
1253.000000	98.905603
1252.000000	98.891108
1251.000000	98.879422
1250.000000	98.869541
1249.000000	98.859380
1248.000000	98.848481
1247.000000	98.837023
1246.000000	98.824936
1245.000000	98.812939
1244.000000	98.802332
1243.000000	98.793201
1242.000000	98.784923
1241.000000	98.778347
1240.000000	98.774580
1239.000000	98.771230
1238.000000	98.763324
1237.000000	98.749700
1236.000000	98.735697
1235.000000	98.727848
1234.000000	98.728048
1233.000000	98.734109
1232.000000	98.743688
1231.000000	98.755247
1230.000000	98.767277
1229.000000	98.779637
1228.000000	98.794459
1227.000000	98.813882
1226.000000	98.837466
1225.000000	98.863202
1224.000000	98.889981
1223.000000	98.917188
1222.000000	98.942938
1221.000000	98.964788
1220.000000	98.982375
1219.000000	98.998171
1218.000000	99.015049
1217.000000	99.033075
1216.000000	99.048777
1215.000000	99.058219
1214.000000	99.061317
1213.000000	99.062702
1212.000000	99.067259
1211.000000	99.075077
1210.000000	99.081722
1209.000000	99.082726
1208.000000	99.076846
1207.000000	99.065887
1206.000000	99.053458
1205.000000	99.043562
1204.000000	99.038417
1203.000000	99.037245
1202.000000	99.038076
1201.000000	99.040445
1200.000000	99.045031
1199.000000	99.051520
1198.000000	99.058777
1197.000000	99.066989
1196.000000	99.077461
1195.000000	99.089936
1194.000000	99.102384
1193.000000	99.113803
1192.000000	99.125240
1191.000000	99.137373
1190.000000	99.148956
1189.000000	99.158448
1188.000000	99.165472
1187.000000	99.169833
1186.000000	99.170622
1185.000000	99.167651
1184.000000	99.162715
1183.000000	99.158569
1182.000000	99.157116
1181.000000	99.158630
1180.000000	99.161982
1179.000000	99.165258
1178.000000	99.166970
1177.000000	99.167075
1176.000000	99.166463
1175.000000	99.165585
1174.000000	99.164108
1173.000000	99.161408
1172.000000	99.156853
1171.000000	99.150297
1170.000000	99.143413
1169.000000	99.139833
1168.000000	99.142199
1167.000000	99.149001
1166.000000	99.155808
1165.000000	99.159797
1164.000000	99.161752
1163.000000	99.163708
1162.000000	99.166382
1161.000000	99.169533
1160.000000	99.173329
1159.000000	99.178418
1158.000000	99.185173
1157.000000	99.193220
1156.000000	99.201275
1155.000000	99.207652
1154.000000	99.211871
1153.000000	99.215832
1152.000000	99.222467
1151.000000	99.233470
1150.000000	99.248946
1149.000000	99.268420
1148.000000	99.290393
1147.000000	99.311204
1146.000000	99.326704
1145.000000	99.336026
1144.000000	99.342311
1143.000000	99.348956
1142.000000	99.356212
1141.000000	99.362043
1140.000000	99.365652
1139.000000	99.369254
1138.000000	99.376341
1137.000000	99.388433
1136.000000	99.403712
1135.000000	99.419130
1134.000000	99.433457
1133.000000	99.447006
1132.000000	99.458342
1131.000000	99.463508
1130.000000	99.460363
1129.000000	99.452533
1128.000000	99.446914
1127.000000	99.447473
1126.000000	99.452571
1125.000000	99.457708
1124.000000	99.459623
1123.000000	99.458076
1122.000000	99.455229
1121.000000	99.453358
1120.000000	99.452331
1119.000000	99.449644
1118.000000	99.443430
1117.000000	99.434694
1116.000000	99.425776
1115.000000	99.417749
1114.000000	99.410459
1113.000000	99.403942
1112.000000	99.398186
1111.000000	99.392390
1110.000000	99.386354
1109.000000	99.381822
1108.000000	99.380802
1107.000000	99.382727
1106.000000	99.385330
1105.000000	99.387956
1104.000000	99.391532
1103.000000	99.394900
1102.000000	99.393767
1101.000000	99.384847
1100.000000	99.370545
1099.000000	99.357375
1098.000000	99.350905
1097.000000	99.350957
1096.000000	99.351707
1095.000000	99.346710
1094.000000	99.335183
1093.000000	99.323226
1092.000000	99.317468
1091.000000	99.317547
1090.000000	99.315868
1089.000000	99.305077
1088.000000	99.284575
1087.000000	99.259772
1086.000000	99.236948
1085.000000	99.219809
1084.000000	99.209421
1083.000000	99.205058
1082.000000	99.204348
1081.000000	99.203909
1080.000000	99.201314
1079.000000	99.197057
1078.000000	99.194547
1077.000000	99.197720
1076.000000	99.207632
1075.000000	99.221185
1074.000000	99.233548
1073.000000	99.242191
1072.000000	99.248106
1071.000000	99.253080
1070.000000	99.256735
1069.000000	99.257045
1068.000000	99.253471
1067.000000	99.248518
1066.000000	99.245887
1065.000000	99.247389
1064.000000	99.251882
1063.000000	99.256560
1062.000000	99.258502
1061.000000	99.255848
1060.000000	99.249106
1059.000000	99.241768
1058.000000	99.238276
1057.000000	99.240463
1056.000000	99.246307
1055.000000	99.252264
1054.000000	99.255938
1053.000000	99.256720
1052.000000	99.255922
1051.000000	99.256853
1050.000000	99.262199
1049.000000	99.269737
1048.000000	99.273429
1047.000000	99.271036
1046.000000	99.268136
1045.000000	99.271217
1044.000000	99.278973
1043.000000	99.284037
1042.000000	99.282008
1041.000000	99.275158
1040.000000	99.267810
1039.000000	99.262503
1038.000000	99.260514
1037.000000	99.261608
1036.000000	99.262434
1035.000000	99.259380
1034.000000	99.253966
1033.000000	99.251256
1032.000000	99.251792
1031.000000	99.250303
1030.000000	99.244579
1029.000000	99.240167
1028.000000	99.242610
1027.000000	99.249527
1026.000000	99.255471
1025.000000	99.260863
1024.000000	99.270562
1023.000000	99.285406
1022.000000	99.300753
1021.000000	99.312882
1020.000000	99.321886
1019.000000	99.328538
1018.000000	99.332625
1017.000000	99.334786
1016.000000	99.336539
1015.000000	99.338481
1014.000000	99.341622
1013.000000	99.349981
1012.000000	99.367709
1011.000000	99.392939
1010.000000	99.417865
1009.000000	99.436043
1008.000000	99.447336
1007.000000	99.455404
1006.000000	99.463671
1005.000000	99.474274
1004.000000	99.487625
1003.000000	99.501346
1002.000000	99.512054
1001.000000	99.519683
1000.000000	99.528208
999.000000	99.540914
998.000000	99.556785
997.000000	99.572908
996.000000	99.588312
995.000000	99.603540
994.000000	99.617878
993.000000	99.629632
992.000000	99.639055
991.000000	99.648856
990.000000	99.660908
989.000000	99.673452
988.000000	99.682968
987.000000	99.688734
986.000000	99.694235
985.000000	99.703256
984.000000	99.715545
983.000000	99.727834
982.000000	99.738236
981.000000	99.747093
980.000000	99.753508
979.000000	99.754355
978.000000	99.748706
977.000000	99.740708
976.000000	99.735299
975.000000	99.732340
974.000000	99.727745
973.000000	99.719834
972.000000	99.711863
971.000000	99.708466
970.000000	99.711773
969.000000	99.721343
968.000000	99.735564
967.000000	99.751730
966.000000	99.766373
965.000000	99.777271
964.000000	99.784937
963.000000	99.791619
962.000000	99.799018
961.000000	99.807365
960.000000	99.816502
959.000000	99.827090
958.000000	99.839802
957.000000	99.853171
956.000000	99.863563
955.000000	99.869083
954.000000	99.872984
953.000000	99.880976
952.000000	99.894493
951.000000	99.908514
950.000000	99.917126
949.000000	99.919484
948.000000	99.919293
947.000000	99.920159
946.000000	99.922833
945.000000	99.925461
944.000000	99.925081
943.000000	99.920232
942.000000	99.913771
941.000000	99.911455
940.000000	99.915674
939.000000	99.921903
938.000000	99.923557
937.000000	99.920329
936.000000	99.919541
935.000000	99.928928
934.000000	99.948963
933.000000	99.971882
932.000000	99.987395
931.000000	99.989947
930.000000	99.982070
929.000000	99.971646
928.000000	99.966098
927.000000	99.968950
926.000000	99.980283
925.000000	99.997479
924.000000	100.015045
923.000000	100.026329
922.000000	100.027923
921.000000	100.021908
920.000000	100.013683
919.000000	100.008874
918.000000	100.011872
917.000000	100.023825
916.000000	100.040430
915.000000	100.054230
914.000000	100.061446
913.000000	100.064843
912.000000	100.068047
911.000000	100.069843
910.000000	100.066741
909.000000	100.059287
908.000000	100.052519
907.000000	100.050704
906.000000	100.053943
905.000000	100.058981
904.000000	100.061700
903.000000	100.060041
902.000000	100.056484
901.000000	100.056596
900.000000	100.063699
899.000000	100.075858
898.000000	100.089379
897.000000	100.102170
896.000000	100.112117
895.000000	100.115729
894.000000	100.112625
893.000000	100.109368
892.000000	100.114349
891.000000	100.129281
890.000000	100.148129
889.000000	100.163108
888.000000	100.168465
887.000000	100.158974
886.000000	100.128890
885.000000	100.071950
884.000000	99.979402
883.000000	99.839338
882.000000	99.637435
881.000000	99.358828
880.000000	98.990132
879.000000	98.527678
878.000000	97.988387
877.000000	97.403831
876.000000	96.802960
875.000000	96.214711
874.000000	95.709161
873.000000	95.422832
872.000000	95.508043
871.000000	96.011931
870.000000	96.801777
869.000000	97.635898
868.000000	98.316265
867.000000	98.781399
866.000000	99.077296
865.000000	99.272509
864.000000	99.409093
863.000000	99.508215
862.000000	99.586538
861.000000	99.656134
860.000000	99.717911
859.000000	99.765200
858.000000	99.795330
857.000000	99.813721
856.000000	99.828176
855.000000	99.843034
854.000000	99.859035
853.000000	99.874937
852.000000	99.886186
851.000000	99.885245
850.000000	99.868991
849.000000	99.846880
848.000000	99.837367
847.000000	99.852249
846.000000	99.885689
845.000000	99.921138
844.000000	99.947206
843.000000	99.964441
842.000000	99.978799
841.000000	99.993339
840.000000	100.006983
839.000000	100.017043
838.000000	100.021068
837.000000	100.019006
836.000000	100.015936
835.000000	100.020475
834.000000	100.037443
833.000000	100.062336
832.000000	100.085245
831.000000	100.099890
830.000000	100.107052
829.000000	100.109806
828.000000	100.108465
827.000000	100.102245
826.000000	100.093990
825.000000	100.089561
824.000000	100.090968
823.000000	100.092307
822.000000	100.086013
821.000000	100.073844
820.000000	100.068422
819.000000	100.080874
818.000000	100.107059
817.000000	100.129394
816.000000	100.133837
815.000000	100.123262
814.000000	100.112379
813.000000	100.110783
812.000000	100.114471
811.000000	100.113750
810.000000	100.105700
809.000000	100.096741
808.000000	100.094674
807.000000	100.101131
806.000000	100.112019
805.000000	100.123153
804.000000	100.133476
803.000000	100.142385
802.000000	100.145916
801.000000	100.138590
800.000000	100.120023
799.000000	100.097258
798.000000	100.078593
797.000000	100.066727
796.000000	100.059846
795.000000	100.057104
794.000000	100.058809
793.000000	100.062199
792.000000	100.062545
791.000000	100.060382
790.000000	100.063669
789.000000	100.079690
788.000000	100.106366
787.000000	100.133081
786.000000	100.148551
785.000000	100.147661
784.000000	100.133537
783.000000	100.115373
782.000000	100.102657
781.000000	100.099324
780.000000	100.103365
779.000000	100.111277
778.000000	100.119912
777.000000	100.124125
776.000000	100.117943
775.000000	100.101829
774.000000	100.085615
773.000000	100.080280
772.000000	100.087922
771.000000	100.101796
770.000000	100.113145
769.000000	100.114824
768.000000	100.102032
767.000000	100.076187
766.000000	100.048153
765.000000	100.032080
764.000000	100.034125
763.000000	100.049361
762.000000	100.068808
761.000000	100.085796
760.000000	100.096158
759.000000	100.097858
758.000000	100.093589
757.000000	100.090635
756.000000	100.095142
755.000000	100.107248
754.000000	100.122228
753.000000	100.134583
752.000000	100.140564
751.000000	100.139089
750.000000	100.131817
749.000000	100.121572
748.000000	100.110102
747.000000	100.097908
746.000000	100.086460
745.000000	100.079510
744.000000	100.081430
743.000000	100.093831
742.000000	100.112443
741.000000	100.127237
740.000000	100.128938
739.000000	100.117869
738.000000	100.103372
737.000000	100.091703
736.000000	100.077691
735.000000	100.052845
734.000000	100.019538
733.000000	99.990700
732.000000	99.975887
731.000000	99.973016
730.000000	99.974210
729.000000	99.973506
728.000000	99.970679
727.000000	99.970358
726.000000	99.974068
725.000000	99.974990
724.000000	99.963654
723.000000	99.938389
722.000000	99.905675
721.000000	99.870432
720.000000	99.831270
719.000000	99.784910
718.000000	99.727431
717.000000	99.647448
716.000000	99.528328
715.000000	99.371595
714.000000	99.216597
713.000000	99.121699
712.000000	99.119733
711.000000	99.195054
710.000000	99.304007
709.000000	99.408895
708.000000	99.493305
707.000000	99.558717
706.000000	99.610397
705.000000	99.649296
704.000000	99.676034
703.000000	99.695253
702.000000	99.714916
701.000000	99.740066
700.000000	99.766517
699.000000	99.787661
698.000000	99.800804
697.000000	99.806491
696.000000	99.807912
695.000000	99.809523
694.000000	99.818417
693.000000	99.838255
692.000000	99.860931
691.000000	99.877725
690.000000	99.889277
689.000000	99.900379
688.000000	99.910051
687.000000	99.913255
686.000000	99.914657
685.000000	99.922669
684.000000	99.930224
683.000000	99.922706
682.000000	99.901835
681.000000	99.883044
680.000000	99.869886
679.000000	99.853571
678.000000	99.837258
677.000000	99.828384
676.000000	99.824728
675.000000	99.820527
674.000000	99.824700
673.000000	99.854096
672.000000	99.914759
671.000000	100.007904
670.000000	100.143449
669.000000	100.310608
668.000000	100.390979
667.000000	100.271539
666.000000	100.095787
665.000000	99.949963
664.000000	99.844269
663.000000	99.790238
662.000000	99.786978
661.000000	99.812866
660.000000	99.840854
659.000000	99.857255
658.000000	99.860442
657.000000	99.845104
656.000000	99.815467
655.000000	99.790518
654.000000	99.780707
653.000000	99.776428
652.000000	99.773232
651.000000	99.782180
650.000000	99.808168
649.000000	99.834373
648.000000	99.843154
647.000000	99.833874
646.000000	99.811886
645.000000	99.783574
644.000000	99.760692
643.000000	99.750707
642.000000	99.745881
641.000000	99.732291
640.000000	99.712259
639.000000	99.703301
638.000000	99.710619
637.000000	99.721123
636.000000	99.729470
635.000000	99.744632
634.000000	99.768110
633.000000	99.787245
632.000000	99.793764
631.000000	99.792716
630.000000	99.788134
629.000000	99.775947
628.000000	99.759060
627.000000	99.752619
626.000000	99.761786
625.000000	99.772894
624.000000	99.771564
623.000000	99.757236
622.000000	99.737107
621.000000	99.717728
620.000000	99.706293
619.000000	99.707832
618.000000	99.716889
617.000000	99.721622
616.000000	99.718635
615.000000	99.713509
614.000000	99.706339
613.000000	99.691613
612.000000	99.674641
611.000000	99.670786
610.000000	99.682536
609.000000	99.693482
608.000000	99.693213
607.000000	99.693695
606.000000	99.706915
605.000000	99.724737
604.000000	99.730933
603.000000	99.723143
602.000000	99.714347
601.000000	99.717079
600.000000	99.732865
599.000000	99.751844
598.000000	99.757163
597.000000	99.737843
596.000000	99.704423
595.000000	99.685094
594.000000	99.697853
593.000000	99.729587
592.000000	99.750196
591.000000	99.744664
590.000000	99.724959
589.000000	99.713085
588.000000	99.721462
587.000000	99.746137
586.000000	99.768066
585.000000	99.765480
584.000000	99.734533
583.000000	99.696085
582.000000	99.676532
581.000000	99.683107
580.000000	99.701012
579.000000	99.712671
578.000000	99.713700
577.000000	99.712192
576.000000	99.718211
575.000000	99.731861
574.000000	99.740113
573.000000	99.729757
572.000000	99.703115
571.000000	99.676570
570.000000	99.662978
569.000000	99.658833
568.000000	99.653293
567.000000	99.641188
566.000000	99.621547
565.000000	99.593388
564.000000	99.560544
563.000000	99.534259
562.000000	99.522543
561.000000	99.523072
560.000000	99.532707
559.000000	99.554335
558.000000	99.584364
557.000000	99.604007
556.000000	99.596659
555.000000	99.570731
554.000000	99.552904
553.000000	99.557518
552.000000	99.574892
551.000000	99.589395
550.000000	99.598622
549.000000	99.610697
548.000000	99.630151
547.000000	99.653080
546.000000	99.673046
545.000000	99.686908
544.000000	99.694042
543.000000	99.692482
542.000000	99.680302
541.000000	99.661006
540.000000	99.641721
539.000000	99.623123
538.000000	99.596243
537.000000	99.555737
536.000000	99.513257
535.000000	99.490258
534.000000	99.497016
533.000000	99.526238
532.000000	99.565035
531.000000	99.602607
530.000000	99.626677
529.000000	99.624948
528.000000	99.594171
527.000000	99.546075
526.000000	99.504344
525.000000	99.491170
524.000000	99.510864
523.000000	99.545555
522.000000	99.568917
521.000000	99.569697
520.000000	99.561602
519.000000	99.564175
518.000000	99.576419
517.000000	99.583912
516.000000	99.589976
515.000000	99.611675
514.000000	99.648310
513.000000	99.680024
512.000000	99.698576
511.000000	99.718339
510.000000	99.749187
509.000000	99.776178
508.000000	99.778252
507.000000	99.758646
506.000000	99.740321
505.000000	99.735684
504.000000	99.738995
503.000000	99.743562
502.000000	99.752516
501.000000	99.770363
500.000000	99.791963
499.000000	99.806574
498.000000	99.807606
497.000000	99.798522
496.000000	99.790537
495.000000	99.791581
494.000000	99.799529
493.000000	99.804702
492.000000	99.794822
491.000000	99.761524
490.000000	99.713080
489.000000	99.682726
488.000000	99.705488
487.000000	99.774669
486.000000	99.833888
485.000000	99.836131
484.000000	99.807718
483.000000	99.815638
482.000000	99.870739
481.000000	99.911203
480.000000	99.886043
479.000000	99.812105
478.000000	99.741960
477.000000	99.709798
476.000000	99.720551
475.000000	99.767383
474.000000	99.835412
473.000000	99.896812
472.000000	99.924121
471.000000	99.910866
470.000000	99.862402
469.000000	99.787638
468.000000	99.715130
467.000000	99.688090
466.000000	99.716675
465.000000	99.764018
464.000000	99.798661
463.000000	99.818715
462.000000	99.820776
461.000000	99.786004
460.000000	99.723228
459.000000	99.698353
458.000000	99.780194
457.000000	99.937760
456.000000	100.063263
455.000000	100.109446
454.000000	100.107225
453.000000	100.102297
452.000000	100.114919
451.000000	100.128240
450.000000	100.110316
