PE IR       SUBTECH     SPECTRUM    ASCII       PEDS        4.00        
   -1
AD10-C009_1.ASC
23/09/08
11:05:39.00
23/09/08
11:14:38.00
uco
Sample 009 By uco Date Friday, September 08 2023
450.000000
#HDR
-1
-1
#GR
cm-1
%T
1.0
0.0
4000.000000
-1.000000
3551
8
99.959649
87.604651
#DATA
4000.000000	99.894684
3999.000000	99.892789
3998.000000	99.890212
3997.000000	99.885707
3996.000000	99.892520
3995.000000	99.888932
3994.000000	99.887337
3993.000000	99.889363
3992.000000	99.893981
3991.000000	99.898300
3990.000000	99.899844
3989.000000	99.898206
3988.000000	99.894880
3987.000000	99.891875
3986.000000	99.890499
3985.000000	99.890903
3984.000000	99.892289
3983.000000	99.893360
3982.000000	99.892832
3981.000000	99.889975
3980.000000	99.885018
3979.000000	99.879323
3978.000000	99.875057
3977.000000	99.874081
3976.000000	99.876588
3975.000000	99.880761
3974.000000	99.884262
3973.000000	99.886333
3972.000000	99.888132
3971.000000	99.890861
3970.000000	99.893711
3969.000000	99.894023
3968.000000	99.889806
3967.000000	99.881746
3966.000000	99.872797
3965.000000	99.866101
3964.000000	99.863128
3963.000000	99.863419
3962.000000	99.865477
3961.000000	99.867867
3960.000000	99.869789
3959.000000	99.871220
3958.000000	99.872606
3957.000000	99.874098
3956.000000	99.875105
3955.000000	99.874339
3954.000000	99.870720
3953.000000	99.864293
3952.000000	99.856381
3951.000000	99.849248
3950.000000	99.844984
3949.000000	99.844484
3948.000000	99.847013
3947.000000	99.851060
3946.000000	99.856209
3945.000000	99.862939
3944.000000	99.870558
3943.000000	99.876269
3942.000000	99.876567
3941.000000	99.870588
3940.000000	99.861407
3939.000000	99.853883
3938.000000	99.851559
3937.000000	99.854943
3936.000000	99.861826
3935.000000	99.868213
3934.000000	99.870049
3933.000000	99.865892
3932.000000	99.858280
3931.000000	99.851937
3930.000000	99.849402
3929.000000	99.849965
3928.000000	99.852120
3927.000000	99.854377
3926.000000	99.855300
3925.000000	99.854192
3924.000000	99.852133
3923.000000	99.850754
3922.000000	99.849750
3921.000000	99.846863
3920.000000	99.841372
3919.000000	99.836738
3918.000000	99.838243
3917.000000	99.846608
3916.000000	99.855935
3915.000000	99.860052
3914.000000	99.858109
3913.000000	99.853786
3912.000000	99.850845
3911.000000	99.850633
3910.000000	99.852225
3909.000000	99.853796
3908.000000	99.854213
3907.000000	99.852347
3906.000000	99.846376
3905.000000	99.834863
3904.000000	99.820254
3903.000000	99.810029
3902.000000	99.811049
3901.000000	99.822861
3900.000000	99.838028
3899.000000	99.847783
3898.000000	99.848626
3897.000000	99.843290
3896.000000	99.835729
3895.000000	99.828665
3894.000000	99.824282
3893.000000	99.824462
3892.000000	99.828765
3891.000000	99.832835
3890.000000	99.832568
3889.000000	99.829645
3888.000000	99.828779
3887.000000	99.831159
3886.000000	99.833945
3885.000000	99.834830
3884.000000	99.835577
3883.000000	99.839565
3882.000000	99.847012
3881.000000	99.854033
3880.000000	99.855869
3879.000000	99.851161
3878.000000	99.844308
3877.000000	99.841314
3876.000000	99.843845
3875.000000	99.847771
3874.000000	99.847606
3873.000000	99.843023
3872.000000	99.838888
3871.000000	99.838687
3870.000000	99.840072
3869.000000	99.838897
3868.000000	99.836085
3867.000000	99.835857
3866.000000	99.838929
3865.000000	99.841583
3864.000000	99.840692
3863.000000	99.836731
3862.000000	99.831927
3861.000000	99.828176
3860.000000	99.826652
3859.000000	99.825812
3858.000000	99.823091
3857.000000	99.818215
3856.000000	99.815357
3855.000000	99.818080
3854.000000	99.821577
3853.000000	99.823760
3852.000000	99.827891
3851.000000	99.833717
3850.000000	99.838344
3849.000000	99.840184
3848.000000	99.840421
3847.000000	99.842885
3846.000000	99.849974
3845.000000	99.860081
3844.000000	99.868216
3843.000000	99.869676
3842.000000	99.863793
3841.000000	99.854504
3840.000000	99.846267
3839.000000	99.840845
3838.000000	99.838934
3837.000000	99.840973
3836.000000	99.846729
3835.000000	99.854763
3834.000000	99.863242
3833.000000	99.871033
3832.000000	99.877182
3831.000000	99.879891
3830.000000	99.878638
3829.000000	99.875258
3828.000000	99.872246
3827.000000	99.870113
3826.000000	99.867222
3825.000000	99.863353
3824.000000	99.861169
3823.000000	99.863188
3822.000000	99.866900
3821.000000	99.867438
3820.000000	99.863181
3819.000000	99.856071
3818.000000	99.849875
3817.000000	99.844936
3816.000000	99.839704
3815.000000	99.835203
3814.000000	99.834949
3813.000000	99.839872
3812.000000	99.846369
3811.000000	99.851290
3810.000000	99.855022
3809.000000	99.859716
3808.000000	99.864738
3807.000000	99.866540
3806.000000	99.863528
3805.000000	99.859412
3804.000000	99.859053
3803.000000	99.863785
3802.000000	99.869315
3801.000000	99.869667
3800.000000	99.863917
3799.000000	99.858483
3798.000000	99.858280
3797.000000	99.862569
3796.000000	99.867615
3795.000000	99.870773
3794.000000	99.872069
3793.000000	99.872155
3792.000000	99.870810
3791.000000	99.868330
3790.000000	99.866070
3789.000000	99.865131
3788.000000	99.865685
3787.000000	99.867113
3786.000000	99.868650
3785.000000	99.869917
3784.000000	99.871087
3783.000000	99.872876
3782.000000	99.875723
3781.000000	99.877982
3780.000000	99.876402
3779.000000	99.870023
3778.000000	99.861686
3777.000000	99.855362
3776.000000	99.852529
3775.000000	99.851362
3774.000000	99.849272
3773.000000	99.845679
3772.000000	99.841855
3771.000000	99.839030
3770.000000	99.838038
3769.000000	99.839272
3768.000000	99.843079
3767.000000	99.848837
3766.000000	99.854311
3765.000000	99.856593
3764.000000	99.854767
3763.000000	99.851026
3762.000000	99.847716
3761.000000	99.844738
3760.000000	99.841277
3759.000000	99.838373
3758.000000	99.836656
3757.000000	99.834510
3756.000000	99.831035
3755.000000	99.827229
3754.000000	99.822667
3753.000000	99.813277
3752.000000	99.796281
3751.000000	99.778593
3750.000000	99.771015
3749.000000	99.773537
3748.000000	99.780961
3747.000000	99.792686
3746.000000	99.809811
3745.000000	99.827469
3744.000000	99.837140
3743.000000	99.839325
3742.000000	99.841918
3741.000000	99.846688
3740.000000	99.851356
3739.000000	99.855047
3738.000000	99.857491
3737.000000	99.854799
3736.000000	99.846743
3735.000000	99.842671
3734.000000	99.848284
3733.000000	99.856610
3732.000000	99.858569
3731.000000	99.852502
3730.000000	99.842396
3729.000000	99.832036
3728.000000	99.823416
3727.000000	99.817278
3726.000000	99.814309
3725.000000	99.815306
3724.000000	99.820035
3723.000000	99.827034
3722.000000	99.834101
3721.000000	99.840498
3720.000000	99.847109
3719.000000	99.855049
3718.000000	99.863742
3717.000000	99.870376
3716.000000	99.872754
3715.000000	99.870195
3714.000000	99.863043
3713.000000	99.851521
3712.000000	99.838792
3711.000000	99.831457
3710.000000	99.833760
3709.000000	99.843005
3708.000000	99.854104
3707.000000	99.863614
3706.000000	99.869108
3705.000000	99.871989
3704.000000	99.874505
3703.000000	99.877993
3702.000000	99.880814
3701.000000	99.880894
3700.000000	99.878045
3699.000000	99.874991
3698.000000	99.873718
3697.000000	99.872685
3696.000000	99.869039
3695.000000	99.861803
3694.000000	99.854114
3693.000000	99.850548
3692.000000	99.855561
3691.000000	99.868989
3690.000000	99.884495
3689.000000	99.891391
3688.000000	99.885331
3687.000000	99.874047
3686.000000	99.867732
3685.000000	99.868998
3684.000000	99.872858
3683.000000	99.875135
3682.000000	99.874838
3681.000000	99.872113
3680.000000	99.864982
3679.000000	99.852885
3678.000000	99.839670
3677.000000	99.832486
3676.000000	99.836121
3675.000000	99.847379
3674.000000	99.854875
3673.000000	99.855474
3672.000000	99.853699
3671.000000	99.852280
3670.000000	99.852473
3669.000000	99.855666
3668.000000	99.862006
3667.000000	99.871144
3666.000000	99.882112
3665.000000	99.892614
3664.000000	99.899937
3663.000000	99.902637
3662.000000	99.901205
3661.000000	99.897432
3660.000000	99.893938
3659.000000	99.892691
3658.000000	99.892649
3657.000000	99.889496
3656.000000	99.879849
3655.000000	99.866811
3654.000000	99.857309
3653.000000	99.855557
3652.000000	99.859374
3651.000000	99.862019
3650.000000	99.859875
3649.000000	99.858181
3648.000000	99.858873
3647.000000	99.854439
3646.000000	99.842000
3645.000000	99.827993
3644.000000	99.820328
3643.000000	99.822163
3642.000000	99.831185
3641.000000	99.842093
3640.000000	99.850981
3639.000000	99.857000
3638.000000	99.861075
3637.000000	99.864619
3636.000000	99.867612
3635.000000	99.867255
3634.000000	99.859479
3633.000000	99.844486
3632.000000	99.828133
3631.000000	99.817477
3630.000000	99.815285
3629.000000	99.820447
3628.000000	99.828719
3627.000000	99.834688
3626.000000	99.839133
3625.000000	99.844132
3624.000000	99.850631
3623.000000	99.859572
3622.000000	99.871355
3621.000000	99.883795
3620.000000	99.892071
3619.000000	99.891708
3618.000000	99.881994
3617.000000	99.867756
3616.000000	99.857540
3615.000000	99.857532
3614.000000	99.865812
3613.000000	99.872159
3612.000000	99.866016
3611.000000	99.846298
3610.000000	99.822553
3609.000000	99.808263
3608.000000	99.811391
3607.000000	99.827768
3606.000000	99.845375
3605.000000	99.855511
3604.000000	99.856921
3603.000000	99.853217
3602.000000	99.848489
3601.000000	99.845365
3600.000000	99.844430
3599.000000	99.844477
3598.000000	99.843877
3597.000000	99.841330
3596.000000	99.837384
3595.000000	99.834665
3594.000000	99.836544
3593.000000	99.843335
3592.000000	99.851656
3591.000000	99.856754
3590.000000	99.855639
3589.000000	99.848343
3588.000000	99.839619
3587.000000	99.836415
3586.000000	99.838721
3585.000000	99.841700
3584.000000	99.842782
3583.000000	99.842262
3582.000000	99.840789
3581.000000	99.839416
3580.000000	99.838949
3579.000000	99.839224
3578.000000	99.839259
3577.000000	99.837766
3576.000000	99.834619
3575.000000	99.830563
3574.000000	99.827210
3573.000000	99.825028
3572.000000	99.823801
3571.000000	99.822550
3570.000000	99.820888
3569.000000	99.818446
3568.000000	99.816652
3567.000000	99.818448
3566.000000	99.823224
3565.000000	99.825476
3564.000000	99.823516
3563.000000	99.820656
3562.000000	99.820707
3561.000000	99.825078
3560.000000	99.832798
3559.000000	99.841156
3558.000000	99.847461
3557.000000	99.849916
3556.000000	99.848181
3555.000000	99.843288
3554.000000	99.837664
3553.000000	99.833995
3552.000000	99.833247
3551.000000	99.833031
3550.000000	99.829303
3549.000000	99.819834
3548.000000	99.806593
3547.000000	99.796178
3546.000000	99.796329
3545.000000	99.808921
3544.000000	99.827247
3543.000000	99.842016
3542.000000	99.848292
3541.000000	99.847268
3540.000000	99.843562
3539.000000	99.840996
3538.000000	99.840214
3537.000000	99.839205
3536.000000	99.836104
3535.000000	99.831134
3534.000000	99.826039
3533.000000	99.822517
3532.000000	99.821046
3531.000000	99.820938
3530.000000	99.820740
3529.000000	99.818920
3528.000000	99.814731
3527.000000	99.808877
3526.000000	99.803359
3525.000000	99.800584
3524.000000	99.801709
3523.000000	99.805290
3522.000000	99.808332
3521.000000	99.809465
3520.000000	99.810358
3519.000000	99.812850
3518.000000	99.815740
3517.000000	99.815794
3516.000000	99.811886
3515.000000	99.806879
3514.000000	99.804532
3513.000000	99.805807
3512.000000	99.808862
3511.000000	99.811954
3510.000000	99.815006
3509.000000	99.818149
3508.000000	99.819895
3507.000000	99.817803
3506.000000	99.810795
3505.000000	99.800459
3504.000000	99.791086
3503.000000	99.787218
3502.000000	99.789350
3501.000000	99.792878
3500.000000	99.792422
3499.000000	99.786869
3498.000000	99.780165
3497.000000	99.777988
3496.000000	99.782545
3495.000000	99.790456
3494.000000	99.796018
3493.000000	99.796604
3492.000000	99.794205
3491.000000	99.792014
3490.000000	99.790708
3489.000000	99.788696
3488.000000	99.785091
3487.000000	99.781028
3486.000000	99.778030
3485.000000	99.776382
3484.000000	99.775711
3483.000000	99.776237
3482.000000	99.778496
3481.000000	99.782015
3480.000000	99.785160
3479.000000	99.786556
3478.000000	99.786249
3477.000000	99.785254
3476.000000	99.784335
3475.000000	99.783227
3474.000000	99.781138
3473.000000	99.778077
3472.000000	99.775426
3471.000000	99.774767
3470.000000	99.776066
3469.000000	99.777412
3468.000000	99.776676
3467.000000	99.773410
3466.000000	99.769427
3465.000000	99.767662
3464.000000	99.770128
3463.000000	99.776276
3462.000000	99.783167
3461.000000	99.787672
3460.000000	99.788653
3459.000000	99.787010
3458.000000	99.784123
3457.000000	99.780886
3456.000000	99.778161
3455.000000	99.777062
3454.000000	99.777974
3453.000000	99.779725
3452.000000	99.780077
3451.000000	99.777437
3450.000000	99.772028
3449.000000	99.765933
3448.000000	99.762176
3447.000000	99.762677
3446.000000	99.765948
3445.000000	99.767913
3444.000000	99.765796
3443.000000	99.760781
3442.000000	99.756747
3441.000000	99.756605
3440.000000	99.760202
3439.000000	99.765117
3438.000000	99.768542
3437.000000	99.768592
3436.000000	99.764993
3435.000000	99.758951
3434.000000	99.751884
3433.000000	99.744453
3432.000000	99.737128
3431.000000	99.731535
3430.000000	99.729894
3429.000000	99.732929
3428.000000	99.739055
3427.000000	99.745715
3426.000000	99.750740
3425.000000	99.752503
3424.000000	99.750148
3423.000000	99.744529
3422.000000	99.738272
3421.000000	99.733985
3420.000000	99.732215
3419.000000	99.731382
3418.000000	99.729471
3417.000000	99.725505
3416.000000	99.719767
3415.000000	99.713175
3414.000000	99.706445
3413.000000	99.699912
3412.000000	99.694357
3411.000000	99.691561
3410.000000	99.693139
3409.000000	99.698613
3408.000000	99.705162
3407.000000	99.709568
3406.000000	99.710371
3405.000000	99.708316
3404.000000	99.705245
3403.000000	99.702516
3402.000000	99.700102
3401.000000	99.697315
3400.000000	99.694295
3399.000000	99.692323
3398.000000	99.692101
3397.000000	99.692282
3396.000000	99.690805
3395.000000	99.687785
3394.000000	99.686097
3393.000000	99.688481
3392.000000	99.694331
3391.000000	99.699852
3390.000000	99.701274
3389.000000	99.697431
3388.000000	99.689558
3387.000000	99.679675
3386.000000	99.669704
3385.000000	99.661560
3384.000000	99.656724
3383.000000	99.654972
3382.000000	99.653990
3381.000000	99.651293
3380.000000	99.646603
3379.000000	99.641971
3378.000000	99.639512
3377.000000	99.639697
3376.000000	99.641711
3375.000000	99.644433
3374.000000	99.646625
3373.000000	99.646946
3372.000000	99.644684
3371.000000	99.640317
3370.000000	99.634962
3369.000000	99.629398
3368.000000	99.623939
3367.000000	99.618874
3366.000000	99.614475
3365.000000	99.610783
3364.000000	99.607965
3363.000000	99.606682
3362.000000	99.607430
3361.000000	99.609305
3360.000000	99.609874
3359.000000	99.606762
3358.000000	99.599658
3357.000000	99.591001
3356.000000	99.584522
3355.000000	99.582410
3354.000000	99.583425
3353.000000	99.584120
3352.000000	99.582227
3351.000000	99.578414
3350.000000	99.574508
3349.000000	99.570780
3348.000000	99.566046
3347.000000	99.560113
3346.000000	99.554921
3345.000000	99.552773
3344.000000	99.553954
3343.000000	99.556569
3342.000000	99.558228
3341.000000	99.557579
3340.000000	99.554680
3339.000000	99.550732
3338.000000	99.547559
3337.000000	99.546721
3336.000000	99.548292
3335.000000	99.550266
3334.000000	99.549672
3333.000000	99.545139
3332.000000	99.538681
3331.000000	99.534407
3330.000000	99.534789
3329.000000	99.538060
3328.000000	99.539628
3327.000000	99.536065
3326.000000	99.527680
3325.000000	99.517610
3324.000000	99.509084
3323.000000	99.503647
3322.000000	99.501265
3321.000000	99.501493
3320.000000	99.504320
3319.000000	99.509772
3318.000000	99.516599
3317.000000	99.521816
3316.000000	99.522388
3315.000000	99.517878
3314.000000	99.511085
3313.000000	99.505583
3312.000000	99.502718
3311.000000	99.501219
3310.000000	99.499565
3309.000000	99.498074
3308.000000	99.498131
3307.000000	99.499712
3306.000000	99.500554
3305.000000	99.498109
3304.000000	99.491915
3303.000000	99.483690
3302.000000	99.475523
3301.000000	99.468632
3300.000000	99.463674
3299.000000	99.461176
3298.000000	99.461060
3297.000000	99.462332
3296.000000	99.463669
3295.000000	99.464134
3294.000000	99.463260
3293.000000	99.461187
3292.000000	99.459097
3291.000000	99.458744
3290.000000	99.460693
3289.000000	99.463305
3288.000000	99.464163
3287.000000	99.462308
3286.000000	99.458687
3285.000000	99.454999
3284.000000	99.452885
3283.000000	99.453668
3282.000000	99.457471
3281.000000	99.462180
3280.000000	99.464351
3279.000000	99.461876
3278.000000	99.455531
3277.000000	99.447753
3276.000000	99.440334
3275.000000	99.433869
3274.000000	99.429071
3273.000000	99.427649
3272.000000	99.431167
3271.000000	99.438905
3270.000000	99.447181
3269.000000	99.451478
3268.000000	99.449775
3267.000000	99.444079
3266.000000	99.438808
3265.000000	99.437596
3264.000000	99.441124
3263.000000	99.447074
3262.000000	99.451797
3261.000000	99.452697
3260.000000	99.449977
3259.000000	99.446171
3258.000000	99.443800
3257.000000	99.443506
3256.000000	99.444309
3255.000000	99.445078
3254.000000	99.445374
3253.000000	99.445476
3252.000000	99.446317
3251.000000	99.449055
3250.000000	99.453771
3249.000000	99.458683
3248.000000	99.461491
3247.000000	99.461703
3246.000000	99.461077
3245.000000	99.461446
3244.000000	99.462489
3243.000000	99.462200
3242.000000	99.459413
3241.000000	99.455652
3240.000000	99.454321
3239.000000	99.457587
3238.000000	99.463795
3237.000000	99.468310
3236.000000	99.467749
3235.000000	99.463415
3234.000000	99.459960
3233.000000	99.460802
3232.000000	99.465397
3231.000000	99.470943
3230.000000	99.475493
3229.000000	99.478745
3228.000000	99.480861
3227.000000	99.481734
3226.000000	99.481456
3225.000000	99.480538
3224.000000	99.479323
3223.000000	99.477575
3222.000000	99.474844
3221.000000	99.471101
3220.000000	99.466989
3219.000000	99.463500
3218.000000	99.461394
3217.000000	99.460807
3216.000000	99.461462
3215.000000	99.463219
3214.000000	99.466024
3213.000000	99.469034
3212.000000	99.470448
3211.000000	99.469041
3210.000000	99.465859
3209.000000	99.463480
3208.000000	99.463370
3207.000000	99.464407
3206.000000	99.464452
3205.000000	99.462854
3204.000000	99.461052
3203.000000	99.460976
3202.000000	99.463289
3201.000000	99.467096
3200.000000	99.470968
3199.000000	99.474085
3198.000000	99.476385
3197.000000	99.477684
3196.000000	99.476986
3195.000000	99.473220
3194.000000	99.466817
3193.000000	99.460190
3192.000000	99.456382
3191.000000	99.457066
3190.000000	99.461625
3189.000000	99.467684
3188.000000	99.472587
3187.000000	99.475024
3186.000000	99.475692
3185.000000	99.476030
3184.000000	99.476192
3183.000000	99.474959
3182.000000	99.472095
3181.000000	99.469943
3180.000000	99.471455
3179.000000	99.476795
3178.000000	99.482668
3177.000000	99.485423
3176.000000	99.484395
3175.000000	99.482140
3174.000000	99.481896
3173.000000	99.484887
3172.000000	99.489394
3171.000000	99.492190
3170.000000	99.491402
3169.000000	99.488392
3168.000000	99.486669
3167.000000	99.488621
3166.000000	99.493394
3165.000000	99.497757
3164.000000	99.498964
3163.000000	99.496866
3162.000000	99.493808
3161.000000	99.492334
3160.000000	99.492706
3159.000000	99.492553
3158.000000	99.489378
3157.000000	99.483411
3156.000000	99.477720
3155.000000	99.475475
3154.000000	99.477504
3153.000000	99.482322
3152.000000	99.487860
3151.000000	99.492795
3150.000000	99.496631
3149.000000	99.499106
3148.000000	99.499676
3147.000000	99.497657
3146.000000	99.493104
3145.000000	99.487515
3144.000000	99.483358
3143.000000	99.482577
3142.000000	99.485617
3141.000000	99.491632
3140.000000	99.499065
3139.000000	99.506037
3138.000000	99.510990
3137.000000	99.513584
3136.000000	99.514609
3135.000000	99.514755
3134.000000	99.513916
3133.000000	99.512191
3132.000000	99.510996
3131.000000	99.512472
3130.000000	99.517611
3129.000000	99.525069
3128.000000	99.531641
3127.000000	99.534169
3126.000000	99.531835
3125.000000	99.527092
3124.000000	99.524042
3123.000000	99.525107
3122.000000	99.529037
3121.000000	99.532088
3120.000000	99.531199
3119.000000	99.526107
3118.000000	99.519144
3117.000000	99.513526
3116.000000	99.511482
3115.000000	99.513135
3114.000000	99.516904
3113.000000	99.520934
3112.000000	99.524004
3111.000000	99.525290
3110.000000	99.524169
3109.000000	99.520968
3108.000000	99.517527
3107.000000	99.516049
3106.000000	99.516997
3105.000000	99.518487
3104.000000	99.518047
3103.000000	99.514710
3102.000000	99.509492
3101.000000	99.504358
3100.000000	99.501054
3099.000000	99.500350
3098.000000	99.501745
3097.000000	99.503869
3096.000000	99.505547
3095.000000	99.506710
3094.000000	99.508177
3093.000000	99.510544
3092.000000	99.513268
3091.000000	99.514871
3090.000000	99.514137
3089.000000	99.511269
3088.000000	99.507740
3087.000000	99.504885
3086.000000	99.502857
3085.000000	99.501225
3084.000000	99.500289
3083.000000	99.501032
3082.000000	99.503720
3081.000000	99.507142
3080.000000	99.509627
3079.000000	99.510422
3078.000000	99.509874
3077.000000	99.508565
3076.000000	99.506630
3075.000000	99.503694
3074.000000	99.499319
3073.000000	99.493909
3072.000000	99.489323
3071.000000	99.488001
3070.000000	99.490707
3069.000000	99.495268
3068.000000	99.498238
3067.000000	99.497986
3066.000000	99.495819
3065.000000	99.494093
3064.000000	99.493775
3063.000000	99.494236
3062.000000	99.494856
3061.000000	99.495878
3060.000000	99.497467
3059.000000	99.498638
3058.000000	99.498238
3057.000000	99.497115
3056.000000	99.498135
3055.000000	99.503101
3054.000000	99.510042
3053.000000	99.514713
3052.000000	99.514650
3051.000000	99.511026
3050.000000	99.506803
3049.000000	99.504252
3048.000000	99.504391
3047.000000	99.507165
3046.000000	99.511004
3045.000000	99.512923
3044.000000	99.510541
3043.000000	99.504310
3042.000000	99.497351
3041.000000	99.493024
3040.000000	99.492954
3039.000000	99.496801
3038.000000	99.503038
3037.000000	99.509705
3036.000000	99.515023
3035.000000	99.517824
3034.000000	99.517639
3033.000000	99.514599
3032.000000	99.509503
3031.000000	99.503878
3030.000000	99.499658
3029.000000	99.498539
3028.000000	99.501177
3027.000000	99.506491
3026.000000	99.511764
3025.000000	99.514189
3024.000000	99.513090
3023.000000	99.510595
3022.000000	99.509784
3021.000000	99.511981
3020.000000	99.515779
3019.000000	99.518371
3018.000000	99.517736
3017.000000	99.513900
3016.000000	99.508571
3015.000000	99.503614
3014.000000	99.499996
3013.000000	99.498135
3012.000000	99.498584
3011.000000	99.501111
3010.000000	99.503224
3009.000000	99.501311
3008.000000	99.494395
3007.000000	99.486099
3006.000000	99.481574
3005.000000	99.482620
3004.000000	99.486659
3003.000000	99.490276
3002.000000	99.492498
3001.000000	99.494362
3000.000000	99.496602
2999.000000	99.498683
2998.000000	99.499552
2997.000000	99.498642
2996.000000	99.496426
2995.000000	99.494336
2994.000000	99.493551
2993.000000	99.493200
2992.000000	99.490177
2991.000000	99.481849
2990.000000	99.469174
2989.000000	99.456586
2988.000000	99.448481
2987.000000	99.445959
2986.000000	99.446679
2985.000000	99.446961
2984.000000	99.443618
2983.000000	99.435110
2982.000000	99.422460
2981.000000	99.409222
2980.000000	99.399174
2979.000000	99.393337
2978.000000	99.389341
2977.000000	99.383843
2976.000000	99.374915
2975.000000	99.362223
2974.000000	99.346114
2973.000000	99.327518
2972.000000	99.308094
2971.000000	99.289166
2970.000000	99.270545
2969.000000	99.251240
2968.000000	99.231518
2967.000000	99.213308
2966.000000	99.197993
2965.000000	99.184389
2964.000000	99.169664
2963.000000	99.152263
2962.000000	99.133398
2961.000000	99.115408
2960.000000	99.098988
2959.000000	99.082660
2958.000000	99.065264
2957.000000	99.048338
2956.000000	99.035147
2955.000000	99.027348
2954.000000	99.023549
2953.000000	99.021629
2952.000000	99.021361
2951.000000	99.023798
2950.000000	99.028458
2949.000000	99.032444
2948.000000	99.032481
2947.000000	99.027029
2946.000000	99.016264
2945.000000	99.000731
2944.000000	98.980747
2943.000000	98.956699
2942.000000	98.929461
2941.000000	98.900200
2940.000000	98.869699
2939.000000	98.837737
2938.000000	98.803192
2937.000000	98.764976
2936.000000	98.722727
2935.000000	98.676743
2934.000000	98.627807
2933.000000	98.577189
2932.000000	98.526019
2931.000000	98.473908
2930.000000	98.418873
2929.000000	98.359619
2928.000000	98.297680
2927.000000	98.236498
2926.000000	98.178598
2925.000000	98.124672
2924.000000	98.075028
2923.000000	98.030581
2922.000000	97.992270
2921.000000	97.960892
2920.000000	97.938578
2919.000000	97.929406
2918.000000	97.937837
2917.000000	97.966573
2916.000000	98.015741
2915.000000	98.083196
2914.000000	98.164486
2913.000000	98.253090
2912.000000	98.341479
2911.000000	98.422917
2910.000000	98.492964
2909.000000	98.550703
2908.000000	98.599031
2907.000000	98.642664
2906.000000	98.684599
2905.000000	98.724206
2904.000000	98.758965
2903.000000	98.787572
2902.000000	98.810896
2901.000000	98.831214
2900.000000	98.850741
2899.000000	98.871695
2898.000000	98.895320
2897.000000	98.920595
2896.000000	98.944487
2895.000000	98.964079
2894.000000	98.978610
2893.000000	98.989421
2892.000000	98.998488
2891.000000	99.007345
2890.000000	99.017104
2889.000000	99.028727
2888.000000	99.042484
2887.000000	99.056945
2886.000000	99.069176
2885.000000	99.076821
2884.000000	99.080330
2883.000000	99.082515
2882.000000	99.085742
2881.000000	99.090086
2880.000000	99.094359
2879.000000	99.098036
2878.000000	99.101213
2877.000000	99.103170
2876.000000	99.102132
2875.000000	99.096809
2874.000000	99.087671
2873.000000	99.076604
2872.000000	99.065833
2871.000000	99.057240
2870.000000	99.051817
2869.000000	99.048878
2868.000000	99.045929
2867.000000	99.039993
2866.000000	99.029511
2865.000000	99.015017
2864.000000	98.997778
2863.000000	98.977896
2862.000000	98.953824
2861.000000	98.923788
2860.000000	98.887264
2859.000000	98.844636
2858.000000	98.795999
2857.000000	98.741449
2856.000000	98.682855
2855.000000	98.624071
2854.000000	98.568611
2853.000000	98.517885
2852.000000	98.473490
2851.000000	98.441547
2850.000000	98.432638
2849.000000	98.455681
2848.000000	98.510911
2847.000000	98.589193
2846.000000	98.677968
2845.000000	98.767810
2844.000000	98.853817
2843.000000	98.933072
2842.000000	99.002802
2841.000000	99.061296
2840.000000	99.109554
2839.000000	99.150308
2838.000000	99.185453
2837.000000	99.215161
2836.000000	99.239569
2835.000000	99.260217
2834.000000	99.278927
2833.000000	99.295764
2832.000000	99.309168
2831.000000	99.318297
2830.000000	99.324475
2829.000000	99.330115
2828.000000	99.336554
2827.000000	99.343154
2826.000000	99.348260
2825.000000	99.350830
2824.000000	99.351655
2823.000000	99.353419
2822.000000	99.359191
2821.000000	99.369923
2820.000000	99.383041
2819.000000	99.394084
2818.000000	99.400448
2817.000000	99.403538
2816.000000	99.406815
2815.000000	99.411889
2814.000000	99.417157
2813.000000	99.420379
2812.000000	99.421631
2811.000000	99.422949
2810.000000	99.425512
2809.000000	99.428128
2808.000000	99.428721
2807.000000	99.426660
2806.000000	99.423348
2805.000000	99.420914
2804.000000	99.420667
2803.000000	99.422644
2802.000000	99.426252
2801.000000	99.430982
2800.000000	99.436308
2799.000000	99.441107
2798.000000	99.443965
2797.000000	99.444587
2796.000000	99.444484
2795.000000	99.445504
2794.000000	99.447900
2793.000000	99.450618
2792.000000	99.453217
2791.000000	99.456283
2790.000000	99.459765
2789.000000	99.462245
2788.000000	99.462845
2787.000000	99.462917
2786.000000	99.464498
2785.000000	99.467340
2784.000000	99.468746
2783.000000	99.466707
2782.000000	99.462303
2781.000000	99.458562
2780.000000	99.457546
2779.000000	99.459118
2778.000000	99.461977
2777.000000	99.464936
2776.000000	99.467084
2775.000000	99.467624
2774.000000	99.466361
2773.000000	99.464320
2772.000000	99.463269
2771.000000	99.464266
2770.000000	99.466866
2769.000000	99.469861
2768.000000	99.472475
2767.000000	99.474572
2766.000000	99.476070
2765.000000	99.476796
2764.000000	99.477047
2763.000000	99.477781
2762.000000	99.479832
2761.000000	99.482881
2760.000000	99.485397
2759.000000	99.485838
2758.000000	99.484162
2757.000000	99.482096
2756.000000	99.481646
2755.000000	99.483273
2754.000000	99.485831
2753.000000	99.488203
2752.000000	99.490322
2751.000000	99.492324
2750.000000	99.493619
2749.000000	99.493664
2748.000000	99.493238
2747.000000	99.493826
2746.000000	99.495707
2745.000000	99.497500
2744.000000	99.497838
2743.000000	99.496836
2742.000000	99.495584
2741.000000	99.494674
2740.000000	99.493567
2739.000000	99.491251
2738.000000	99.487570
2737.000000	99.484144
2736.000000	99.483591
2735.000000	99.487080
2734.000000	99.492713
2733.000000	99.497114
2732.000000	99.498829
2731.000000	99.499279
2730.000000	99.500119
2729.000000	99.500591
2728.000000	99.498394
2727.000000	99.492938
2726.000000	99.487006
2725.000000	99.485021
2724.000000	99.489495
2723.000000	99.498666
2722.000000	99.507385
2721.000000	99.510821
2720.000000	99.508038
2719.000000	99.502196
2718.000000	99.497460
2717.000000	99.496023
2716.000000	99.497748
2715.000000	99.501456
2714.000000	99.505848
2713.000000	99.509737
2712.000000	99.512287
2711.000000	99.513161
2710.000000	99.512360
2709.000000	99.510198
2708.000000	99.507638
2707.000000	99.506165
2706.000000	99.506732
2705.000000	99.508840
2704.000000	99.510932
2703.000000	99.511778
2702.000000	99.511609
2701.000000	99.512121
2700.000000	99.515073
2699.000000	99.520116
2698.000000	99.524040
2697.000000	99.523184
2696.000000	99.517289
2695.000000	99.510370
2694.000000	99.507047
2693.000000	99.508446
2692.000000	99.512187
2691.000000	99.515640
2690.000000	99.518013
2689.000000	99.519447
2688.000000	99.519572
2687.000000	99.517889
2686.000000	99.515031
2685.000000	99.512760
2684.000000	99.512468
2683.000000	99.513910
2682.000000	99.515566
2681.000000	99.516141
2680.000000	99.515586
2679.000000	99.514629
2678.000000	99.513626
2677.000000	99.512363
2676.000000	99.510954
2675.000000	99.510260
2674.000000	99.510922
2673.000000	99.512341
2672.000000	99.513230
2671.000000	99.513094
2670.000000	99.512591
2669.000000	99.512395
2668.000000	99.512228
2667.000000	99.511310
2666.000000	99.509239
2665.000000	99.506040
2664.000000	99.501770
2663.000000	99.496873
2662.000000	99.492941
2661.000000	99.492017
2660.000000	99.494272
2659.000000	99.496887
2658.000000	99.496600
2657.000000	99.493724
2656.000000	99.492594
2655.000000	99.497110
2654.000000	99.506399
2653.000000	99.515895
2652.000000	99.522111
2651.000000	99.525089
2650.000000	99.526359
2649.000000	99.526377
2648.000000	99.524951
2647.000000	99.522936
2646.000000	99.521838
2645.000000	99.521930
2644.000000	99.522023
2643.000000	99.521229
2642.000000	99.519999
2641.000000	99.519077
2640.000000	99.518340
2639.000000	99.517421
2638.000000	99.516981
2637.000000	99.518329
2636.000000	99.521631
2635.000000	99.525276
2634.000000	99.527560
2633.000000	99.528729
2632.000000	99.530819
2631.000000	99.535536
2630.000000	99.542614
2629.000000	99.550029
2628.000000	99.555312
2627.000000	99.556887
2626.000000	99.555084
2625.000000	99.552215
2624.000000	99.551048
2623.000000	99.552714
2622.000000	99.556392
2621.000000	99.560925
2620.000000	99.565717
2619.000000	99.569750
2618.000000	99.571052
2617.000000	99.568483
2616.000000	99.563626
2615.000000	99.559908
2614.000000	99.560054
2613.000000	99.564665
2612.000000	99.572160
2611.000000	99.578888
2610.000000	99.580378
2609.000000	99.574651
2608.000000	99.564534
2607.000000	99.555413
2606.000000	99.550510
2605.000000	99.549434
2604.000000	99.550756
2603.000000	99.554026
2602.000000	99.558880
2601.000000	99.564057
2600.000000	99.568630
2599.000000	99.573138
2598.000000	99.578475
2597.000000	99.584092
2596.000000	99.588045
2595.000000	99.588666
2594.000000	99.586034
2593.000000	99.582196
2592.000000	99.579889
2591.000000	99.580423
2590.000000	99.582684
2589.000000	99.584685
2588.000000	99.585895
2587.000000	99.587303
2586.000000	99.589416
2585.000000	99.591257
2584.000000	99.591589
2583.000000	99.590625
2582.000000	99.590444
2581.000000	99.593739
2580.000000	99.601246
2579.000000	99.609666
2578.000000	99.613346
2577.000000	99.609571
2576.000000	99.601706
2575.000000	99.595872
2574.000000	99.595129
2573.000000	99.598193
2572.000000	99.602312
2571.000000	99.605084
2570.000000	99.604509
2569.000000	99.600688
2568.000000	99.597788
2567.000000	99.601174
2566.000000	99.611380
2565.000000	99.622979
2564.000000	99.630202
2563.000000	99.631753
2562.000000	99.629510
2561.000000	99.625314
2560.000000	99.620298
2559.000000	99.615187
2558.000000	99.609576
2557.000000	99.602429
2556.000000	99.594532
2555.000000	99.588691
2554.000000	99.586298
2553.000000	99.585558
2552.000000	99.584620
2551.000000	99.584504
2550.000000	99.587107
2549.000000	99.591648
2548.000000	99.595083
2547.000000	99.595082
2546.000000	99.591336
2545.000000	99.585270
2544.000000	99.580292
2543.000000	99.580798
2542.000000	99.588346
2541.000000	99.598923
2540.000000	99.605779
2539.000000	99.604997
2538.000000	99.597429
2537.000000	99.586347
2536.000000	99.575174
2535.000000	99.566920
2534.000000	99.563160
2533.000000	99.562585
2532.000000	99.561866
2531.000000	99.559089
2530.000000	99.555837
2529.000000	99.555237
2528.000000	99.557911
2527.000000	99.560217
2526.000000	99.556981
2525.000000	99.546703
2524.000000	99.534158
2523.000000	99.527219
2522.000000	99.530255
2521.000000	99.540354
2520.000000	99.549339
2519.000000	99.549006
2518.000000	99.535718
2517.000000	99.512875
2516.000000	99.490114
2515.000000	99.478111
2514.000000	99.481329
2513.000000	99.495013
2512.000000	99.509569
2511.000000	99.518002
2510.000000	99.518995
2509.000000	99.514367
2508.000000	99.505734
2507.000000	99.494666
2506.000000	99.485160
2505.000000	99.483608
2504.000000	99.494070
2503.000000	99.512977
2502.000000	99.530369
2501.000000	99.538605
2500.000000	99.539380
2499.000000	99.540622
2498.000000	99.546380
2497.000000	99.552345
2496.000000	99.552059
2495.000000	99.545281
2494.000000	99.538446
2493.000000	99.537732
2492.000000	99.543501
2491.000000	99.551348
2490.000000	99.557082
2489.000000	99.560474
2488.000000	99.564645
2487.000000	99.572028
2486.000000	99.581046
2485.000000	99.587153
2484.000000	99.587531
2483.000000	99.584371
2482.000000	99.583098
2481.000000	99.587613
2480.000000	99.597082
2479.000000	99.606985
2478.000000	99.613170
2477.000000	99.615285
2476.000000	99.616395
2475.000000	99.619077
2474.000000	99.622467
2473.000000	99.623798
2472.000000	99.622236
2471.000000	99.619946
2470.000000	99.619433
2469.000000	99.621010
2468.000000	99.623193
2467.000000	99.624555
2466.000000	99.624618
2465.000000	99.623538
2464.000000	99.621575
2463.000000	99.619166
2462.000000	99.617577
2461.000000	99.618917
2460.000000	99.624048
2459.000000	99.630070
2458.000000	99.631812
2457.000000	99.627501
2456.000000	99.621967
2455.000000	99.622044
2454.000000	99.628950
2453.000000	99.636904
2452.000000	99.639160
2451.000000	99.633908
2450.000000	99.624837
2449.000000	99.617897
2448.000000	99.617495
2447.000000	99.623544
2446.000000	99.631489
2445.000000	99.636517
2444.000000	99.638141
2443.000000	99.639569
2442.000000	99.642813
2441.000000	99.646291
2440.000000	99.647414
2439.000000	99.645584
2438.000000	99.642116
2437.000000	99.639008
2436.000000	99.638464
2435.000000	99.641886
2434.000000	99.648120
2433.000000	99.653581
2432.000000	99.655159
2431.000000	99.652796
2430.000000	99.649114
2429.000000	99.647077
2428.000000	99.647873
2427.000000	99.650211
2426.000000	99.651855
2425.000000	99.652486
2424.000000	99.654335
2423.000000	99.658843
2422.000000	99.663519
2421.000000	99.664135
2420.000000	99.659814
2419.000000	99.653953
2418.000000	99.649840
2417.000000	99.647136
2416.000000	99.643509
2415.000000	99.638483
2414.000000	99.634672
2413.000000	99.635353
2412.000000	99.640750
2411.000000	99.646702
2410.000000	99.648012
2409.000000	99.643990
2408.000000	99.639813
2407.000000	99.641211
2406.000000	99.648540
2405.000000	99.657180
2404.000000	99.662606
2403.000000	99.663834
2402.000000	99.663165
2401.000000	99.664233
2400.000000	99.669156
2399.000000	99.675730
2398.000000	99.678804
2397.000000	99.676358
2396.000000	99.672731
2395.000000	99.673130
2394.000000	99.676422
2393.000000	99.676957
2392.000000	99.672427
2391.000000	99.666485
2390.000000	99.663168
2389.000000	99.662338
2388.000000	99.662269
2387.000000	99.662923
2386.000000	99.665844
2385.000000	99.671893
2384.000000	99.680441
2383.000000	99.690765
2382.000000	99.702180
2381.000000	99.715133
2380.000000	99.730151
2379.000000	99.744394
2378.000000	99.750960
2377.000000	99.744140
2376.000000	99.725859
2375.000000	99.704366
2374.000000	99.688348
2373.000000	99.682893
2372.000000	99.688603
2371.000000	99.699890
2370.000000	99.706354
2369.000000	99.701340
2368.000000	99.685453
2367.000000	99.660618
2366.000000	99.626658
2365.000000	99.592283
2364.000000	99.577603
2363.000000	99.584816
2362.000000	99.593264
2361.000000	99.594228
2360.000000	99.591258
2359.000000	99.599012
2358.000000	99.625102
2357.000000	99.650580
2356.000000	99.670987
2355.000000	99.666736
2354.000000	99.640930
2353.000000	99.628885
2352.000000	99.683397
2351.000000	99.803092
2350.000000	99.913701
2349.000000	99.948754
2348.000000	99.886362
2347.000000	99.765943
2346.000000	99.659943
2345.000000	99.609884
2344.000000	99.608415
2343.000000	99.605358
2342.000000	99.604253
2341.000000	99.624350
2340.000000	99.652612
2339.000000	99.663236
2338.000000	99.653254
2337.000000	99.647665
2336.000000	99.656231
2335.000000	99.676662
2334.000000	99.689359
2333.000000	99.694938
2332.000000	99.685448
2331.000000	99.676551
2330.000000	99.654575
2329.000000	99.640219
2328.000000	99.624360
2327.000000	99.614877
2326.000000	99.604763
2325.000000	99.598807
2324.000000	99.602317
2323.000000	99.611663
2322.000000	99.615599
2321.000000	99.605811
2320.000000	99.578586
2319.000000	99.553682
2318.000000	99.534824
2317.000000	99.531660
2316.000000	99.528056
2315.000000	99.531262
2314.000000	99.534575
2313.000000	99.545068
2312.000000	99.548364
2311.000000	99.548369
2310.000000	99.541524
2309.000000	99.540073
2308.000000	99.543539
2307.000000	99.556851
2306.000000	99.573317
2305.000000	99.587790
2304.000000	99.590086
2303.000000	99.582997
2302.000000	99.570613
2301.000000	99.565870
2300.000000	99.568351
2299.000000	99.580443
2298.000000	99.591319
2297.000000	99.597850
2296.000000	99.592861
2295.000000	99.583717
2294.000000	99.575742
2293.000000	99.575026
2292.000000	99.580264
2291.000000	99.590322
2290.000000	99.602615
2289.000000	99.611386
2288.000000	99.611457
2287.000000	99.601677
2286.000000	99.588338
2285.000000	99.576186
2284.000000	99.568270
2283.000000	99.564177
2282.000000	99.564834
2281.000000	99.568652
2280.000000	99.574188
2279.000000	99.581307
2278.000000	99.591216
2277.000000	99.602199
2276.000000	99.607812
2275.000000	99.604575
2274.000000	99.594849
2273.000000	99.586900
2272.000000	99.586964
2271.000000	99.596010
2270.000000	99.608697
2269.000000	99.618018
2268.000000	99.621218
2267.000000	99.622955
2266.000000	99.629852
2265.000000	99.643617
2264.000000	99.658275
2263.000000	99.666136
2262.000000	99.665334
2261.000000	99.661054
2260.000000	99.662576
2259.000000	99.672900
2258.000000	99.685670
2257.000000	99.689381
2256.000000	99.678323
2255.000000	99.656633
2254.000000	99.632643
2253.000000	99.615119
2252.000000	99.610461
2251.000000	99.621064
2250.000000	99.639914
2249.000000	99.656198
2248.000000	99.665311
2247.000000	99.672900
2246.000000	99.683869
2245.000000	99.694908
2244.000000	99.699648
2243.000000	99.696796
2242.000000	99.689266
2241.000000	99.680121
2240.000000	99.672740
2239.000000	99.669472
2238.000000	99.667162
2237.000000	99.659456
2236.000000	99.647841
2235.000000	99.643766
2234.000000	99.655027
2233.000000	99.675631
2232.000000	99.694217
2231.000000	99.705916
2230.000000	99.709869
2229.000000	99.702727
2228.000000	99.683909
2227.000000	99.662793
2226.000000	99.651894
2225.000000	99.655694
2224.000000	99.671280
2223.000000	99.694758
2222.000000	99.719101
2221.000000	99.731376
2220.000000	99.722187
2219.000000	99.696565
2218.000000	99.668361
2217.000000	99.647966
2216.000000	99.641441
2215.000000	99.655140
2214.000000	99.689695
2213.000000	99.731644
2212.000000	99.761389
2211.000000	99.769848
2210.000000	99.760018
2209.000000	99.735757
2208.000000	99.699378
2207.000000	99.658258
2206.000000	99.623396
2205.000000	99.599415
2204.000000	99.582825
2203.000000	99.570521
2202.000000	99.564445
2201.000000	99.568216
2200.000000	99.585084
2199.000000	99.617141
2198.000000	99.658858
2197.000000	99.691945
2196.000000	99.696464
2195.000000	99.670568
2194.000000	99.634264
2193.000000	99.612680
2192.000000	99.617089
2191.000000	99.638880
2190.000000	99.656442
2189.000000	99.650161
2188.000000	99.619133
2187.000000	99.583987
2186.000000	99.567659
2185.000000	99.573507
2184.000000	99.585751
2183.000000	99.590668
2182.000000	99.591783
2181.000000	99.603614
2180.000000	99.635416
2179.000000	99.681352
2178.000000	99.722378
2177.000000	99.737581
2176.000000	99.720206
2175.000000	99.685365
2174.000000	99.659753
2173.000000	99.661453
2172.000000	99.686676
2171.000000	99.713002
2170.000000	99.717026
2169.000000	99.695617
2168.000000	99.671233
2167.000000	99.668719
2166.000000	99.686310
2165.000000	99.697958
2164.000000	99.686573
2163.000000	99.665944
2162.000000	99.664536
2161.000000	99.698598
2160.000000	99.763321
2159.000000	99.836747
2158.000000	99.888818
2157.000000	99.903057
2156.000000	99.893484
2155.000000	99.886173
2154.000000	99.888906
2153.000000	99.891715
2152.000000	99.890994
2151.000000	99.895279
2150.000000	99.906189
2149.000000	99.910626
2148.000000	99.899670
2147.000000	99.881401
2146.000000	99.868436
2145.000000	99.864839
2144.000000	99.870990
2143.000000	99.887571
2142.000000	99.906875
2141.000000	99.913158
2140.000000	99.902014
2139.000000	99.889190
2138.000000	99.889327
2137.000000	99.895291
2136.000000	99.889348
2135.000000	99.869148
2134.000000	99.850391
2133.000000	99.845649
2132.000000	99.850329
2131.000000	99.849733
2130.000000	99.834697
2129.000000	99.810202
2128.000000	99.790807
2127.000000	99.785582
2126.000000	99.787795
2125.000000	99.783592
2124.000000	99.770437
2123.000000	99.759472
2122.000000	99.758371
2121.000000	99.760021
2120.000000	99.752908
2119.000000	99.735693
2118.000000	99.715928
2117.000000	99.700563
2116.000000	99.693453
2115.000000	99.696721
2114.000000	99.707465
2113.000000	99.716609
2112.000000	99.717790
2111.000000	99.715071
2110.000000	99.716339
2109.000000	99.722502
2108.000000	99.728771
2107.000000	99.733161
2106.000000	99.737245
2105.000000	99.741574
2104.000000	99.747034
2103.000000	99.757853
2102.000000	99.776107
2101.000000	99.794873
2100.000000	99.803796
2099.000000	99.800775
2098.000000	99.792672
2097.000000	99.785708
2096.000000	99.780288
2095.000000	99.774194
2094.000000	99.765797
2093.000000	99.754828
2092.000000	99.744115
2091.000000	99.739141
2090.000000	99.742029
2089.000000	99.747342
2088.000000	99.747682
2087.000000	99.742636
2086.000000	99.738205
2085.000000	99.738226
2084.000000	99.739358
2083.000000	99.734349
2082.000000	99.719113
2081.000000	99.698152
2080.000000	99.683774
2079.000000	99.686631
2078.000000	99.705055
2077.000000	99.726299
2076.000000	99.739016
2075.000000	99.740760
2074.000000	99.733606
2073.000000	99.720414
2072.000000	99.708403
2071.000000	99.707553
2070.000000	99.719645
2069.000000	99.734798
2068.000000	99.743809
2067.000000	99.747963
2066.000000	99.751767
2065.000000	99.753523
2064.000000	99.749808
2063.000000	99.743603
2062.000000	99.740734
2061.000000	99.743002
2060.000000	99.748746
2059.000000	99.753756
2058.000000	99.749167
2057.000000	99.729423
2056.000000	99.707415
2055.000000	99.707520
2054.000000	99.732662
2053.000000	99.751716
2052.000000	99.735884
2051.000000	99.696960
2050.000000	99.672487
2049.000000	99.677692
2048.000000	99.689677
2047.000000	99.684278
2046.000000	99.668656
2045.000000	99.665178
2044.000000	99.680095
2043.000000	99.701351
2042.000000	99.716938
2041.000000	99.724706
2040.000000	99.728501
2039.000000	99.731434
2038.000000	99.733260
2037.000000	99.733770
2036.000000	99.737887
2035.000000	99.751588
2034.000000	99.770134
2033.000000	99.778257
2032.000000	99.767079
2031.000000	99.742950
2030.000000	99.716682
2029.000000	99.697536
2028.000000	99.700602
2027.000000	99.741412
2026.000000	99.812194
2025.000000	99.876952
2024.000000	99.905891
2023.000000	99.905398
2022.000000	99.900788
2021.000000	99.902909
2020.000000	99.905132
2019.000000	99.901232
2018.000000	99.891359
2017.000000	99.879046
2016.000000	99.873473
2015.000000	99.885039
2014.000000	99.907076
2013.000000	99.911187
2012.000000	99.875201
2011.000000	99.811519
2010.000000	99.756428
2009.000000	99.737541
2008.000000	99.757662
2007.000000	99.801164
2006.000000	99.844718
2005.000000	99.866622
2004.000000	99.859947
2003.000000	99.835890
2002.000000	99.809775
2001.000000	99.789471
2000.000000	99.778821
1999.000000	99.782581
1998.000000	99.800745
1997.000000	99.824057
1996.000000	99.842146
1995.000000	99.851114
1994.000000	99.849651
1993.000000	99.838225
1992.000000	99.827007
1991.000000	99.830371
1990.000000	99.846193
1989.000000	99.854192
1988.000000	99.841478
1987.000000	99.817175
1986.000000	99.794784
1985.000000	99.774736
1984.000000	99.755031
1983.000000	99.744383
1982.000000	99.748516
1981.000000	99.753974
1980.000000	99.745179
1979.000000	99.734033
1978.000000	99.752387
1977.000000	99.810571
1976.000000	99.879451
1975.000000	99.920571
1974.000000	99.919219
1973.000000	99.888782
1972.000000	99.857871
1971.000000	99.849894
1970.000000	99.866760
1969.000000	99.892179
1968.000000	99.909365
1967.000000	99.911043
1966.000000	99.896661
1965.000000	99.873163
1964.000000	99.856627
1963.000000	99.856617
1962.000000	99.857635
1961.000000	99.833220
1960.000000	99.784114
1959.000000	99.742835
1958.000000	99.733777
1957.000000	99.749249
1956.000000	99.771120
1955.000000	99.795753
1954.000000	99.825700
1953.000000	99.852740
1952.000000	99.864193
1951.000000	99.858960
1950.000000	99.847786
1949.000000	99.843640
1948.000000	99.856539
1947.000000	99.887665
1946.000000	99.921172
1945.000000	99.931526
1944.000000	99.908370
1943.000000	99.869086
1942.000000	99.838920
1941.000000	99.823802
1940.000000	99.814833
1939.000000	99.808662
1938.000000	99.807894
1937.000000	99.811196
1936.000000	99.814397
1935.000000	99.817464
1934.000000	99.822589
1933.000000	99.828824
1932.000000	99.833920
1931.000000	99.838292
1930.000000	99.843417
1929.000000	99.849404
1928.000000	99.857917
1927.000000	99.872766
1926.000000	99.893116
1925.000000	99.910392
1924.000000	99.916783
1923.000000	99.913891
1922.000000	99.907679
1921.000000	99.898427
1920.000000	99.882567
1919.000000	99.860568
1918.000000	99.837921
1917.000000	99.819407
1916.000000	99.805979
1915.000000	99.797984
1914.000000	99.795695
1913.000000	99.797213
1912.000000	99.799418
1911.000000	99.800394
1910.000000	99.799641
1909.000000	99.797972
1908.000000	99.799025
1907.000000	99.807023
1906.000000	99.819649
1905.000000	99.826896
1904.000000	99.821979
1903.000000	99.810510
1902.000000	99.803113
1901.000000	99.802222
1900.000000	99.803004
1899.000000	99.803530
1898.000000	99.806064
1897.000000	99.810715
1896.000000	99.814396
1895.000000	99.816325
1894.000000	99.819198
1893.000000	99.823986
1892.000000	99.828719
1891.000000	99.832287
1890.000000	99.835111
1889.000000	99.837191
1888.000000	99.838506
1887.000000	99.840962
1886.000000	99.844998
1885.000000	99.846615
1884.000000	99.842405
1883.000000	99.835240
1882.000000	99.830388
1881.000000	99.827559
1880.000000	99.822742
1879.000000	99.816749
1878.000000	99.816689
1877.000000	99.828408
1876.000000	99.849047
1875.000000	99.867864
1874.000000	99.873913
1873.000000	99.865045
1872.000000	99.851067
1871.000000	99.846501
1870.000000	99.857673
1869.000000	99.875228
1868.000000	99.882927
1867.000000	99.877330
1866.000000	99.868858
1865.000000	99.865415
1864.000000	99.867689
1863.000000	99.873401
1862.000000	99.878070
1861.000000	99.875432
1860.000000	99.863335
1859.000000	99.848100
1858.000000	99.839046
1857.000000	99.839018
1856.000000	99.843580
1855.000000	99.848922
1854.000000	99.854446
1853.000000	99.858862
1852.000000	99.860317
1851.000000	99.859966
1850.000000	99.861422
1849.000000	99.866525
1848.000000	99.873075
1847.000000	99.876561
1846.000000	99.873661
1845.000000	99.865026
1844.000000	99.856258
1843.000000	99.853379
1842.000000	99.856840
1841.000000	99.862229
1840.000000	99.867686
1839.000000	99.875056
1838.000000	99.883195
1837.000000	99.886859
1836.000000	99.884485
1835.000000	99.881107
1834.000000	99.880611
1833.000000	99.881810
1832.000000	99.884911
1831.000000	99.892714
1830.000000	99.902944
1829.000000	99.907538
1828.000000	99.904364
1827.000000	99.898103
1826.000000	99.890039
1825.000000	99.878987
1824.000000	99.868707
1823.000000	99.865896
1822.000000	99.870679
1821.000000	99.876371
1820.000000	99.878476
1819.000000	99.878892
1818.000000	99.881444
1817.000000	99.886761
1816.000000	99.892923
1815.000000	99.898946
1814.000000	99.904481
1813.000000	99.907638
1812.000000	99.906043
1811.000000	99.898055
1810.000000	99.884265
1809.000000	99.868374
1808.000000	99.853998
1807.000000	99.842605
1806.000000	99.833664
1805.000000	99.824581
1804.000000	99.812098
1803.000000	99.794034
1802.000000	99.769014
1801.000000	99.738158
1800.000000	99.706415
1799.000000	99.679821
1798.000000	99.662648
1797.000000	99.653825
1796.000000	99.646878
1795.000000	99.636850
1794.000000	99.626137
1793.000000	99.624779
1792.000000	99.641182
1791.000000	99.669414
1790.000000	99.697716
1789.000000	99.720955
1788.000000	99.739004
1787.000000	99.755191
1786.000000	99.774517
1785.000000	99.798365
1784.000000	99.821932
1783.000000	99.839624
1782.000000	99.848427
1781.000000	99.848846
1780.000000	99.846094
1779.000000	99.847158
1778.000000	99.855381
1777.000000	99.868178
1776.000000	99.880818
1775.000000	99.890090
1774.000000	99.894130
1773.000000	99.892758
1772.000000	99.891635
1771.000000	99.896096
1770.000000	99.902036
1769.000000	99.901381
1768.000000	99.892929
1767.000000	99.884729
1766.000000	99.883984
1765.000000	99.889295
1764.000000	99.895091
1763.000000	99.898337
1762.000000	99.896893
1761.000000	99.889465
1760.000000	99.880036
1759.000000	99.872524
1758.000000	99.865237
1757.000000	99.854393
1756.000000	99.842168
1755.000000	99.834495
1754.000000	99.829359
1753.000000	99.817686
1752.000000	99.796248
1751.000000	99.774949
1750.000000	99.764050
1749.000000	99.758173
1748.000000	99.749091
1747.000000	99.738733
1746.000000	99.730817
1745.000000	99.724332
1744.000000	99.717448
1743.000000	99.708559
1742.000000	99.692905
1741.000000	99.666810
1740.000000	99.637891
1739.000000	99.621430
1738.000000	99.618731
1737.000000	99.615813
1736.000000	99.604449
1735.000000	99.596794
1734.000000	99.615361
1733.000000	99.652125
1732.000000	99.685507
1731.000000	99.712845
1730.000000	99.736612
1729.000000	99.753643
1728.000000	99.763387
1727.000000	99.772525
1726.000000	99.784429
1725.000000	99.794812
1724.000000	99.799826
1723.000000	99.803908
1722.000000	99.812899
1721.000000	99.825364
1720.000000	99.836994
1719.000000	99.845448
1718.000000	99.846631
1717.000000	99.842327
1716.000000	99.836685
1715.000000	99.829442
1714.000000	99.822438
1713.000000	99.815634
1712.000000	99.807996
1711.000000	99.803008
1710.000000	99.804380
1709.000000	99.809909
1708.000000	99.814196
1707.000000	99.815005
1706.000000	99.815204
1705.000000	99.816870
1704.000000	99.814723
1703.000000	99.800685
1702.000000	99.771228
1701.000000	99.734900
1700.000000	99.707607
1699.000000	99.694476
1698.000000	99.690473
1697.000000	99.680570
1696.000000	99.659084
1695.000000	99.631665
1694.000000	99.611530
1693.000000	99.601627
1692.000000	99.592488
1691.000000	99.578944
1690.000000	99.560940
1689.000000	99.540216
1688.000000	99.520294
1687.000000	99.502209
1686.000000	99.484991
1685.000000	99.469781
1684.000000	99.458249
1683.000000	99.443317
1682.000000	99.425613
1681.000000	99.404707
1680.000000	99.378332
1679.000000	99.349500
1678.000000	99.319762
1677.000000	99.284909
1676.000000	99.244998
1675.000000	99.211966
1674.000000	99.194885
1673.000000	99.186857
1672.000000	99.175787
1671.000000	99.158543
1670.000000	99.139372
1669.000000	99.118588
1668.000000	99.095444
1667.000000	99.075030
1666.000000	99.055457
1665.000000	99.030034
1664.000000	98.997693
1663.000000	98.965250
1662.000000	98.937883
1661.000000	98.913112
1660.000000	98.889514
1659.000000	98.870973
1658.000000	98.859087
1657.000000	98.849328
1656.000000	98.834764
1655.000000	98.818931
1654.000000	98.818974
1653.000000	98.836960
1652.000000	98.831319
1651.000000	98.823683
1650.000000	98.822784
1649.000000	98.820383
1648.000000	98.816126
1647.000000	98.820331
1646.000000	98.831656
1645.000000	98.834880
1644.000000	98.831942
1643.000000	98.829589
1642.000000	98.830186
1641.000000	98.833628
1640.000000	98.839091
1639.000000	98.846241
1638.000000	98.855736
1637.000000	98.868900
1636.000000	98.885099
1635.000000	98.895886
1634.000000	98.897621
1633.000000	98.900385
1632.000000	98.905398
1631.000000	98.912194
1630.000000	98.923136
1629.000000	98.939028
1628.000000	98.957181
1627.000000	98.975144
1626.000000	98.990863
1625.000000	99.004073
1624.000000	99.019870
1623.000000	99.043411
1622.000000	99.067711
1621.000000	99.081319
1620.000000	99.085116
1619.000000	99.088237
1618.000000	99.099554
1617.000000	99.120908
1616.000000	99.144336
1615.000000	99.165053
1614.000000	99.183795
1613.000000	99.196816
1612.000000	99.203933
1611.000000	99.211992
1610.000000	99.225232
1609.000000	99.237758
1608.000000	99.244193
1607.000000	99.249162
1606.000000	99.257421
1605.000000	99.265660
1604.000000	99.270091
1603.000000	99.271601
1602.000000	99.270136
1601.000000	99.262217
1600.000000	99.249129
1599.000000	99.239079
1598.000000	99.235732
1597.000000	99.233302
1596.000000	99.226189
1595.000000	99.216041
1594.000000	99.205570
1593.000000	99.192162
1592.000000	99.174841
1591.000000	99.159259
1590.000000	99.148275
1589.000000	99.134463
1588.000000	99.110236
1587.000000	99.078277
1586.000000	99.044499
1585.000000	99.008206
1584.000000	98.968159
1583.000000	98.929440
1582.000000	98.897066
1581.000000	98.868727
1580.000000	98.840650
1579.000000	98.814762
1578.000000	98.796084
1577.000000	98.788879
1576.000000	98.796925
1575.000000	98.818631
1574.000000	98.844041
1573.000000	98.862794
1572.000000	98.875259
1571.000000	98.893504
1570.000000	98.927877
1569.000000	98.964591
1568.000000	98.986726
1567.000000	99.000435
1566.000000	99.012243
1565.000000	99.018472
1564.000000	99.016352
1563.000000	99.010647
1562.000000	99.004820
1561.000000	98.998032
1560.000000	98.992411
1559.000000	98.984359
1558.000000	98.969068
1557.000000	98.937581
1556.000000	98.908035
1555.000000	98.883096
1554.000000	98.858864
1553.000000	98.831687
1552.000000	98.800080
1551.000000	98.761056
1550.000000	98.710404
1549.000000	98.645897
1548.000000	98.572661
1547.000000	98.495062
1546.000000	98.409051
1545.000000	98.308609
1544.000000	98.199091
1543.000000	98.094517
1542.000000	98.001760
1541.000000	97.928180
1540.000000	97.898308
1539.000000	97.906754
1538.000000	97.913404
1537.000000	97.908495
1536.000000	97.896614
1535.000000	97.890178
1534.000000	97.900050
1533.000000	97.915066
1532.000000	97.911903
1531.000000	97.889837
1530.000000	97.859592
1529.000000	97.824388
1528.000000	97.782460
1527.000000	97.733287
1526.000000	97.677470
1525.000000	97.617696
1524.000000	97.557697
1523.000000	97.498471
1522.000000	97.438072
1521.000000	97.377665
1520.000000	97.320407
1519.000000	97.268429
1518.000000	97.213295
1517.000000	97.143288
1516.000000	97.058805
1515.000000	96.969552
1514.000000	96.878910
1513.000000	96.787217
1512.000000	96.703249
1511.000000	96.636549
1510.000000	96.581362
1509.000000	96.521449
1508.000000	96.450191
1507.000000	96.378043
1506.000000	96.292944
1505.000000	96.184681
1504.000000	96.088155
1503.000000	96.004150
1502.000000	95.919337
1501.000000	95.828102
1500.000000	95.736555
1499.000000	95.651161
1498.000000	95.563904
1497.000000	95.466277
1496.000000	95.370624
1495.000000	95.290636
1494.000000	95.218327
1493.000000	95.140035
1492.000000	95.055352
1491.000000	94.975128
1490.000000	94.902815
1489.000000	94.829751
1488.000000	94.749448
1487.000000	94.663652
1486.000000	94.575929
1485.000000	94.485678
1484.000000	94.394921
1483.000000	94.308694
1482.000000	94.225913
1481.000000	94.140659
1480.000000	94.052406
1479.000000	93.966690
1478.000000	93.884987
1477.000000	93.800981
1476.000000	93.707619
1475.000000	93.604428
1474.000000	93.498495
1473.000000	93.403255
1472.000000	93.327296
1471.000000	93.255521
1470.000000	93.173564
1469.000000	93.082233
1468.000000	92.990030
1467.000000	92.905773
1466.000000	92.833626
1465.000000	92.772907
1464.000000	92.718737
1463.000000	92.662011
1462.000000	92.594833
1461.000000	92.514627
1460.000000	92.425291
1459.000000	92.336263
1458.000000	92.261386
1457.000000	92.214652
1456.000000	92.180919
1455.000000	92.132976
1454.000000	92.063171
1453.000000	91.978689
1452.000000	91.896165
1451.000000	91.826527
1450.000000	91.765500
1449.000000	91.707012
1448.000000	91.653871
1447.000000	91.604846
1446.000000	91.546360
1445.000000	91.473607
1444.000000	91.398451
1443.000000	91.334001
1442.000000	91.279320
1441.000000	91.221879
1440.000000	91.153553
1439.000000	91.078197
1438.000000	91.010072
1437.000000	90.967348
1436.000000	90.947656
1435.000000	90.919007
1434.000000	90.859697
1433.000000	90.775773
1432.000000	90.687160
1431.000000	90.610012
1430.000000	90.541393
1429.000000	90.468283
1428.000000	90.388519
1427.000000	90.307882
1426.000000	90.227568
1425.000000	90.147500
1424.000000	90.071075
1423.000000	89.993875
1422.000000	89.901336
1421.000000	89.792172
1420.000000	89.691002
1419.000000	89.621991
1418.000000	89.560404
1417.000000	89.470782
1416.000000	89.359858
1415.000000	89.245465
1414.000000	89.129631
1413.000000	89.009222
1412.000000	88.892384
1411.000000	88.788141
1410.000000	88.685808
1409.000000	88.569026
1408.000000	88.443367
1407.000000	88.328738
1406.000000	88.233612
1405.000000	88.153201
1404.000000	88.085466
1403.000000	88.026703
1402.000000	87.964075
1401.000000	87.892913
1400.000000	87.828825
1399.000000	87.785313
1398.000000	87.743987
1397.000000	87.684866
1396.000000	87.627324
1395.000000	87.604651
1394.000000	87.609598
1393.000000	87.612097
1392.000000	87.615876
1391.000000	87.642703
1390.000000	87.699864
1389.000000	87.790692
1388.000000	87.932898
1387.000000	88.129985
1386.000000	88.338849
1385.000000	88.522258
1384.000000	88.696712
1383.000000	88.892099
1382.000000	89.107068
1381.000000	89.322895
1380.000000	89.538564
1379.000000	89.762152
1378.000000	89.984533
1377.000000	90.195010
1376.000000	90.410968
1375.000000	90.660071
1374.000000	90.932422
1373.000000	91.184160
1372.000000	91.397447
1371.000000	91.591730
1370.000000	91.787445
1369.000000	91.990285
1368.000000	92.195618
1367.000000	92.391445
1366.000000	92.568555
1365.000000	92.737209
1364.000000	92.923533
1363.000000	93.138632
1362.000000	93.356214
1361.000000	93.543401
1360.000000	93.700254
1359.000000	93.843024
1358.000000	93.979136
1357.000000	94.111237
1356.000000	94.243737
1355.000000	94.373935
1354.000000	94.490738
1353.000000	94.591922
1352.000000	94.689564
1351.000000	94.791429
1350.000000	94.891150
1349.000000	94.979903
1348.000000	95.058912
1347.000000	95.133204
1346.000000	95.203282
1345.000000	95.269106
1344.000000	95.333484
1343.000000	95.396501
1342.000000	95.455569
1341.000000	95.513631
1340.000000	95.578282
1339.000000	95.647633
1338.000000	95.708034
1337.000000	95.755323
1336.000000	95.800857
1335.000000	95.852558
1334.000000	95.906739
1333.000000	95.959670
1332.000000	96.014605
1331.000000	96.073560
1330.000000	96.132172
1329.000000	96.186867
1328.000000	96.239275
1327.000000	96.290020
1326.000000	96.336188
1325.000000	96.377029
1324.000000	96.416484
1323.000000	96.455774
1322.000000	96.491089
1321.000000	96.521432
1320.000000	96.551731
1319.000000	96.585221
1318.000000	96.619241
1317.000000	96.652270
1316.000000	96.687198
1315.000000	96.724777
1314.000000	96.761597
1313.000000	96.797327
1312.000000	96.836119
1311.000000	96.878241
1310.000000	96.917929
1309.000000	96.952197
1308.000000	96.984764
1307.000000	97.019156
1306.000000	97.054405
1305.000000	97.088616
1304.000000	97.122162
1303.000000	97.154255
1302.000000	97.182294
1301.000000	97.206502
1300.000000	97.230683
1299.000000	97.257250
1298.000000	97.285863
1297.000000	97.316479
1296.000000	97.348271
1295.000000	97.376401
1294.000000	97.396059
1293.000000	97.409210
1292.000000	97.421335
1291.000000	97.432665
1290.000000	97.439253
1289.000000	97.442153
1288.000000	97.447447
1287.000000	97.456854
1286.000000	97.465848
1285.000000	97.472498
1284.000000	97.480705
1283.000000	97.492628
1282.000000	97.504368
1281.000000	97.511417
1280.000000	97.513942
1279.000000	97.515612
1278.000000	97.520926
1277.000000	97.533608
1276.000000	97.552893
1275.000000	97.571944
1274.000000	97.584518
1273.000000	97.592633
1272.000000	97.603018
1271.000000	97.616937
1270.000000	97.629284
1269.000000	97.636946
1268.000000	97.641549
1267.000000	97.644348
1266.000000	97.644959
1265.000000	97.645878
1264.000000	97.651713
1263.000000	97.662438
1262.000000	97.672543
1261.000000	97.678141
1260.000000	97.680370
1259.000000	97.682036
1258.000000	97.685100
1257.000000	97.690964
1256.000000	97.698081
1255.000000	97.700272
1254.000000	97.693099
1253.000000	97.681386
1252.000000	97.674619
1251.000000	97.675490
1250.000000	97.678187
1249.000000	97.677063
1248.000000	97.671296
1247.000000	97.661408
1246.000000	97.647816
1245.000000	97.633878
1244.000000	97.624339
1243.000000	97.619278
1242.000000	97.614680
1241.000000	97.609724
1240.000000	97.607813
1239.000000	97.609662
1238.000000	97.611136
1237.000000	97.609749
1236.000000	97.607819
1235.000000	97.607670
1234.000000	97.609137
1233.000000	97.613577
1232.000000	97.625216
1231.000000	97.645493
1230.000000	97.670227
1229.000000	97.695381
1228.000000	97.721790
1227.000000	97.751949
1226.000000	97.785460
1225.000000	97.819874
1224.000000	97.853411
1223.000000	97.885042
1222.000000	97.914341
1221.000000	97.942295
1220.000000	97.970318
1219.000000	97.998212
1218.000000	98.024982
1217.000000	98.050661
1216.000000	98.074544
1215.000000	98.093252
1214.000000	98.104280
1213.000000	98.110671
1212.000000	98.117964
1211.000000	98.127015
1210.000000	98.133899
1209.000000	98.135910
1208.000000	98.133518
1207.000000	98.127200
1206.000000	98.117373
1205.000000	98.107382
1204.000000	98.101671
1203.000000	98.100652
1202.000000	98.101339
1201.000000	98.103319
1200.000000	98.109822
1199.000000	98.122456
1198.000000	98.138689
1197.000000	98.155587
1196.000000	98.172523
1195.000000	98.189071
1194.000000	98.203621
1193.000000	98.215015
1192.000000	98.223419
1191.000000	98.229452
1190.000000	98.234648
1189.000000	98.241835
1188.000000	98.251966
1187.000000	98.261057
1186.000000	98.263357
1185.000000	98.257791
1184.000000	98.248491
1183.000000	98.239882
1182.000000	98.234055
1181.000000	98.231673
1180.000000	98.232007
1179.000000	98.232396
1178.000000	98.230834
1177.000000	98.228719
1176.000000	98.228310
1175.000000	98.228301
1174.000000	98.224700
1173.000000	98.215480
1172.000000	98.202259
1171.000000	98.188350
1170.000000	98.177291
1169.000000	98.171633
1168.000000	98.170359
1167.000000	98.168731
1166.000000	98.163300
1165.000000	98.155921
1164.000000	98.150532
1163.000000	98.148057
1162.000000	98.147220
1161.000000	98.148405
1160.000000	98.153009
1159.000000	98.160494
1158.000000	98.169225
1157.000000	98.178714
1156.000000	98.188628
1155.000000	98.197742
1154.000000	98.206902
1153.000000	98.220232
1152.000000	98.239459
1151.000000	98.259781
1150.000000	98.275859
1149.000000	98.289460
1148.000000	98.306223
1147.000000	98.326926
1146.000000	98.347272
1145.000000	98.364601
1144.000000	98.379463
1143.000000	98.391648
1142.000000	98.400050
1141.000000	98.406164
1140.000000	98.413362
1139.000000	98.422941
1138.000000	98.434086
1137.000000	98.446556
1136.000000	98.459784
1135.000000	98.471046
1134.000000	98.478627
1133.000000	98.485131
1132.000000	98.493519
1131.000000	98.501501
1130.000000	98.504261
1129.000000	98.501418
1128.000000	98.496848
1127.000000	98.493121
1126.000000	98.490425
1125.000000	98.489331
1124.000000	98.490000
1123.000000	98.489883
1122.000000	98.486766
1121.000000	98.482914
1120.000000	98.481446
1119.000000	98.480027
1118.000000	98.473184
1117.000000	98.460374
1116.000000	98.446774
1115.000000	98.436341
1114.000000	98.428639
1113.000000	98.422228
1112.000000	98.416687
1111.000000	98.410922
1110.000000	98.403712
1109.000000	98.396462
1108.000000	98.392578
1107.000000	98.393342
1106.000000	98.397271
1105.000000	98.402855
1104.000000	98.408645
1103.000000	98.411322
1102.000000	98.407635
1101.000000	98.398398
1100.000000	98.388857
1099.000000	98.382649
1098.000000	98.379750
1097.000000	98.377281
1096.000000	98.371651
1095.000000	98.361484
1094.000000	98.350423
1093.000000	98.344471
1092.000000	98.344197
1091.000000	98.342619
1090.000000	98.333119
1089.000000	98.316233
1088.000000	98.295289
1087.000000	98.270019
1086.000000	98.239901
1085.000000	98.210646
1084.000000	98.190962
1083.000000	98.183158
1082.000000	98.181099
1081.000000	98.176950
1080.000000	98.167263
1079.000000	98.154513
1078.000000	98.146230
1077.000000	98.150362
1076.000000	98.167059
1075.000000	98.187150
1074.000000	98.202483
1073.000000	98.214810
1072.000000	98.229688
1071.000000	98.245230
1070.000000	98.253814
1069.000000	98.253516
1068.000000	98.250800
1067.000000	98.251675
1066.000000	98.255696
1065.000000	98.259123
1064.000000	98.259540
1063.000000	98.256738
1062.000000	98.252690
1061.000000	98.250974
1060.000000	98.253724
1059.000000	98.259715
1058.000000	98.267344
1057.000000	98.277250
1056.000000	98.289141
1055.000000	98.298831
1054.000000	98.302759
1053.000000	98.303246
1052.000000	98.305222
1051.000000	98.309647
1050.000000	98.314456
1049.000000	98.319673
1048.000000	98.326713
1047.000000	98.334823
1046.000000	98.342799
1045.000000	98.351696
1044.000000	98.361099
1043.000000	98.365804
1042.000000	98.361550
1041.000000	98.352305
1040.000000	98.346259
1039.000000	98.345913
1038.000000	98.346916
1037.000000	98.345309
1036.000000	98.340970
1035.000000	98.334624
1034.000000	98.326689
1033.000000	98.319189
1032.000000	98.315209
1031.000000	98.316385
1030.000000	98.323086
1029.000000	98.335342
1028.000000	98.350729
1027.000000	98.363652
1026.000000	98.370699
1025.000000	98.374933
1024.000000	98.382375
1023.000000	98.396377
1022.000000	98.417794
1021.000000	98.446230
1020.000000	98.477082
1019.000000	98.501657
1018.000000	98.515559
1017.000000	98.523653
1016.000000	98.532206
1015.000000	98.541121
1014.000000	98.549435
1013.000000	98.562908
1012.000000	98.587442
1011.000000	98.618452
1010.000000	98.645519
1009.000000	98.666140
1008.000000	98.686611
1007.000000	98.709840
1006.000000	98.730831
1005.000000	98.745005
1004.000000	98.754415
1003.000000	98.764210
1002.000000	98.777972
1001.000000	98.797102
1000.000000	98.820193
999.000000	98.842783
998.000000	98.861944
997.000000	98.880616
996.000000	98.903252
995.000000	98.928231
994.000000	98.949429
993.000000	98.965008
992.000000	98.979755
991.000000	98.998992
990.000000	99.023875
989.000000	99.051994
988.000000	99.078896
987.000000	99.100106
986.000000	99.115152
985.000000	99.128246
984.000000	99.141565
983.000000	99.151065
982.000000	99.153667
981.000000	99.154982
980.000000	99.163545
979.000000	99.178870
978.000000	99.191806
977.000000	99.195888
976.000000	99.192923
975.000000	99.188438
974.000000	99.187077
973.000000	99.191587
972.000000	99.200618
971.000000	99.207842
970.000000	99.208621
969.000000	99.206901
968.000000	99.210392
967.000000	99.220137
966.000000	99.230529
965.000000	99.239216
964.000000	99.250391
963.000000	99.267595
962.000000	99.288584
961.000000	99.308557
960.000000	99.324599
959.000000	99.336640
958.000000	99.348095
957.000000	99.364708
956.000000	99.388443
955.000000	99.413378
954.000000	99.432178
953.000000	99.444885
952.000000	99.456377
951.000000	99.466862
950.000000	99.472074
949.000000	99.472419
948.000000	99.474654
947.000000	99.483009
946.000000	99.494010
945.000000	99.501951
944.000000	99.504967
943.000000	99.505033
942.000000	99.506026
941.000000	99.512044
940.000000	99.523410
939.000000	99.534419
938.000000	99.539389
937.000000	99.541062
936.000000	99.548008
935.000000	99.563761
934.000000	99.583225
933.000000	99.599812
932.000000	99.611045
931.000000	99.616371
930.000000	99.615332
929.000000	99.610079
928.000000	99.605818
927.000000	99.606561
926.000000	99.612664
925.000000	99.622693
924.000000	99.634915
923.000000	99.646943
922.000000	99.656976
921.000000	99.665441
920.000000	99.673490
919.000000	99.681291
918.000000	99.690420
917.000000	99.704961
916.000000	99.725599
915.000000	99.744910
914.000000	99.754111
913.000000	99.753625
912.000000	99.751236
911.000000	99.751040
910.000000	99.750094
909.000000	99.745788
908.000000	99.740628
907.000000	99.738574
906.000000	99.741492
905.000000	99.749841
904.000000	99.762611
903.000000	99.775989
902.000000	99.786013
901.000000	99.792916
900.000000	99.800291
899.000000	99.810799
898.000000	99.826098
897.000000	99.847679
896.000000	99.873061
895.000000	99.893438
894.000000	99.901698
893.000000	99.902014
892.000000	99.905996
891.000000	99.920316
890.000000	99.941609
889.000000	99.959649
888.000000	99.959236
887.000000	99.920146
886.000000	99.823313
885.000000	99.654428
884.000000	99.394891
883.000000	99.016705
882.000000	98.490965
881.000000	97.801420
880.000000	96.942956
879.000000	95.919214
878.000000	94.757991
877.000000	93.516466
876.000000	92.260780
875.000000	91.056038
874.000000	90.026842
873.000000	89.421147
872.000000	89.549832
871.000000	90.556191
870.000000	92.223211
869.000000	94.065605
868.000000	95.635131
867.000000	96.749496
866.000000	97.471849
865.000000	97.943543
864.000000	98.266248
863.000000	98.496196
862.000000	98.672116
861.000000	98.819546
860.000000	98.945150
859.000000	99.045238
858.000000	99.121238
857.000000	99.179829
856.000000	99.225842
855.000000	99.262968
854.000000	99.297088
853.000000	99.330149
852.000000	99.350158
851.000000	99.337915
850.000000	99.290815
849.000000	99.236560
848.000000	99.216195
847.000000	99.250474
846.000000	99.324662
845.000000	99.406210
844.000000	99.472663
843.000000	99.521740
842.000000	99.561052
841.000000	99.595514
840.000000	99.624708
839.000000	99.646509
838.000000	99.660485
837.000000	99.669506
836.000000	99.679223
835.000000	99.694224
834.000000	99.713296
833.000000	99.730479
832.000000	99.742701
831.000000	99.754433
830.000000	99.771985
829.000000	99.793726
828.000000	99.809702
827.000000	99.812859
826.000000	99.807686
825.000000	99.804648
824.000000	99.807566
823.000000	99.810540
822.000000	99.807776
821.000000	99.802404
820.000000	99.803374
819.000000	99.815665
818.000000	99.835499
817.000000	99.854122
816.000000	99.864659
815.000000	99.866413
814.000000	99.864367
813.000000	99.864308
812.000000	99.867208
811.000000	99.868075
810.000000	99.861305
809.000000	99.847909
808.000000	99.837202
807.000000	99.840267
806.000000	99.860375
805.000000	99.888645
804.000000	99.909703
803.000000	99.913357
802.000000	99.901680
801.000000	99.885192
800.000000	99.872765
799.000000	99.865630
798.000000	99.859738
797.000000	99.851870
796.000000	99.843193
795.000000	99.838373
794.000000	99.841212
793.000000	99.850240
792.000000	99.859217
791.000000	99.863300
790.000000	99.863986
789.000000	99.866008
788.000000	99.869963
787.000000	99.870954
786.000000	99.865269
785.000000	99.855524
784.000000	99.847250
783.000000	99.842227
782.000000	99.837507
781.000000	99.830795
780.000000	99.824690
779.000000	99.823989
778.000000	99.828914
777.000000	99.832953
776.000000	99.829703
775.000000	99.821313
774.000000	99.816668
773.000000	99.820051
772.000000	99.825272
771.000000	99.823782
770.000000	99.815232
769.000000	99.805708
768.000000	99.798141
767.000000	99.790716
766.000000	99.784354
765.000000	99.785033
764.000000	99.796155
763.000000	99.812950
762.000000	99.827513
761.000000	99.836859
760.000000	99.843521
759.000000	99.850078
758.000000	99.855855
757.000000	99.858712
756.000000	99.858790
755.000000	99.860459
754.000000	99.869419
753.000000	99.886419
752.000000	99.905034
751.000000	99.917291
750.000000	99.919956
749.000000	99.913572
748.000000	99.898608
747.000000	99.877065
746.000000	99.856182
745.000000	99.844760
744.000000	99.844653
743.000000	99.849771
742.000000	99.853966
741.000000	99.856361
740.000000	99.859520
739.000000	99.866172
738.000000	99.876329
737.000000	99.883165
736.000000	99.874249
735.000000	99.843793
734.000000	99.803160
733.000000	99.771332
732.000000	99.754440
731.000000	99.741727
730.000000	99.722068
729.000000	99.695805
728.000000	99.670784
727.000000	99.653929
726.000000	99.646269
725.000000	99.641282
724.000000	99.626285
723.000000	99.589824
722.000000	99.529150
721.000000	99.449194
720.000000	99.353569
719.000000	99.235251
718.000000	99.074335
717.000000	98.842180
716.000000	98.517010
715.000000	98.119247
714.000000	97.738965
713.000000	97.505027
712.000000	97.501532
711.000000	97.706961
710.000000	98.017541
709.000000	98.324247
708.000000	98.568263
707.000000	98.743109
706.000000	98.864309
705.000000	98.947926
704.000000	99.008119
703.000000	99.057358
702.000000	99.103762
701.000000	99.148942
700.000000	99.188110
699.000000	99.217081
698.000000	99.236750
697.000000	99.251802
696.000000	99.268088
695.000000	99.289025
694.000000	99.316458
693.000000	99.349429
692.000000	99.381499
691.000000	99.408892
690.000000	99.434196
689.000000	99.458106
688.000000	99.472582
687.000000	99.470179
686.000000	99.461283
685.000000	99.464211
684.000000	99.478117
683.000000	99.485727
682.000000	99.480340
681.000000	99.469421
680.000000	99.452118
679.000000	99.420456
678.000000	99.384961
677.000000	99.364097
676.000000	99.363170
675.000000	99.369169
674.000000	99.378274
673.000000	99.406649
672.000000	99.468125
671.000000	99.561154
670.000000	99.680029
669.000000	99.815322
668.000000	99.905953
667.000000	99.830498
666.000000	99.666662
665.000000	99.509953
664.000000	99.389712
663.000000	99.326787
662.000000	99.315181
661.000000	99.323877
660.000000	99.331460
659.000000	99.341162
658.000000	99.354922
657.000000	99.353306
656.000000	99.331928
655.000000	99.314035
654.000000	99.315624
653.000000	99.324585
652.000000	99.328988
651.000000	99.334210
650.000000	99.342943
649.000000	99.342588
648.000000	99.327712
647.000000	99.311275
646.000000	99.301556
645.000000	99.293393
644.000000	99.285594
643.000000	99.284919
642.000000	99.291578
641.000000	99.295417
640.000000	99.294506
639.000000	99.301240
638.000000	99.320173
637.000000	99.337982
636.000000	99.343831
635.000000	99.340241
634.000000	99.330064
633.000000	99.310265
632.000000	99.284033
631.000000	99.265010
630.000000	99.261430
629.000000	99.266588
628.000000	99.272152
627.000000	99.278910
626.000000	99.287422
625.000000	99.293703
624.000000	99.295426
623.000000	99.291535
622.000000	99.275635
621.000000	99.242175
620.000000	99.200910
619.000000	99.171357
618.000000	99.161037
617.000000	99.159178
616.000000	99.153742
615.000000	99.144771
614.000000	99.137628
613.000000	99.135318
612.000000	99.142280
611.000000	99.161323
610.000000	99.183112
609.000000	99.192301
608.000000	99.188637
607.000000	99.189643
606.000000	99.205087
605.000000	99.226321
604.000000	99.242852
603.000000	99.254404
602.000000	99.262022
601.000000	99.261794
600.000000	99.254798
599.000000	99.251497
598.000000	99.255717
597.000000	99.256473
596.000000	99.246869
595.000000	99.238267
594.000000	99.242994
593.000000	99.250999
592.000000	99.240642
591.000000	99.210281
590.000000	99.183398
589.000000	99.180414
588.000000	99.199619
587.000000	99.225219
586.000000	99.241085
585.000000	99.238399
584.000000	99.219140
583.000000	99.195190
582.000000	99.179430
581.000000	99.177180
580.000000	99.185799
579.000000	99.199498
578.000000	99.209937
577.000000	99.209098
576.000000	99.198500
575.000000	99.190342
574.000000	99.192598
573.000000	99.197427
572.000000	99.191860
571.000000	99.173293
570.000000	99.151486
569.000000	99.137589
568.000000	99.135668
567.000000	99.140156
566.000000	99.137714
565.000000	99.118733
564.000000	99.090073
563.000000	99.070741
562.000000	99.070034
561.000000	99.079197
560.000000	99.089478
559.000000	99.105757
558.000000	99.132339
557.000000	99.157336
556.000000	99.163038
555.000000	99.147095
554.000000	99.123286
553.000000	99.103580
552.000000	99.089821
551.000000	99.080705
550.000000	99.077650
549.000000	99.083494
548.000000	99.102469
547.000000	99.137246
546.000000	99.178582
545.000000	99.203960
544.000000	99.198652
543.000000	99.174281
542.000000	99.157438
541.000000	99.160730
540.000000	99.171704
539.000000	99.170860
538.000000	99.150933
537.000000	99.117227
536.000000	99.077664
535.000000	99.042624
534.000000	99.027949
533.000000	99.045244
532.000000	99.082852
531.000000	99.107628
530.000000	99.097663
529.000000	99.068935
528.000000	99.054988
527.000000	99.066268
526.000000	99.080272
525.000000	99.075995
524.000000	99.061885
523.000000	99.051799
522.000000	99.041330
521.000000	99.029733
520.000000	99.043198
519.000000	99.107195
518.000000	99.198568
517.000000	99.260350
516.000000	99.273820
515.000000	99.273283
514.000000	99.288397
513.000000	99.312707
512.000000	99.331357
511.000000	99.348728
510.000000	99.375151
509.000000	99.405284
508.000000	99.423624
507.000000	99.425255
506.000000	99.414551
505.000000	99.390591
504.000000	99.350876
503.000000	99.304960
502.000000	99.274869
501.000000	99.277130
500.000000	99.310458
499.000000	99.364496
498.000000	99.423010
497.000000	99.464055
496.000000	99.472824
495.000000	99.453155
494.000000	99.421425
493.000000	99.388913
492.000000	99.354767
491.000000	99.320045
490.000000	99.298136
489.000000	99.308557
488.000000	99.355928
487.000000	99.415794
486.000000	99.446924
485.000000	99.430138
484.000000	99.395944
483.000000	99.393860
482.000000	99.430766
481.000000	99.461977
480.000000	99.446969
479.000000	99.392738
478.000000	99.338836
477.000000	99.318601
476.000000	99.342490
475.000000	99.406452
474.000000	99.493368
473.000000	99.569310
472.000000	99.595431
471.000000	99.558592
470.000000	99.479333
469.000000	99.398693
468.000000	99.362705
467.000000	99.391465
466.000000	99.450148
465.000000	99.487266
464.000000	99.499428
463.000000	99.518143
462.000000	99.546555
461.000000	99.552551
460.000000	99.537408
459.000000	99.557620
458.000000	99.646573
457.000000	99.743573
456.000000	99.780442
455.000000	99.783966
454.000000	99.812949
453.000000	99.874260
452.000000	99.922321
451.000000	99.921952
450.000000	99.882338
