PE IR       SUBTECH     SPECTRUM    ASCII       PEDS        4.00        
   -1
AD10-F011_1.ASC
23/09/08
10:55:18.00
23/09/08
11:14:38.00
uco
Sample 011 By uco Date Friday, September 08 2023
450.000000
#HDR
-1
-1
#GR
cm-1
%T
1.0
0.0
4000.000000
-1.000000
3551
8
100.324637
94.703539
#DATA
4000.000000	100.083418
3999.000000	100.084359
3998.000000	100.085082
3997.000000	100.085572
3996.000000	100.086462
3995.000000	100.088097
3994.000000	100.090125
3993.000000	100.091501
3992.000000	100.091105
3991.000000	100.088457
3990.000000	100.084169
3989.000000	100.079674
3988.000000	100.076427
3987.000000	100.075072
3986.000000	100.075246
3985.000000	100.076162
3984.000000	100.077283
3983.000000	100.078401
3982.000000	100.079242
3981.000000	100.079298
3980.000000	100.078145
3979.000000	100.075758
3978.000000	100.072456
3977.000000	100.068683
3976.000000	100.065005
3975.000000	100.062219
3974.000000	100.061052
3973.000000	100.061675
3972.000000	100.063426
3971.000000	100.065012
3970.000000	100.065075
3969.000000	100.062866
3968.000000	100.059047
3967.000000	100.055759
3966.000000	100.055358
3965.000000	100.058506
3964.000000	100.063204
3963.000000	100.066074
3962.000000	100.065178
3961.000000	100.061799
3960.000000	100.059156
3959.000000	100.059581
3958.000000	100.062818
3957.000000	100.066480
3956.000000	100.068031
3955.000000	100.066167
3954.000000	100.061271
3953.000000	100.054905
3952.000000	100.048832
3951.000000	100.044425
3950.000000	100.042165
3949.000000	100.041631
3948.000000	100.041997
3947.000000	100.042986
3946.000000	100.045649
3945.000000	100.051072
3944.000000	100.058225
3943.000000	100.063778
3942.000000	100.064279
3941.000000	100.059147
3940.000000	100.051034
3939.000000	100.043475
3938.000000	100.038772
3937.000000	100.037470
3936.000000	100.038838
3935.000000	100.040923
3934.000000	100.041181
3933.000000	100.038511
3932.000000	100.034533
3931.000000	100.032231
3930.000000	100.032587
3929.000000	100.034113
3928.000000	100.035343
3927.000000	100.035681
3926.000000	100.035076
3925.000000	100.033827
3924.000000	100.032761
3923.000000	100.032412
3922.000000	100.031950
3921.000000	100.029671
3920.000000	100.025535
3919.000000	100.022661
3918.000000	100.025120
3917.000000	100.033111
3916.000000	100.041775
3915.000000	100.046119
3914.000000	100.045119
3913.000000	100.041294
3912.000000	100.037788
3911.000000	100.036443
3910.000000	100.037433
3909.000000	100.039678
3908.000000	100.042085
3907.000000	100.043134
3906.000000	100.040450
3905.000000	100.032017
3904.000000	100.019616
3903.000000	100.009717
3902.000000	100.008042
3901.000000	100.013860
3900.000000	100.021253
3899.000000	100.024687
3898.000000	100.023412
3897.000000	100.020479
3896.000000	100.018234
3895.000000	100.017116
3894.000000	100.017313
3893.000000	100.019470
3892.000000	100.023296
3891.000000	100.025913
3890.000000	100.024698
3889.000000	100.020974
3888.000000	100.017497
3887.000000	100.013844
3886.000000	100.008355
3885.000000	100.003230
3884.000000	100.004346
3883.000000	100.015122
3882.000000	100.032526
3881.000000	100.048127
3880.000000	100.053428
3879.000000	100.046509
3878.000000	100.034073
3877.000000	100.024813
3876.000000	100.022361
3875.000000	100.024236
3874.000000	100.025894
3873.000000	100.026109
3872.000000	100.027069
3871.000000	100.029293
3870.000000	100.029264
3869.000000	100.024812
3868.000000	100.019868
3867.000000	100.019419
3866.000000	100.022735
3865.000000	100.024932
3864.000000	100.023506
3863.000000	100.019993
3862.000000	100.016128
3861.000000	100.012110
3860.000000	100.008137
3859.000000	100.003406
3858.000000	99.996855
3857.000000	99.988898
3856.000000	99.982815
3855.000000	99.980349
3854.000000	99.976893
3853.000000	99.973017
3852.000000	99.975009
3851.000000	99.983624
3850.000000	99.994741
3849.000000	100.004396
3848.000000	100.011157
3847.000000	100.016099
3846.000000	100.020065
3845.000000	100.022621
3844.000000	100.022226
3843.000000	100.016661
3842.000000	100.004856
3841.000000	99.989410
3840.000000	99.976228
3839.000000	99.971223
3838.000000	99.976692
3837.000000	99.989240
3836.000000	100.004070
3835.000000	100.019009
3834.000000	100.033481
3833.000000	100.045771
3832.000000	100.052466
3831.000000	100.050958
3830.000000	100.043176
3829.000000	100.034506
3828.000000	100.029226
3827.000000	100.027167
3826.000000	100.024779
3825.000000	100.020237
3824.000000	100.015563
3823.000000	100.013492
3822.000000	100.013364
3821.000000	100.012765
3820.000000	100.010113
3819.000000	100.004957
3818.000000	99.998694
3817.000000	99.991162
3816.000000	99.982736
3815.000000	99.977775
3814.000000	99.981113
3813.000000	99.991539
3812.000000	100.002288
3811.000000	100.008550
3810.000000	100.011272
3809.000000	100.014200
3808.000000	100.017583
3807.000000	100.017529
3806.000000	100.012343
3805.000000	100.006399
3804.000000	100.004752
3803.000000	100.007917
3802.000000	100.011563
3801.000000	100.011757
3800.000000	100.009942
3799.000000	100.011252
3798.000000	100.016520
3797.000000	100.021669
3796.000000	100.023097
3795.000000	100.021609
3794.000000	100.020542
3793.000000	100.021304
3792.000000	100.022322
3791.000000	100.022033
3790.000000	100.020519
3789.000000	100.018708
3788.000000	100.017468
3787.000000	100.017277
3786.000000	100.018195
3785.000000	100.019853
3784.000000	100.021655
3783.000000	100.023398
3782.000000	100.024993
3781.000000	100.024996
3780.000000	100.021306
3779.000000	100.014527
3778.000000	100.008737
3777.000000	100.008263
3776.000000	100.014012
3775.000000	100.022603
3774.000000	100.029197
3773.000000	100.030928
3772.000000	100.027465
3771.000000	100.019901
3770.000000	100.011096
3769.000000	100.004787
3768.000000	100.003361
3767.000000	100.006127
3766.000000	100.010113
3765.000000	100.012155
3764.000000	100.011456
3763.000000	100.009905
3762.000000	100.008948
3761.000000	100.007383
3760.000000	100.003570
3759.000000	99.997915
3758.000000	99.990912
3757.000000	99.982069
3756.000000	99.972799
3755.000000	99.966450
3754.000000	99.964140
3753.000000	99.962072
3752.000000	99.955478
3751.000000	99.946280
3750.000000	99.940820
3749.000000	99.940283
3748.000000	99.943578
3747.000000	99.952590
3746.000000	99.968818
3745.000000	99.986841
3744.000000	99.997461
3743.000000	100.000974
3742.000000	100.004879
3741.000000	100.010000
3740.000000	100.013168
3739.000000	100.014247
3738.000000	100.015224
3737.000000	100.014593
3736.000000	100.011785
3735.000000	100.012704
3734.000000	100.020527
3733.000000	100.029358
3732.000000	100.031910
3731.000000	100.026987
3730.000000	100.018447
3729.000000	100.010178
3728.000000	100.003972
3727.000000	100.000029
3726.000000	99.998064
3725.000000	99.997806
3724.000000	99.998752
3723.000000	100.000739
3722.000000	100.003739
3721.000000	100.007939
3720.000000	100.012858
3719.000000	100.016368
3718.000000	100.015749
3717.000000	100.010175
3716.000000	100.002983
3715.000000	99.998496
3714.000000	99.995879
3713.000000	99.989106
3712.000000	99.976360
3711.000000	99.968035
3710.000000	99.975652
3709.000000	99.997338
3708.000000	100.022515
3707.000000	100.041743
3706.000000	100.051183
3705.000000	100.052999
3704.000000	100.052084
3703.000000	100.051968
3702.000000	100.052614
3701.000000	100.050845
3700.000000	100.044276
3699.000000	100.034441
3698.000000	100.024835
3697.000000	100.017397
3696.000000	100.011924
3695.000000	100.007248
3694.000000	100.001980
3693.000000	99.995913
3692.000000	99.991123
3691.000000	99.991534
3690.000000	99.998694
3689.000000	100.007550
3688.000000	100.010986
3687.000000	100.009355
3686.000000	100.008928
3685.000000	100.011926
3684.000000	100.015458
3683.000000	100.016916
3682.000000	100.016669
3681.000000	100.014839
3680.000000	100.009012
3679.000000	99.998017
3678.000000	99.985699
3677.000000	99.978885
3676.000000	99.980904
3675.000000	99.987388
3674.000000	99.988818
3673.000000	99.984965
3672.000000	99.982326
3671.000000	99.985756
3670.000000	99.997277
3669.000000	100.014587
3668.000000	100.031031
3667.000000	100.042134
3666.000000	100.046788
3665.000000	100.045558
3664.000000	100.040255
3663.000000	100.033553
3662.000000	100.027338
3661.000000	100.021780
3660.000000	100.016872
3659.000000	100.013476
3658.000000	100.012162
3657.000000	100.011978
3656.000000	100.011659
3655.000000	100.012431
3654.000000	100.017085
3653.000000	100.026478
3652.000000	100.036949
3651.000000	100.042245
3650.000000	100.040577
3649.000000	100.038278
3648.000000	100.038652
3647.000000	100.037069
3646.000000	100.031195
3645.000000	100.023764
3644.000000	100.017377
3643.000000	100.012088
3642.000000	100.007541
3641.000000	100.004859
3640.000000	100.005852
3639.000000	100.010254
3638.000000	100.015445
3637.000000	100.019503
3636.000000	100.022510
3635.000000	100.024502
3634.000000	100.023963
3633.000000	100.020242
3632.000000	100.015557
3631.000000	100.013381
3630.000000	100.014927
3629.000000	100.020061
3628.000000	100.026924
3627.000000	100.031500
3626.000000	100.034183
3625.000000	100.036684
3624.000000	100.040214
3623.000000	100.046734
3622.000000	100.058383
3621.000000	100.074986
3620.000000	100.092347
3619.000000	100.103133
3618.000000	100.101402
3617.000000	100.087897
3616.000000	100.069545
3615.000000	100.053114
3614.000000	100.040737
3613.000000	100.030378
3612.000000	100.019645
3611.000000	100.009505
3610.000000	100.003260
3609.000000	100.004159
3608.000000	100.013041
3607.000000	100.026022
3606.000000	100.036931
3605.000000	100.041997
3604.000000	100.041750
3603.000000	100.038810
3602.000000	100.035722
3601.000000	100.034086
3600.000000	100.034284
3599.000000	100.035596
3598.000000	100.036151
3597.000000	100.033816
3596.000000	100.028142
3595.000000	100.022682
3594.000000	100.022774
3593.000000	100.030741
3592.000000	100.043072
3591.000000	100.054001
3590.000000	100.058929
3589.000000	100.056404
3588.000000	100.049759
3587.000000	100.045501
3586.000000	100.045448
3585.000000	100.046697
3584.000000	100.047211
3583.000000	100.046259
3582.000000	100.043460
3581.000000	100.039227
3580.000000	100.034598
3579.000000	100.030783
3578.000000	100.028193
3577.000000	100.026518
3576.000000	100.025172
3575.000000	100.024314
3574.000000	100.024793
3573.000000	100.026953
3572.000000	100.030090
3571.000000	100.033137
3570.000000	100.035671
3569.000000	100.037352
3568.000000	100.038372
3567.000000	100.039693
3566.000000	100.040268
3565.000000	100.037132
3564.000000	100.031108
3563.000000	100.026593
3562.000000	100.027595
3561.000000	100.035266
3560.000000	100.047163
3559.000000	100.058364
3558.000000	100.064838
3557.000000	100.065645
3556.000000	100.062382
3555.000000	100.057092
3554.000000	100.051328
3553.000000	100.046370
3552.000000	100.043178
3551.000000	100.041320
3550.000000	100.039139
3549.000000	100.035571
3548.000000	100.031739
3547.000000	100.031056
3546.000000	100.036531
3545.000000	100.046794
3544.000000	100.056503
3543.000000	100.061445
3542.000000	100.061460
3541.000000	100.059147
3540.000000	100.057360
3539.000000	100.057368
3538.000000	100.058386
3537.000000	100.058245
3536.000000	100.055345
3535.000000	100.050380
3534.000000	100.045941
3533.000000	100.044497
3532.000000	100.046433
3531.000000	100.050036
3530.000000	100.052650
3529.000000	100.052270
3528.000000	100.048791
3527.000000	100.044574
3526.000000	100.043369
3525.000000	100.047866
3524.000000	100.057296
3523.000000	100.067278
3522.000000	100.072989
3521.000000	100.073026
3520.000000	100.069902
3519.000000	100.066685
3518.000000	100.064073
3517.000000	100.060825
3516.000000	100.056228
3515.000000	100.051352
3514.000000	100.047583
3513.000000	100.045006
3512.000000	100.042881
3511.000000	100.041576
3510.000000	100.042946
3509.000000	100.047966
3508.000000	100.054548
3507.000000	100.058843
3506.000000	100.058649
3505.000000	100.054910
3504.000000	100.050915
3503.000000	100.049714
3502.000000	100.051466
3501.000000	100.053654
3500.000000	100.053989
3499.000000	100.052671
3498.000000	100.052026
3497.000000	100.054380
3496.000000	100.059403
3495.000000	100.063736
3494.000000	100.064019
3493.000000	100.060557
3492.000000	100.057083
3491.000000	100.056589
3490.000000	100.058071
3489.000000	100.058143
3488.000000	100.055503
3487.000000	100.052599
3486.000000	100.052539
3485.000000	100.055567
3484.000000	100.059538
3483.000000	100.063093
3482.000000	100.067075
3481.000000	100.072378
3480.000000	100.077528
3479.000000	100.079615
3478.000000	100.077390
3477.000000	100.072404
3476.000000	100.067209
3475.000000	100.063017
3474.000000	100.059543
3473.000000	100.056800
3472.000000	100.056124
3471.000000	100.058973
3470.000000	100.065058
3469.000000	100.072130
3468.000000	100.077609
3467.000000	100.080464
3466.000000	100.081887
3465.000000	100.084178
3464.000000	100.088540
3463.000000	100.093534
3462.000000	100.095837
3461.000000	100.093017
3460.000000	100.085649
3459.000000	100.076759
3458.000000	100.069541
3457.000000	100.065749
3456.000000	100.065651
3455.000000	100.068446
3454.000000	100.072364
3453.000000	100.075244
3452.000000	100.075759
3451.000000	100.074456
3450.000000	100.073079
3449.000000	100.073051
3448.000000	100.074943
3447.000000	100.078849
3446.000000	100.083952
3445.000000	100.087919
3444.000000	100.088082
3443.000000	100.084018
3442.000000	100.078701
3441.000000	100.076087
3440.000000	100.077373
3439.000000	100.080125
3438.000000	100.080999
3437.000000	100.078817
3436.000000	100.075074
3435.000000	100.072108
3434.000000	100.070953
3433.000000	100.070916
3432.000000	100.070925
3431.000000	100.071280
3430.000000	100.073535
3429.000000	100.078608
3428.000000	100.085434
3427.000000	100.091742
3426.000000	100.095624
3425.000000	100.095990
3424.000000	100.092300
3423.000000	100.084968
3422.000000	100.076123
3421.000000	100.068994
3420.000000	100.065676
3419.000000	100.065558
3418.000000	100.066217
3417.000000	100.065553
3416.000000	100.062912
3415.000000	100.058831
3414.000000	100.054264
3413.000000	100.050118
3412.000000	100.047291
3411.000000	100.046737
3410.000000	100.049134
3409.000000	100.054270
3408.000000	100.060836
3407.000000	100.067032
3406.000000	100.071637
3405.000000	100.074537
3404.000000	100.076235
3403.000000	100.076782
3402.000000	100.075296
3401.000000	100.070906
3400.000000	100.064212
3399.000000	100.057715
3398.000000	100.054449
3397.000000	100.055727
3396.000000	100.060061
3395.000000	100.064475
3394.000000	100.067068
3393.000000	100.068222
3392.000000	100.069209
3391.000000	100.070045
3390.000000	100.069577
3389.000000	100.067616
3388.000000	100.065775
3387.000000	100.065509
3386.000000	100.065908
3385.000000	100.064425
3384.000000	100.059665
3383.000000	100.052677
3382.000000	100.045635
3381.000000	100.040197
3380.000000	100.037062
3379.000000	100.036047
3378.000000	100.036052
3377.000000	100.035681
3376.000000	100.034364
3375.000000	100.032551
3374.000000	100.030705
3373.000000	100.028672
3372.000000	100.026277
3371.000000	100.023869
3370.000000	100.021813
3369.000000	100.019945
3368.000000	100.018232
3367.000000	100.017608
3366.000000	100.019296
3365.000000	100.023082
3364.000000	100.026917
3363.000000	100.028579
3362.000000	100.027565
3361.000000	100.025148
3360.000000	100.022684
3359.000000	100.020103
3358.000000	100.016330
3357.000000	100.011177
3356.000000	100.006335
3355.000000	100.003901
3354.000000	100.004074
3353.000000	100.005100
3352.000000	100.005747
3351.000000	100.006917
3350.000000	100.009989
3349.000000	100.014087
3348.000000	100.016162
3347.000000	100.014026
3346.000000	100.008757
3345.000000	100.003775
3344.000000	100.001724
3343.000000	100.002332
3342.000000	100.002852
3341.000000	100.000329
3340.000000	99.993832
3339.000000	99.985058
3338.000000	99.977088
3337.000000	99.972406
3336.000000	99.971566
3335.000000	99.973127
3334.000000	99.974664
3333.000000	99.974395
3332.000000	99.972464
3331.000000	99.970750
3330.000000	99.971002
3329.000000	99.973127
3328.000000	99.975549
3327.000000	99.977080
3326.000000	99.977869
3325.000000	99.978488
3324.000000	99.978707
3323.000000	99.977693
3322.000000	99.975169
3321.000000	99.972083
3320.000000	99.970147
3319.000000	99.970586
3318.000000	99.972816
3317.000000	99.974266
3316.000000	99.972077
3315.000000	99.965628
3314.000000	99.957304
3313.000000	99.950436
3312.000000	99.946556
3311.000000	99.944867
3310.000000	99.944055
3309.000000	99.944125
3308.000000	99.946301
3307.000000	99.951281
3306.000000	99.957626
3305.000000	99.961735
3304.000000	99.959799
3303.000000	99.950542
3302.000000	99.936521
3301.000000	99.922559
3300.000000	99.912602
3299.000000	99.907893
3298.000000	99.907667
3297.000000	99.910954
3296.000000	99.917413
3295.000000	99.926754
3294.000000	99.937811
3293.000000	99.948493
3292.000000	99.956526
3291.000000	99.960291
3290.000000	99.959137
3289.000000	99.953343
3288.000000	99.944222
3287.000000	99.934313
3286.000000	99.926836
3285.000000	99.924120
3284.000000	99.926149
3283.000000	99.930607
3282.000000	99.934586
3281.000000	99.936414
3280.000000	99.936144
3279.000000	99.934754
3278.000000	99.933158
3277.000000	99.931693
3276.000000	99.930025
3275.000000	99.927448
3274.000000	99.923553
3273.000000	99.918743
3272.000000	99.913984
3271.000000	99.909983
3270.000000	99.906762
3269.000000	99.904078
3268.000000	99.901956
3267.000000	99.900650
3266.000000	99.900382
3265.000000	99.901502
3264.000000	99.904580
3263.000000	99.909631
3262.000000	99.915232
3261.000000	99.919080
3260.000000	99.920026
3259.000000	99.919237
3258.000000	99.918929
3257.000000	99.920001
3256.000000	99.921242
3255.000000	99.920825
3254.000000	99.918295
3253.000000	99.915005
3252.000000	99.912903
3251.000000	99.913083
3250.000000	99.915087
3249.000000	99.917209
3248.000000	99.917514
3247.000000	99.915016
3246.000000	99.910343
3245.000000	99.905311
3244.000000	99.901533
3243.000000	99.899234
3242.000000	99.897467
3241.000000	99.895613
3240.000000	99.894721
3239.000000	99.896944
3238.000000	99.903229
3237.000000	99.911458
3236.000000	99.917332
3235.000000	99.917662
3234.000000	99.912768
3233.000000	99.905595
3232.000000	99.898825
3231.000000	99.893358
3230.000000	99.889404
3229.000000	99.887867
3228.000000	99.889806
3227.000000	99.894682
3226.000000	99.899962
3225.000000	99.902894
3224.000000	99.902543
3223.000000	99.900208
3222.000000	99.898063
3221.000000	99.897489
3220.000000	99.898264
3219.000000	99.898850
3218.000000	99.897564
3217.000000	99.893833
3216.000000	99.888858
3215.000000	99.885267
3214.000000	99.885524
3213.000000	99.889820
3212.000000	99.895275
3211.000000	99.897787
3210.000000	99.895400
3209.000000	99.889947
3208.000000	99.885375
3207.000000	99.884404
3206.000000	99.886741
3205.000000	99.890017
3204.000000	99.891945
3203.000000	99.891894
3202.000000	99.890888
3201.000000	99.890315
3200.000000	99.890662
3199.000000	99.891427
3198.000000	99.892050
3197.000000	99.892282
3196.000000	99.891678
3195.000000	99.889601
3194.000000	99.886271
3193.000000	99.883077
3192.000000	99.880976
3191.000000	99.878984
3190.000000	99.875324
3189.000000	99.870048
3188.000000	99.865656
3187.000000	99.864826
3186.000000	99.868086
3185.000000	99.873406
3184.000000	99.877528
3183.000000	99.877906
3182.000000	99.874640
3181.000000	99.870804
3180.000000	99.869826
3179.000000	99.872117
3178.000000	99.874809
3177.000000	99.875322
3176.000000	99.874214
3175.000000	99.873944
3174.000000	99.875705
3173.000000	99.878508
3172.000000	99.880611
3171.000000	99.880814
3170.000000	99.878661
3169.000000	99.874793
3168.000000	99.871400
3167.000000	99.871245
3166.000000	99.875358
3165.000000	99.881571
3164.000000	99.885753
3163.000000	99.884819
3162.000000	99.879248
3161.000000	99.872967
3160.000000	99.870344
3159.000000	99.872437
3158.000000	99.875966
3157.000000	99.876556
3156.000000	99.873164
3155.000000	99.869019
3154.000000	99.868046
3153.000000	99.871006
3152.000000	99.875398
3151.000000	99.878455
3150.000000	99.879174
3149.000000	99.877640
3148.000000	99.873703
3147.000000	99.867406
3146.000000	99.860299
3145.000000	99.855241
3144.000000	99.854400
3143.000000	99.857590
3142.000000	99.862760
3141.000000	99.867792
3140.000000	99.871659
3139.000000	99.874279
3138.000000	99.876010
3137.000000	99.877363
3136.000000	99.878638
3135.000000	99.879405
3134.000000	99.878634
3133.000000	99.875804
3132.000000	99.872020
3131.000000	99.869780
3130.000000	99.871221
3129.000000	99.876111
3128.000000	99.881480
3127.000000	99.883819
3126.000000	99.882170
3125.000000	99.878737
3124.000000	99.876206
3123.000000	99.874856
3122.000000	99.872923
3121.000000	99.869308
3120.000000	99.864999
3119.000000	99.861771
3118.000000	99.860556
3117.000000	99.861475
3116.000000	99.864371
3115.000000	99.868220
3114.000000	99.870518
3113.000000	99.868580
3112.000000	99.861957
3111.000000	99.853251
3110.000000	99.846204
3109.000000	99.843091
3108.000000	99.843691
3107.000000	99.846189
3106.000000	99.848412
3105.000000	99.848711
3104.000000	99.846678
3103.000000	99.843588
3102.000000	99.841618
3101.000000	99.842014
3100.000000	99.843996
3099.000000	99.845676
3098.000000	99.845890
3097.000000	99.844967
3096.000000	99.844096
3095.000000	99.844497
3094.000000	99.846937
3093.000000	99.851197
3092.000000	99.855526
3091.000000	99.857175
3090.000000	99.854360
3089.000000	99.847943
3088.000000	99.840930
3087.000000	99.836199
3086.000000	99.834800
3085.000000	99.836110
3084.000000	99.838996
3083.000000	99.842450
3082.000000	99.845460
3081.000000	99.846848
3080.000000	99.845797
3079.000000	99.842756
3078.000000	99.839646
3077.000000	99.838548
3076.000000	99.839687
3075.000000	99.840876
3074.000000	99.839408
3073.000000	99.834775
3072.000000	99.829449
3071.000000	99.826991
3070.000000	99.829279
3069.000000	99.835079
3068.000000	99.840877
3067.000000	99.843234
3066.000000	99.841042
3065.000000	99.835972
3064.000000	99.830854
3063.000000	99.827684
3062.000000	99.826942
3061.000000	99.827984
3060.000000	99.829432
3059.000000	99.829704
3058.000000	99.828342
3057.000000	99.826965
3056.000000	99.827858
3055.000000	99.831239
3054.000000	99.834644
3053.000000	99.835597
3052.000000	99.834129
3051.000000	99.832189
3050.000000	99.831328
3049.000000	99.831639
3048.000000	99.832467
3047.000000	99.833047
3046.000000	99.832600
3045.000000	99.830711
3044.000000	99.827891
3043.000000	99.825343
3042.000000	99.824215
3041.000000	99.825300
3040.000000	99.829152
3039.000000	99.835481
3038.000000	99.842296
3037.000000	99.846296
3036.000000	99.844892
3035.000000	99.838251
3034.000000	99.829576
3033.000000	99.823172
3032.000000	99.821509
3031.000000	99.823475
3030.000000	99.825739
3029.000000	99.826137
3028.000000	99.825187
3027.000000	99.824092
3026.000000	99.822237
3025.000000	99.817824
3024.000000	99.810706
3023.000000	99.803467
3022.000000	99.799494
3021.000000	99.800667
3020.000000	99.806776
3019.000000	99.815919
3018.000000	99.824888
3017.000000	99.830171
3016.000000	99.829834
3015.000000	99.824649
3014.000000	99.817286
3013.000000	99.810544
3012.000000	99.806229
3011.000000	99.804641
3010.000000	99.804509
3009.000000	99.803808
3008.000000	99.801385
3007.000000	99.797863
3006.000000	99.794750
3005.000000	99.792908
3004.000000	99.792115
3003.000000	99.791812
3002.000000	99.791747
3001.000000	99.791917
3000.000000	99.792348
2999.000000	99.793112
2998.000000	99.794326
2997.000000	99.796000
2996.000000	99.797934
2995.000000	99.799795
2994.000000	99.801200
2993.000000	99.801573
2992.000000	99.799919
2991.000000	99.795092
2990.000000	99.786808
2989.000000	99.776601
2988.000000	99.767375
2987.000000	99.761433
2986.000000	99.758758
2985.000000	99.757152
2984.000000	99.753769
2983.000000	99.746769
2982.000000	99.736419
2981.000000	99.725424
2980.000000	99.717426
2979.000000	99.714070
2978.000000	99.713284
2977.000000	99.711223
2976.000000	99.705791
2975.000000	99.697657
2974.000000	99.688045
2973.000000	99.676939
2972.000000	99.664063
2971.000000	99.650403
2970.000000	99.637579
2969.000000	99.626063
2968.000000	99.615103
2967.000000	99.604221
2966.000000	99.593799
2965.000000	99.583930
2964.000000	99.573584
2963.000000	99.561593
2962.000000	99.548119
2961.000000	99.534556
2960.000000	99.521904
2959.000000	99.509676
2958.000000	99.496669
2957.000000	99.482616
2956.000000	99.468904
2955.000000	99.457739
2954.000000	99.450746
2953.000000	99.448252
2952.000000	99.449336
2951.000000	99.452264
2950.000000	99.454878
2949.000000	99.455033
2948.000000	99.451149
2947.000000	99.442934
2946.000000	99.431841
2945.000000	99.420331
2944.000000	99.409872
2943.000000	99.399293
2942.000000	99.385608
2941.000000	99.366745
2940.000000	99.343141
2939.000000	99.316609
2938.000000	99.288317
2937.000000	99.258395
2936.000000	99.226706
2935.000000	99.193072
2934.000000	99.157076
2933.000000	99.118545
2932.000000	99.078233
2931.000000	99.037277
2930.000000	98.996053
2929.000000	98.954209
2928.000000	98.911743
2927.000000	98.869482
2926.000000	98.828662
2925.000000	98.791042
2924.000000	98.759141
2923.000000	98.735151
2922.000000	98.719077
2921.000000	98.708967
2920.000000	98.703847
2919.000000	98.705767
2918.000000	98.718552
2917.000000	98.744985
2916.000000	98.785476
2915.000000	98.838482
2914.000000	98.900804
2913.000000	98.967678
2912.000000	99.033504
2911.000000	99.093366
2910.000000	99.143945
2909.000000	99.183895
2908.000000	99.214330
2907.000000	99.238872
2906.000000	99.262067
2905.000000	99.286749
2904.000000	99.312713
2903.000000	99.337677
2902.000000	99.359097
2901.000000	99.375664
2900.000000	99.387622
2899.000000	99.397310
2898.000000	99.408104
2897.000000	99.421962
2896.000000	99.437678
2895.000000	99.451939
2894.000000	99.462446
2893.000000	99.469755
2892.000000	99.476275
2891.000000	99.484134
2890.000000	99.494155
2889.000000	99.506040
2888.000000	99.518459
2887.000000	99.529299
2886.000000	99.537091
2885.000000	99.542640
2884.000000	99.548370
2883.000000	99.555247
2882.000000	99.560953
2881.000000	99.562033
2880.000000	99.557805
2879.000000	99.551359
2878.000000	99.546712
2877.000000	99.545569
2876.000000	99.546623
2875.000000	99.547021
2874.000000	99.544135
2873.000000	99.536901
2872.000000	99.526599
2871.000000	99.516328
2870.000000	99.509073
2869.000000	99.505602
2868.000000	99.504025
2867.000000	99.501108
2866.000000	99.494250
2865.000000	99.482794
2864.000000	99.467834
2863.000000	99.450722
2862.000000	99.431614
2861.000000	99.409382
2860.000000	99.382688
2859.000000	99.350711
2858.000000	99.313232
2857.000000	99.271026
2856.000000	99.226559
2855.000000	99.183550
2854.000000	99.145330
2853.000000	99.113844
2852.000000	99.090716
2851.000000	99.078939
2850.000000	99.082500
2849.000000	99.104109
2848.000000	99.143177
2847.000000	99.195983
2846.000000	99.257417
2845.000000	99.322622
2844.000000	99.387124
2843.000000	99.446372
2842.000000	99.496155
2841.000000	99.534334
2840.000000	99.562339
2839.000000	99.584129
2838.000000	99.603310
2837.000000	99.621357
2836.000000	99.638278
2835.000000	99.653977
2834.000000	99.668289
2833.000000	99.680466
2832.000000	99.689774
2831.000000	99.696632
2830.000000	99.702341
2829.000000	99.707566
2828.000000	99.711646
2827.000000	99.713603
2826.000000	99.713476
2825.000000	99.712491
2824.000000	99.712436
2823.000000	99.715119
2822.000000	99.721796
2821.000000	99.732041
2820.000000	99.742866
2819.000000	99.749824
2818.000000	99.750357
2817.000000	99.746630
2816.000000	99.744316
2815.000000	99.747555
2814.000000	99.754842
2813.000000	99.760542
2812.000000	99.760434
2811.000000	99.755243
2810.000000	99.748827
2809.000000	99.744175
2808.000000	99.742075
2807.000000	99.742705
2806.000000	99.746599
2805.000000	99.753486
2804.000000	99.761103
2803.000000	99.766268
2802.000000	99.767305
2801.000000	99.765293
2800.000000	99.762917
2799.000000	99.762108
2798.000000	99.762599
2797.000000	99.762677
2796.000000	99.761165
2795.000000	99.758494
2794.000000	99.755934
2793.000000	99.754410
2792.000000	99.754312
2791.000000	99.755812
2790.000000	99.758562
2789.000000	99.761359
2788.000000	99.763013
2787.000000	99.763642
2786.000000	99.764318
2785.000000	99.765302
2784.000000	99.765491
2783.000000	99.764161
2782.000000	99.762475
2781.000000	99.762381
2780.000000	99.764252
2779.000000	99.766409
2778.000000	99.766961
2777.000000	99.765570
2776.000000	99.763515
2775.000000	99.762636
2774.000000	99.764181
2773.000000	99.767947
2772.000000	99.772171
2771.000000	99.774814
2770.000000	99.775385
2769.000000	99.775264
2768.000000	99.776028
2767.000000	99.777837
2766.000000	99.779755
2765.000000	99.781124
2764.000000	99.781993
2763.000000	99.782476
2762.000000	99.782395
2761.000000	99.781627
2760.000000	99.780271
2759.000000	99.778533
2758.000000	99.777033
2757.000000	99.777097
2756.000000	99.779859
2755.000000	99.784659
2754.000000	99.789065
2753.000000	99.790984
2752.000000	99.790340
2751.000000	99.788257
2750.000000	99.785229
2749.000000	99.780931
2748.000000	99.775577
2747.000000	99.770610
2746.000000	99.767761
2745.000000	99.767709
2744.000000	99.769553
2743.000000	99.771326
2742.000000	99.771296
2741.000000	99.769309
2740.000000	99.766888
2739.000000	99.765866
2738.000000	99.767132
2737.000000	99.770776
2736.000000	99.776560
2735.000000	99.783272
2734.000000	99.788345
2733.000000	99.789703
2732.000000	99.788262
2731.000000	99.787282
2730.000000	99.788660
2729.000000	99.790839
2728.000000	99.791172
2727.000000	99.789516
2726.000000	99.788413
2725.000000	99.790076
2724.000000	99.794127
2723.000000	99.798303
2722.000000	99.800545
2721.000000	99.800102
2720.000000	99.797237
2719.000000	99.792644
2718.000000	99.787514
2717.000000	99.783888
2716.000000	99.783982
2715.000000	99.788235
2714.000000	99.794217
2713.000000	99.798437
2712.000000	99.799601
2711.000000	99.799405
2710.000000	99.799883
2709.000000	99.801043
2708.000000	99.801819
2707.000000	99.802328
2706.000000	99.803682
2705.000000	99.805688
2704.000000	99.806154
2703.000000	99.803215
2702.000000	99.797910
2701.000000	99.793948
2700.000000	99.794799
2699.000000	99.800667
2698.000000	99.807888
2697.000000	99.811410
2696.000000	99.808628
2695.000000	99.801262
2694.000000	99.793556
2693.000000	99.788946
2692.000000	99.788551
2691.000000	99.791887
2690.000000	99.797576
2689.000000	99.803162
2688.000000	99.805735
2687.000000	99.804082
2686.000000	99.800076
2685.000000	99.797165
2684.000000	99.797305
2683.000000	99.799547
2682.000000	99.801337
2681.000000	99.800767
2680.000000	99.797792
2679.000000	99.793947
2678.000000	99.791115
2677.000000	99.790209
2676.000000	99.790668
2675.000000	99.791173
2674.000000	99.790935
2673.000000	99.790351
2672.000000	99.790528
2671.000000	99.792210
2670.000000	99.794957
2669.000000	99.797228
2668.000000	99.797540
2667.000000	99.795906
2666.000000	99.793961
2665.000000	99.793183
2664.000000	99.793077
2663.000000	99.791728
2662.000000	99.788301
2661.000000	99.784084
2660.000000	99.780491
2659.000000	99.776871
2658.000000	99.771736
2657.000000	99.766075
2656.000000	99.763853
2655.000000	99.768096
2654.000000	99.777186
2653.000000	99.786103
2652.000000	99.790972
2651.000000	99.791573
2650.000000	99.789942
2649.000000	99.788200
2648.000000	99.788109
2647.000000	99.791061
2646.000000	99.796961
2645.000000	99.803459
2644.000000	99.807593
2643.000000	99.808448
2642.000000	99.807600
2641.000000	99.806918
2640.000000	99.806645
2639.000000	99.805884
2638.000000	99.804252
2637.000000	99.802381
2636.000000	99.801019
2635.000000	99.800340
2634.000000	99.800371
2633.000000	99.801616
2632.000000	99.804685
2631.000000	99.809260
2630.000000	99.813973
2629.000000	99.817721
2628.000000	99.820937
2627.000000	99.824962
2626.000000	99.830008
2625.000000	99.834190
2624.000000	99.835138
2623.000000	99.832581
2622.000000	99.829024
2621.000000	99.827708
2620.000000	99.829858
2619.000000	99.833842
2618.000000	99.836743
2617.000000	99.836689
2616.000000	99.833960
2615.000000	99.830463
2614.000000	99.828449
2613.000000	99.829169
2612.000000	99.831747
2611.000000	99.833139
2610.000000	99.830323
2609.000000	99.823637
2608.000000	99.817533
2607.000000	99.816685
2606.000000	99.820988
2605.000000	99.825518
2604.000000	99.826031
2603.000000	99.823783
2602.000000	99.823943
2601.000000	99.829608
2600.000000	99.838597
2599.000000	99.846179
2598.000000	99.849901
2597.000000	99.851166
2596.000000	99.852846
2595.000000	99.856474
2594.000000	99.861397
2593.000000	99.865316
2592.000000	99.865244
2591.000000	99.859375
2590.000000	99.849395
2589.000000	99.840504
2588.000000	99.837593
2587.000000	99.840921
2586.000000	99.846445
2585.000000	99.850439
2584.000000	99.852779
2583.000000	99.855575
2582.000000	99.860111
2581.000000	99.865896
2580.000000	99.871235
2579.000000	99.873646
2578.000000	99.871158
2577.000000	99.865078
2576.000000	99.860599
2575.000000	99.862557
2574.000000	99.870540
2573.000000	99.879622
2572.000000	99.885281
2571.000000	99.885950
2570.000000	99.881660
2569.000000	99.873589
2568.000000	99.865821
2567.000000	99.864359
2566.000000	99.871691
2565.000000	99.883344
2564.000000	99.891513
2563.000000	99.891811
2562.000000	99.885592
2561.000000	99.877296
2560.000000	99.871132
2559.000000	99.869275
2558.000000	99.870818
2557.000000	99.872195
2556.000000	99.870250
2555.000000	99.865439
2554.000000	99.861281
2553.000000	99.860641
2552.000000	99.863559
2551.000000	99.868551
2550.000000	99.874674
2549.000000	99.881477
2548.000000	99.887563
2547.000000	99.890134
2546.000000	99.886576
2545.000000	99.877075
2544.000000	99.865989
2543.000000	99.859736
2542.000000	99.861840
2541.000000	99.869434
2540.000000	99.875235
2539.000000	99.873834
2538.000000	99.866308
2537.000000	99.858860
2536.000000	99.856949
2535.000000	99.860518
2534.000000	99.864548
2533.000000	99.864176
2532.000000	99.859284
2531.000000	99.854251
2530.000000	99.853279
2529.000000	99.856417
2528.000000	99.859960
2527.000000	99.860095
2526.000000	99.855902
2525.000000	99.849583
2524.000000	99.844738
2523.000000	99.844231
2522.000000	99.848605
2521.000000	99.855630
2520.000000	99.861158
2519.000000	99.860968
2518.000000	99.853062
2517.000000	99.839608
2516.000000	99.826798
2515.000000	99.821394
2514.000000	99.825694
2513.000000	99.835520
2512.000000	99.843603
2511.000000	99.845307
2510.000000	99.840965
2509.000000	99.833415
2508.000000	99.824650
2507.000000	99.815716
2506.000000	99.809053
2505.000000	99.808815
2504.000000	99.817454
2503.000000	99.832192
2502.000000	99.846289
2501.000000	99.854587
2500.000000	99.857072
2499.000000	99.856663
2498.000000	99.854498
2497.000000	99.849250
2496.000000	99.840601
2495.000000	99.831424
2494.000000	99.825522
2493.000000	99.824169
2492.000000	99.825775
2491.000000	99.828334
2490.000000	99.831311
2489.000000	99.835587
2488.000000	99.841977
2487.000000	99.849257
2486.000000	99.853481
2485.000000	99.850597
2484.000000	99.841189
2483.000000	99.831811
2482.000000	99.829743
2481.000000	99.836532
2480.000000	99.847620
2479.000000	99.858109
2478.000000	99.866915
2477.000000	99.874839
2476.000000	99.881025
2475.000000	99.883341
2474.000000	99.881642
2473.000000	99.878823
2472.000000	99.878407
2471.000000	99.881796
2470.000000	99.887575
2469.000000	99.892383
2468.000000	99.892668
2467.000000	99.887290
2466.000000	99.879036
2465.000000	99.872697
2464.000000	99.870884
2463.000000	99.872555
2462.000000	99.875919
2461.000000	99.880955
2460.000000	99.887491
2459.000000	99.892078
2458.000000	99.889780
2457.000000	99.879966
2456.000000	99.868721
2455.000000	99.863964
2454.000000	99.868351
2453.000000	99.877255
2452.000000	99.883062
2451.000000	99.881170
2450.000000	99.873266
2449.000000	99.865912
2448.000000	99.865575
2447.000000	99.873658
2446.000000	99.885777
2445.000000	99.895670
2444.000000	99.899589
2443.000000	99.897472
2442.000000	99.891816
2441.000000	99.886698
2440.000000	99.886508
2439.000000	99.893023
2438.000000	99.903127
2437.000000	99.910828
2436.000000	99.912623
2435.000000	99.910302
2434.000000	99.907872
2433.000000	99.906502
2432.000000	99.903801
2431.000000	99.898204
2430.000000	99.892545
2429.000000	99.891817
2428.000000	99.897568
2427.000000	99.905924
2426.000000	99.911897
2425.000000	99.914572
2424.000000	99.916883
2423.000000	99.921015
2422.000000	99.925353
2421.000000	99.926139
2420.000000	99.921117
2419.000000	99.911527
2418.000000	99.901246
2417.000000	99.893884
2416.000000	99.890199
2415.000000	99.888808
2414.000000	99.889721
2413.000000	99.895406
2412.000000	99.906338
2411.000000	99.917013
2410.000000	99.920008
2409.000000	99.914377
2408.000000	99.907216
2407.000000	99.905828
2406.000000	99.910753
2405.000000	99.917322
2404.000000	99.921071
2403.000000	99.920170
2402.000000	99.915414
2401.000000	99.910405
2400.000000	99.909796
2399.000000	99.914643
2398.000000	99.920626
2397.000000	99.922918
2396.000000	99.921653
2395.000000	99.920675
2394.000000	99.922190
2393.000000	99.925036
2392.000000	99.927141
2391.000000	99.927524
2390.000000	99.926163
2389.000000	99.923969
2388.000000	99.923124
2387.000000	99.924981
2386.000000	99.928970
2385.000000	99.934024
2384.000000	99.940087
2383.000000	99.947396
2382.000000	99.953883
2381.000000	99.957330
2380.000000	99.957952
2379.000000	99.956893
2378.000000	99.953397
2377.000000	99.945625
2376.000000	99.934407
2375.000000	99.923544
2374.000000	99.918297
2373.000000	99.923682
2372.000000	99.941745
2371.000000	99.966804
2370.000000	99.987253
2369.000000	99.996091
2368.000000	99.993684
2367.000000	99.982478
2366.000000	99.964861
2365.000000	99.947679
2364.000000	99.939523
2363.000000	99.937965
2362.000000	99.932909
2361.000000	99.925222
2360.000000	99.926115
2359.000000	99.940324
2358.000000	99.959840
2357.000000	99.973304
2356.000000	99.974691
2355.000000	99.959508
2354.000000	99.940770
2353.000000	99.939249
2352.000000	99.959081
2351.000000	99.980136
2350.000000	99.982105
2349.000000	99.962518
2348.000000	99.935181
2347.000000	99.921712
2346.000000	99.931465
2345.000000	99.945236
2344.000000	99.938701
2343.000000	99.911635
2342.000000	99.886243
2341.000000	99.878803
2340.000000	99.885981
2339.000000	99.896007
2338.000000	99.903501
2337.000000	99.910206
2336.000000	99.913697
2335.000000	99.912540
2334.000000	99.911911
2333.000000	99.922146
2332.000000	99.938926
2331.000000	99.951746
2330.000000	99.950549
2329.000000	99.939140
2328.000000	99.919664
2327.000000	99.897292
2326.000000	99.877355
2325.000000	99.866958
2324.000000	99.868188
2323.000000	99.877795
2322.000000	99.886544
2321.000000	99.884510
2320.000000	99.866448
2319.000000	99.841168
2318.000000	99.820182
2317.000000	99.811824
2316.000000	99.813260
2315.000000	99.823155
2314.000000	99.838028
2313.000000	99.854709
2312.000000	99.865521
2311.000000	99.869743
2310.000000	99.870790
2309.000000	99.874125
2308.000000	99.879971
2307.000000	99.888479
2306.000000	99.898695
2305.000000	99.909022
2304.000000	99.916417
2303.000000	99.921969
2302.000000	99.928325
2301.000000	99.937054
2300.000000	99.944944
2299.000000	99.950087
2298.000000	99.950166
2297.000000	99.943954
2296.000000	99.929790
2295.000000	99.911992
2294.000000	99.897676
2293.000000	99.891788
2292.000000	99.892798
2291.000000	99.897293
2290.000000	99.902797
2289.000000	99.906165
2288.000000	99.903303
2287.000000	99.893302
2286.000000	99.881349
2285.000000	99.873582
2284.000000	99.872336
2283.000000	99.875668
2282.000000	99.881099
2281.000000	99.886329
2280.000000	99.889994
2279.000000	99.892551
2278.000000	99.895494
2277.000000	99.898168
2276.000000	99.896980
2275.000000	99.890402
2274.000000	99.882516
2273.000000	99.880114
2272.000000	99.885574
2271.000000	99.894504
2270.000000	99.899338
2269.000000	99.895645
2268.000000	99.886105
2267.000000	99.878823
2266.000000	99.879466
2265.000000	99.885125
2264.000000	99.888352
2263.000000	99.887768
2262.000000	99.890577
2261.000000	99.902165
2260.000000	99.917226
2259.000000	99.924546
2258.000000	99.919890
2257.000000	99.910066
2256.000000	99.904989
2255.000000	99.907974
2254.000000	99.914254
2253.000000	99.917108
2252.000000	99.913778
2251.000000	99.907120
2250.000000	99.902840
2249.000000	99.905981
2248.000000	99.917640
2247.000000	99.933831
2246.000000	99.947018
2245.000000	99.951507
2244.000000	99.948444
2243.000000	99.944266
2242.000000	99.943199
2241.000000	99.943079
2240.000000	99.939773
2239.000000	99.933593
2238.000000	99.928713
2237.000000	99.927398
2236.000000	99.927553
2235.000000	99.926367
2234.000000	99.924955
2233.000000	99.928351
2232.000000	99.939668
2231.000000	99.952927
2230.000000	99.953732
2229.000000	99.932636
2228.000000	99.899414
2227.000000	99.878990
2226.000000	99.889156
2225.000000	99.924509
2224.000000	99.964064
2223.000000	99.990604
2222.000000	99.998827
2221.000000	99.989901
2220.000000	99.965986
2219.000000	99.930769
2218.000000	99.892102
2217.000000	99.863782
2216.000000	99.862279
2215.000000	99.893968
2214.000000	99.942540
2213.000000	99.977051
2212.000000	99.980700
2211.000000	99.966548
2210.000000	99.956425
2209.000000	99.951261
2208.000000	99.934120
2207.000000	99.898281
2206.000000	99.858481
2205.000000	99.832895
2204.000000	99.826191
2203.000000	99.833202
2202.000000	99.848775
2201.000000	99.868323
2200.000000	99.886825
2199.000000	99.902929
2198.000000	99.918189
2197.000000	99.929231
2196.000000	99.927935
2195.000000	99.913639
2194.000000	99.897884
2193.000000	99.892047
2192.000000	99.894490
2191.000000	99.893846
2190.000000	99.879712
2189.000000	99.847479
2188.000000	99.800941
2187.000000	99.756359
2186.000000	99.737379
2185.000000	99.756411
2184.000000	99.801299
2183.000000	99.846861
2182.000000	99.878318
2181.000000	99.898403
2180.000000	99.915960
2179.000000	99.934355
2178.000000	99.949299
2177.000000	99.952040
2176.000000	99.936309
2175.000000	99.907452
2174.000000	99.882460
2173.000000	99.874987
2172.000000	99.880763
2171.000000	99.883005
2170.000000	99.870888
2169.000000	99.848239
2168.000000	99.825526
2167.000000	99.810064
2166.000000	99.807070
2165.000000	99.823749
2164.000000	99.864795
2163.000000	99.924019
2162.000000	99.984343
2161.000000	100.026040
2160.000000	100.035462
2159.000000	100.011135
2158.000000	99.967420
2157.000000	99.930804
2156.000000	99.923350
2155.000000	99.947072
2154.000000	99.985615
2153.000000	100.019202
2152.000000	100.037167
2151.000000	100.037613
2150.000000	100.020519
2149.000000	99.988916
2148.000000	99.955642
2147.000000	99.939507
2146.000000	99.950253
2145.000000	99.980164
2144.000000	100.012615
2143.000000	100.036018
2142.000000	100.047548
2141.000000	100.049176
2140.000000	100.045810
2139.000000	100.044905
2138.000000	100.051650
2137.000000	100.063059
2136.000000	100.068931
2135.000000	100.060788
2134.000000	100.040042
2133.000000	100.017279
2132.000000	100.003568
2131.000000	100.002408
2130.000000	100.010211
2129.000000	100.022942
2128.000000	100.039337
2127.000000	100.056825
2126.000000	100.067905
2125.000000	100.065194
2124.000000	100.049383
2123.000000	100.027686
2122.000000	100.005024
2121.000000	99.981798
2120.000000	99.960776
2119.000000	99.949536
2118.000000	99.952365
2117.000000	99.963716
2116.000000	99.973498
2115.000000	99.976693
2114.000000	99.974407
2113.000000	99.968914
2112.000000	99.962168
2111.000000	99.957128
2110.000000	99.955531
2109.000000	99.955037
2108.000000	99.952621
2107.000000	99.950441
2106.000000	99.954071
2105.000000	99.964932
2104.000000	99.978479
2103.000000	99.990113
2102.000000	99.998929
2101.000000	100.004424
2100.000000	100.003520
2099.000000	99.993459
2098.000000	99.976251
2097.000000	99.958866
2096.000000	99.948959
2095.000000	99.949744
2094.000000	99.957724
2093.000000	99.965562
2092.000000	99.968663
2091.000000	99.968732
2090.000000	99.969693
2089.000000	99.970861
2088.000000	99.966153
2087.000000	99.950840
2086.000000	99.927545
2085.000000	99.904830
2084.000000	99.890259
2083.000000	99.885263
2082.000000	99.886694
2081.000000	99.891727
2080.000000	99.899370
2079.000000	99.907669
2078.000000	99.913070
2077.000000	99.915446
2076.000000	99.920838
2075.000000	99.933769
2074.000000	99.947607
2073.000000	99.949175
2072.000000	99.935135
2071.000000	99.917331
2070.000000	99.908830
2069.000000	99.909723
2068.000000	99.910224
2067.000000	99.902946
2066.000000	99.887463
2065.000000	99.868386
2064.000000	99.855464
2063.000000	99.861971
2062.000000	99.895153
2061.000000	99.946553
2060.000000	99.994298
2059.000000	100.016783
2058.000000	100.004657
2057.000000	99.965529
2056.000000	99.922294
2055.000000	99.900421
2054.000000	99.907373
2053.000000	99.924753
2052.000000	99.927234
2051.000000	99.908646
2050.000000	99.885336
2049.000000	99.876514
2048.000000	99.886333
2047.000000	99.905699
2046.000000	99.925118
2045.000000	99.939270
2044.000000	99.944022
2043.000000	99.936298
2042.000000	99.917374
2041.000000	99.894781
2040.000000	99.879588
2039.000000	99.878695
2038.000000	99.888503
2037.000000	99.898506
2036.000000	99.903790
2035.000000	99.911424
2034.000000	99.930333
2033.000000	99.958662
2032.000000	99.986298
2031.000000	100.006238
2030.000000	100.017276
2029.000000	100.020616
2028.000000	100.020390
2027.000000	100.021814
2026.000000	100.023803
2025.000000	100.020367
2024.000000	100.015004
2023.000000	100.023784
2022.000000	100.054250
2021.000000	100.089261
2020.000000	100.104405
2019.000000	100.097392
2018.000000	100.088237
2017.000000	100.092897
2016.000000	100.105732
2015.000000	100.109324
2014.000000	100.091571
2013.000000	100.052497
2012.000000	100.005153
2011.000000	99.968854
2010.000000	99.954842
2009.000000	99.958615
2008.000000	99.969015
2007.000000	99.981946
2006.000000	99.998561
2005.000000	100.014719
2004.000000	100.023943
2003.000000	100.028569
2002.000000	100.037329
2001.000000	100.051301
2000.000000	100.059240
1999.000000	100.049227
1998.000000	100.021300
1997.000000	99.988665
1996.000000	99.967934
1995.000000	99.965854
1994.000000	99.973933
1993.000000	99.978161
1992.000000	99.976075
1991.000000	99.978703
1990.000000	99.991580
1989.000000	100.004147
1988.000000	100.005026
1987.000000	99.997673
1986.000000	99.990339
1985.000000	99.978151
1984.000000	99.949043
1983.000000	99.904988
1982.000000	99.864495
1981.000000	99.844147
1980.000000	99.848506
1979.000000	99.877978
1978.000000	99.930961
1977.000000	99.992220
1976.000000	100.036574
1975.000000	100.054830
1974.000000	100.061177
1973.000000	100.069148
1972.000000	100.073234
1971.000000	100.060676
1970.000000	100.033236
1969.000000	100.010324
1968.000000	100.011166
1967.000000	100.035275
1966.000000	100.063766
1965.000000	100.080249
1964.000000	100.084421
1963.000000	100.082174
1962.000000	100.069803
1961.000000	100.037979
1960.000000	99.991497
1959.000000	99.952974
1958.000000	99.941635
1957.000000	99.956880
1956.000000	99.986099
1955.000000	100.018930
1954.000000	100.046987
1953.000000	100.058740
1952.000000	100.046979
1951.000000	100.019862
1950.000000	99.996923
1949.000000	99.993531
1948.000000	100.012014
1947.000000	100.044343
1946.000000	100.077167
1945.000000	100.097128
1944.000000	100.099003
1943.000000	100.089399
1942.000000	100.078115
1941.000000	100.067497
1940.000000	100.056859
1939.000000	100.051647
1938.000000	100.058425
1937.000000	100.073187
1936.000000	100.082802
1935.000000	100.079749
1934.000000	100.068467
1933.000000	100.056428
1932.000000	100.045494
1931.000000	100.034652
1930.000000	100.026251
1929.000000	100.024369
1928.000000	100.030080
1927.000000	100.041770
1926.000000	100.056936
1925.000000	100.071461
1924.000000	100.079996
1923.000000	100.080902
1922.000000	100.078004
1921.000000	100.074017
1920.000000	100.065978
1919.000000	100.050929
1918.000000	100.033335
1917.000000	100.021401
1916.000000	100.016347
1915.000000	100.013520
1914.000000	100.010656
1913.000000	100.008698
1912.000000	100.006585
1911.000000	100.000948
1910.000000	99.993016
1909.000000	99.990442
1908.000000	99.997989
1907.000000	100.010587
1906.000000	100.018971
1905.000000	100.019192
1904.000000	100.014673
1903.000000	100.011219
1902.000000	100.011390
1901.000000	100.013056
1900.000000	100.012704
1899.000000	100.008796
1898.000000	100.001829
1897.000000	99.994072
1896.000000	99.989935
1895.000000	99.994729
1894.000000	100.009894
1893.000000	100.029043
1892.000000	100.041586
1891.000000	100.040856
1890.000000	100.029136
1889.000000	100.016343
1888.000000	100.011224
1887.000000	100.015364
1886.000000	100.025514
1885.000000	100.037502
1884.000000	100.047930
1883.000000	100.054094
1882.000000	100.053651
1881.000000	100.045657
1880.000000	100.033534
1879.000000	100.024527
1878.000000	100.023635
1877.000000	100.029548
1876.000000	100.037200
1875.000000	100.042701
1874.000000	100.043919
1873.000000	100.038685
1872.000000	100.026406
1871.000000	100.012069
1870.000000	100.005846
1869.000000	100.014962
1868.000000	100.033215
1867.000000	100.048181
1866.000000	100.057872
1865.000000	100.067280
1864.000000	100.078537
1863.000000	100.089313
1862.000000	100.095393
1861.000000	100.092971
1860.000000	100.080933
1859.000000	100.062711
1858.000000	100.045321
1857.000000	100.035131
1856.000000	100.034241
1855.000000	100.041568
1854.000000	100.054306
1853.000000	100.066803
1852.000000	100.072031
1851.000000	100.067406
1850.000000	100.057020
1849.000000	100.048156
1848.000000	100.045129
1847.000000	100.046663
1846.000000	100.049539
1845.000000	100.052395
1844.000000	100.055085
1843.000000	100.057493
1842.000000	100.061598
1841.000000	100.067969
1840.000000	100.073625
1839.000000	100.074740
1838.000000	100.069306
1837.000000	100.059815
1836.000000	100.052589
1835.000000	100.053087
1834.000000	100.061398
1833.000000	100.072773
1832.000000	100.082321
1831.000000	100.086521
1830.000000	100.082760
1829.000000	100.072677
1828.000000	100.062560
1827.000000	100.056295
1826.000000	100.052207
1825.000000	100.048265
1824.000000	100.045515
1823.000000	100.045909
1822.000000	100.049384
1821.000000	100.054353
1820.000000	100.059800
1819.000000	100.064753
1818.000000	100.068559
1817.000000	100.072868
1816.000000	100.080262
1815.000000	100.090653
1814.000000	100.100316
1813.000000	100.104377
1812.000000	100.100271
1811.000000	100.088643
1810.000000	100.073691
1809.000000	100.061449
1808.000000	100.054230
1807.000000	100.049490
1806.000000	100.043922
1805.000000	100.036036
1804.000000	100.025691
1803.000000	100.013421
1802.000000	100.000616
1801.000000	99.989659
1800.000000	99.981411
1799.000000	99.972946
1798.000000	99.963202
1797.000000	99.955640
1796.000000	99.952987
1795.000000	99.952634
1794.000000	99.948631
1793.000000	99.939900
1792.000000	99.935496
1791.000000	99.943853
1790.000000	99.962372
1789.000000	99.981883
1788.000000	99.994648
1787.000000	100.000334
1786.000000	100.005477
1785.000000	100.015792
1784.000000	100.029400
1783.000000	100.040234
1782.000000	100.043893
1781.000000	100.039807
1780.000000	100.031948
1779.000000	100.025388
1778.000000	100.023418
1777.000000	100.026777
1776.000000	100.034885
1775.000000	100.045862
1774.000000	100.055553
1773.000000	100.060443
1772.000000	100.063096
1771.000000	100.066937
1770.000000	100.069689
1769.000000	100.067497
1768.000000	100.060473
1767.000000	100.053967
1766.000000	100.052184
1765.000000	100.052687
1764.000000	100.049931
1763.000000	100.042230
1762.000000	100.032870
1761.000000	100.026266
1760.000000	100.025160
1759.000000	100.027636
1758.000000	100.028799
1757.000000	100.025106
1756.000000	100.018396
1755.000000	100.012238
1754.000000	100.003796
1753.000000	99.986430
1752.000000	99.960884
1751.000000	99.939165
1750.000000	99.930345
1749.000000	99.928849
1748.000000	99.926403
1747.000000	99.922351
1746.000000	99.917576
1745.000000	99.911097
1744.000000	99.904298
1743.000000	99.900189
1742.000000	99.897794
1741.000000	99.892639
1740.000000	99.884430
1739.000000	99.878307
1738.000000	99.875596
1737.000000	99.870759
1736.000000	99.859579
1735.000000	99.850518
1734.000000	99.861770
1733.000000	99.888814
1732.000000	99.916889
1731.000000	99.944765
1730.000000	99.972631
1729.000000	99.995985
1728.000000	100.011450
1727.000000	100.021489
1726.000000	100.028560
1725.000000	100.032534
1724.000000	100.034552
1723.000000	100.038583
1722.000000	100.046711
1721.000000	100.055192
1720.000000	100.058464
1719.000000	100.054464
1718.000000	100.046216
1717.000000	100.042753
1716.000000	100.044581
1715.000000	100.044735
1714.000000	100.042766
1713.000000	100.040370
1712.000000	100.037802
1711.000000	100.036694
1710.000000	100.039352
1709.000000	100.045280
1708.000000	100.051163
1707.000000	100.053661
1706.000000	100.052622
1705.000000	100.050471
1704.000000	100.046520
1703.000000	100.036769
1702.000000	100.017609
1701.000000	99.993439
1700.000000	99.975979
1699.000000	99.968536
1698.000000	99.969882
1697.000000	99.973181
1696.000000	99.974208
1695.000000	99.970874
1694.000000	99.969748
1693.000000	99.976320
1692.000000	99.983055
1691.000000	99.982201
1690.000000	99.971996
1689.000000	99.956110
1688.000000	99.940756
1687.000000	99.928144
1686.000000	99.916170
1685.000000	99.906890
1684.000000	99.906076
1683.000000	99.904026
1682.000000	99.898324
1681.000000	99.893491
1680.000000	99.888982
1679.000000	99.886163
1678.000000	99.884973
1677.000000	99.881406
1676.000000	99.873702
1675.000000	99.866499
1674.000000	99.863558
1673.000000	99.862038
1672.000000	99.855438
1671.000000	99.842308
1670.000000	99.832191
1669.000000	99.831803
1668.000000	99.834578
1667.000000	99.836008
1666.000000	99.834995
1665.000000	99.830283
1664.000000	99.822333
1663.000000	99.813587
1662.000000	99.805132
1661.000000	99.796081
1660.000000	99.787936
1659.000000	99.783506
1658.000000	99.783679
1657.000000	99.787130
1656.000000	99.791714
1655.000000	99.799678
1654.000000	99.818128
1653.000000	99.834897
1652.000000	99.814136
1651.000000	99.791897
1650.000000	99.786550
1649.000000	99.785723
1648.000000	99.783273
1647.000000	99.784020
1646.000000	99.788352
1645.000000	99.789626
1644.000000	99.790624
1643.000000	99.792177
1642.000000	99.792943
1641.000000	99.794528
1640.000000	99.799770
1639.000000	99.808516
1638.000000	99.818279
1637.000000	99.828365
1636.000000	99.839757
1635.000000	99.845870
1634.000000	99.841808
1633.000000	99.838727
1632.000000	99.839377
1631.000000	99.841035
1630.000000	99.843427
1629.000000	99.847189
1628.000000	99.851342
1627.000000	99.854602
1626.000000	99.856083
1625.000000	99.856298
1624.000000	99.859615
1623.000000	99.870952
1622.000000	99.886607
1621.000000	99.898343
1620.000000	99.904972
1619.000000	99.908656
1618.000000	99.910361
1617.000000	99.910280
1616.000000	99.909369
1615.000000	99.911879
1614.000000	99.919791
1613.000000	99.927131
1612.000000	99.930185
1611.000000	99.933559
1610.000000	99.942895
1609.000000	99.954686
1608.000000	99.961069
1607.000000	99.960805
1606.000000	99.957997
1605.000000	99.954760
1604.000000	99.951776
1603.000000	99.950295
1602.000000	99.949967
1601.000000	99.947780
1600.000000	99.942157
1599.000000	99.935282
1598.000000	99.929125
1597.000000	99.923768
1596.000000	99.920188
1595.000000	99.920033
1594.000000	99.921036
1593.000000	99.916656
1592.000000	99.904265
1591.000000	99.888910
1590.000000	99.875824
1589.000000	99.862977
1588.000000	99.845505
1587.000000	99.823418
1586.000000	99.800002
1585.000000	99.776080
1584.000000	99.751905
1583.000000	99.730361
1582.000000	99.712908
1581.000000	99.697021
1580.000000	99.681164
1579.000000	99.668306
1578.000000	99.661929
1577.000000	99.662814
1576.000000	99.669390
1575.000000	99.679448
1574.000000	99.692280
1573.000000	99.704575
1572.000000	99.713170
1571.000000	99.720935
1570.000000	99.734530
1569.000000	99.750684
1568.000000	99.762314
1567.000000	99.773593
1566.000000	99.787196
1565.000000	99.798358
1564.000000	99.802778
1563.000000	99.802942
1562.000000	99.802431
1561.000000	99.802280
1560.000000	99.802897
1559.000000	99.802299
1558.000000	99.790144
1557.000000	99.760594
1556.000000	99.736935
1555.000000	99.721437
1554.000000	99.709808
1553.000000	99.696548
1552.000000	99.676969
1551.000000	99.648422
1550.000000	99.613642
1549.000000	99.577011
1548.000000	99.538110
1547.000000	99.491449
1546.000000	99.432560
1545.000000	99.365976
1544.000000	99.304589
1543.000000	99.255678
1542.000000	99.214716
1541.000000	99.183514
1540.000000	99.179004
1539.000000	99.189932
1538.000000	99.190730
1537.000000	99.186770
1536.000000	99.182545
1535.000000	99.182551
1534.000000	99.194181
1533.000000	99.212722
1532.000000	99.219605
1531.000000	99.209330
1530.000000	99.188408
1529.000000	99.161665
1528.000000	99.132289
1527.000000	99.103991
1526.000000	99.079171
1525.000000	99.057749
1524.000000	99.036049
1523.000000	99.007671
1522.000000	98.970840
1521.000000	98.933962
1520.000000	98.903046
1519.000000	98.877939
1518.000000	98.854462
1517.000000	98.831129
1516.000000	98.807875
1515.000000	98.779278
1514.000000	98.740926
1513.000000	98.694645
1512.000000	98.648810
1511.000000	98.609906
1510.000000	98.574451
1509.000000	98.536302
1508.000000	98.503713
1507.000000	98.499415
1506.000000	98.498484
1505.000000	98.462190
1504.000000	98.417963
1503.000000	98.376774
1502.000000	98.334708
1501.000000	98.291923
1500.000000	98.253188
1499.000000	98.219177
1498.000000	98.182601
1497.000000	98.141271
1496.000000	98.103646
1495.000000	98.072381
1494.000000	98.039141
1493.000000	97.995770
1492.000000	97.943474
1491.000000	97.894754
1490.000000	97.863271
1489.000000	97.848611
1488.000000	97.836207
1487.000000	97.815112
1486.000000	97.785837
1485.000000	97.750812
1484.000000	97.711059
1483.000000	97.668514
1482.000000	97.625565
1481.000000	97.585221
1480.000000	97.547939
1479.000000	97.510127
1478.000000	97.467467
1477.000000	97.418895
1476.000000	97.366137
1475.000000	97.310114
1474.000000	97.254204
1473.000000	97.210796
1472.000000	97.188224
1471.000000	97.168757
1470.000000	97.136721
1469.000000	97.093763
1468.000000	97.048600
1467.000000	97.009977
1466.000000	96.983151
1465.000000	96.967803
1464.000000	96.955977
1463.000000	96.936905
1462.000000	96.906125
1461.000000	96.863855
1460.000000	96.811399
1459.000000	96.752631
1458.000000	96.701593
1457.000000	96.683338
1456.000000	96.690737
1455.000000	96.692678
1454.000000	96.678301
1453.000000	96.651109
1452.000000	96.621151
1451.000000	96.593642
1450.000000	96.565911
1449.000000	96.538836
1448.000000	96.520790
1447.000000	96.512138
1446.000000	96.499317
1445.000000	96.474806
1444.000000	96.444985
1443.000000	96.418534
1442.000000	96.396444
1441.000000	96.371956
1440.000000	96.337704
1439.000000	96.291675
1438.000000	96.243315
1437.000000	96.216166
1436.000000	96.221073
1435.000000	96.231129
1434.000000	96.218859
1433.000000	96.183777
1432.000000	96.141465
1431.000000	96.107138
1430.000000	96.082578
1429.000000	96.060314
1428.000000	96.035714
1427.000000	96.006854
1426.000000	95.971533
1425.000000	95.932408
1424.000000	95.898292
1423.000000	95.868477
1422.000000	95.828356
1421.000000	95.772278
1420.000000	95.719506
1419.000000	95.697895
1418.000000	95.697376
1417.000000	95.685948
1416.000000	95.656991
1415.000000	95.617676
1414.000000	95.572231
1413.000000	95.524608
1412.000000	95.482413
1411.000000	95.448748
1410.000000	95.414467
1409.000000	95.370462
1408.000000	95.321194
1407.000000	95.277549
1406.000000	95.243985
1405.000000	95.218516
1404.000000	95.199170
1403.000000	95.179980
1402.000000	95.150335
1401.000000	95.107245
1400.000000	95.062441
1399.000000	95.028860
1398.000000	94.999193
1397.000000	94.960012
1396.000000	94.918531
1395.000000	94.893496
1394.000000	94.882595
1393.000000	94.865589
1392.000000	94.836767
1391.000000	94.801913
1390.000000	94.763599
1389.000000	94.725715
1388.000000	94.703539
1387.000000	94.710788
1386.000000	94.734912
1385.000000	94.752885
1384.000000	94.762882
1383.000000	94.777000
1382.000000	94.800067
1381.000000	94.828229
1380.000000	94.862415
1379.000000	94.907411
1378.000000	94.958007
1377.000000	95.003493
1376.000000	95.048219
1375.000000	95.112462
1374.000000	95.203726
1373.000000	95.300290
1372.000000	95.380742
1371.000000	95.447692
1370.000000	95.514634
1369.000000	95.589919
1368.000000	95.672639
1367.000000	95.753548
1366.000000	95.822785
1365.000000	95.881409
1364.000000	95.944644
1363.000000	96.029001
1362.000000	96.131524
1361.000000	96.232065
1360.000000	96.319698
1359.000000	96.397970
1358.000000	96.472317
1357.000000	96.545399
1356.000000	96.619090
1355.000000	96.692892
1354.000000	96.762501
1353.000000	96.825359
1352.000000	96.884693
1351.000000	96.944221
1350.000000	97.002763
1349.000000	97.055854
1348.000000	97.101991
1347.000000	97.143759
1346.000000	97.185072
1345.000000	97.229114
1344.000000	97.276045
1343.000000	97.320714
1342.000000	97.357035
1341.000000	97.386750
1340.000000	97.420409
1339.000000	97.464976
1338.000000	97.513903
1337.000000	97.557962
1336.000000	97.596691
1335.000000	97.632610
1334.000000	97.664498
1333.000000	97.691186
1332.000000	97.716728
1331.000000	97.746781
1330.000000	97.782196
1329.000000	97.819324
1328.000000	97.854576
1327.000000	97.885809
1326.000000	97.912098
1325.000000	97.935028
1324.000000	97.959018
1323.000000	97.986358
1322.000000	98.013810
1321.000000	98.036819
1320.000000	98.055239
1319.000000	98.072712
1318.000000	98.091973
1317.000000	98.113528
1316.000000	98.137188
1315.000000	98.162272
1314.000000	98.187798
1313.000000	98.214110
1312.000000	98.242053
1311.000000	98.269705
1310.000000	98.293113
1309.000000	98.311596
1308.000000	98.329088
1307.000000	98.348905
1306.000000	98.370317
1305.000000	98.391055
1304.000000	98.410685
1303.000000	98.428909
1302.000000	98.444122
1301.000000	98.456315
1300.000000	98.469093
1299.000000	98.486176
1298.000000	98.507460
1297.000000	98.529922
1296.000000	98.550460
1295.000000	98.567106
1294.000000	98.579818
1293.000000	98.591068
1292.000000	98.603188
1291.000000	98.614451
1290.000000	98.620758
1289.000000	98.622323
1288.000000	98.625071
1287.000000	98.633851
1286.000000	98.647249
1285.000000	98.661043
1284.000000	98.673395
1283.000000	98.684132
1282.000000	98.692249
1281.000000	98.696962
1280.000000	98.699551
1279.000000	98.702313
1278.000000	98.706782
1277.000000	98.713938
1276.000000	98.724098
1275.000000	98.735484
1274.000000	98.745068
1273.000000	98.752152
1272.000000	98.759112
1271.000000	98.767397
1270.000000	98.775169
1269.000000	98.780342
1268.000000	98.783348
1267.000000	98.785218
1266.000000	98.785604
1265.000000	98.785180
1264.000000	98.787524
1263.000000	98.795582
1262.000000	98.807458
1261.000000	98.818334
1260.000000	98.825825
1259.000000	98.831631
1258.000000	98.838340
1257.000000	98.846378
1256.000000	98.853676
1255.000000	98.857247
1254.000000	98.855828
1253.000000	98.851747
1252.000000	98.849104
1251.000000	98.849809
1250.000000	98.852263
1249.000000	98.853886
1248.000000	98.853428
1247.000000	98.850713
1246.000000	98.846367
1245.000000	98.842796
1244.000000	98.843189
1243.000000	98.848068
1242.000000	98.854474
1241.000000	98.859602
1240.000000	98.863317
1239.000000	98.866264
1238.000000	98.867826
1237.000000	98.867480
1236.000000	98.866254
1235.000000	98.865459
1234.000000	98.865628
1233.000000	98.867738
1232.000000	98.873411
1231.000000	98.882363
1230.000000	98.891687
1229.000000	98.899608
1228.000000	98.907930
1227.000000	98.918866
1226.000000	98.931321
1225.000000	98.942521
1224.000000	98.951864
1223.000000	98.960728
1222.000000	98.969615
1221.000000	98.977805
1220.000000	98.985312
1219.000000	98.993342
1218.000000	99.002976
1217.000000	99.014543
1216.000000	99.027488
1215.000000	99.039754
1214.000000	99.048473
1213.000000	99.052963
1212.000000	99.056136
1211.000000	99.061188
1210.000000	99.067586
1209.000000	99.071997
1208.000000	99.072789
1207.000000	99.071815
1206.000000	99.072043
1205.000000	99.074916
1204.000000	99.080167
1203.000000	99.086794
1202.000000	99.093519
1201.000000	99.098907
1200.000000	99.101669
1199.000000	99.100968
1198.000000	99.096812
1197.000000	99.090702
1196.000000	99.085697
1195.000000	99.085014
1194.000000	99.089869
1193.000000	99.098410
1192.000000	99.106868
1191.000000	99.112131
1190.000000	99.113744
1189.000000	99.113586
1188.000000	99.113611
1187.000000	99.114165
1186.000000	99.114407
1185.000000	99.113744
1184.000000	99.112334
1183.000000	99.110832
1182.000000	99.110275
1181.000000	99.111502
1180.000000	99.113863
1179.000000	99.115239
1178.000000	99.114374
1177.000000	99.112463
1176.000000	99.111251
1175.000000	99.110257
1174.000000	99.107277
1173.000000	99.101363
1172.000000	99.094121
1171.000000	99.088036
1170.000000	99.084579
1169.000000	99.083834
1168.000000	99.084803
1167.000000	99.085849
1166.000000	99.086021
1165.000000	99.086325
1164.000000	99.088870
1163.000000	99.094284
1162.000000	99.100547
1161.000000	99.104870
1160.000000	99.106499
1159.000000	99.107691
1158.000000	99.111921
1157.000000	99.120514
1156.000000	99.130860
1155.000000	99.138560
1154.000000	99.141809
1153.000000	99.143137
1152.000000	99.146491
1151.000000	99.153620
1150.000000	99.163727
1149.000000	99.175305
1148.000000	99.187091
1147.000000	99.198116
1146.000000	99.208062
1145.000000	99.217116
1144.000000	99.224866
1143.000000	99.230475
1142.000000	99.234533
1141.000000	99.239129
1140.000000	99.245077
1139.000000	99.250703
1138.000000	99.254725
1137.000000	99.258789
1136.000000	99.265691
1135.000000	99.276557
1134.000000	99.290929
1133.000000	99.307434
1132.000000	99.322485
1131.000000	99.330831
1130.000000	99.330857
1129.000000	99.327951
1128.000000	99.329267
1127.000000	99.335833
1126.000000	99.342683
1125.000000	99.345934
1124.000000	99.346628
1123.000000	99.347841
1122.000000	99.351087
1121.000000	99.355907
1120.000000	99.360273
1119.000000	99.361045
1118.000000	99.356130
1117.000000	99.346911
1116.000000	99.337144
1115.000000	99.329705
1114.000000	99.325547
1113.000000	99.324461
1112.000000	99.324519
1111.000000	99.321685
1110.000000	99.313376
1109.000000	99.302537
1108.000000	99.295788
1107.000000	99.296663
1106.000000	99.303049
1105.000000	99.311338
1104.000000	99.320061
1103.000000	99.328221
1102.000000	99.332720
1101.000000	99.329721
1100.000000	99.318737
1099.000000	99.303344
1098.000000	99.289514
1097.000000	99.281460
1096.000000	99.278865
1095.000000	99.278510
1094.000000	99.279118
1093.000000	99.282950
1092.000000	99.290962
1091.000000	99.298463
1090.000000	99.298628
1089.000000	99.289631
1088.000000	99.275211
1087.000000	99.259063
1086.000000	99.242573
1085.000000	99.228017
1084.000000	99.219622
1083.000000	99.218902
1082.000000	99.221082
1081.000000	99.218821
1080.000000	99.209219
1079.000000	99.196426
1078.000000	99.187978
1077.000000	99.188898
1076.000000	99.198005
1075.000000	99.209572
1074.000000	99.219258
1073.000000	99.227783
1072.000000	99.237244
1071.000000	99.245244
1070.000000	99.246107
1069.000000	99.238290
1068.000000	99.227235
1067.000000	99.219831
1066.000000	99.218603
1065.000000	99.222474
1064.000000	99.230349
1063.000000	99.241110
1062.000000	99.251326
1061.000000	99.256068
1060.000000	99.253054
1059.000000	99.245445
1058.000000	99.240089
1057.000000	99.242432
1056.000000	99.251996
1055.000000	99.262676
1054.000000	99.268296
1053.000000	99.268103
1052.000000	99.266435
1051.000000	99.267486
1050.000000	99.271519
1049.000000	99.275906
1048.000000	99.278355
1047.000000	99.278831
1046.000000	99.279213
1045.000000	99.280865
1044.000000	99.282163
1043.000000	99.279692
1042.000000	99.273017
1041.000000	99.266760
1040.000000	99.265802
1039.000000	99.269840
1038.000000	99.274984
1037.000000	99.279468
1036.000000	99.284359
1035.000000	99.289003
1034.000000	99.289938
1033.000000	99.285404
1032.000000	99.277982
1031.000000	99.271398
1030.000000	99.267136
1029.000000	99.265352
1028.000000	99.266617
1027.000000	99.270892
1026.000000	99.276415
1025.000000	99.281127
1024.000000	99.284101
1023.000000	99.284961
1022.000000	99.284054
1021.000000	99.284284
1020.000000	99.290128
1019.000000	99.302496
1018.000000	99.315861
1017.000000	99.322977
1016.000000	99.322047
1015.000000	99.317869
1014.000000	99.317485
1013.000000	99.325922
1012.000000	99.344381
1011.000000	99.369188
1010.000000	99.392587
1009.000000	99.407477
1008.000000	99.412741
1007.000000	99.412667
1006.000000	99.411381
1005.000000	99.409947
1004.000000	99.409335
1003.000000	99.413131
1002.000000	99.424207
1001.000000	99.440049
1000.000000	99.454585
999.000000	99.465057
998.000000	99.474506
997.000000	99.486372
996.000000	99.499288
995.000000	99.509094
994.000000	99.514447
993.000000	99.518125
992.000000	99.523643
991.000000	99.532711
990.000000	99.545160
989.000000	99.559093
988.000000	99.571626
987.000000	99.581797
986.000000	99.592472
985.000000	99.606829
984.000000	99.623036
983.000000	99.635313
982.000000	99.640682
981.000000	99.641782
980.000000	99.642357
979.000000	99.642897
978.000000	99.642004
977.000000	99.639184
976.000000	99.634762
975.000000	99.629621
974.000000	99.626395
973.000000	99.628137
972.000000	99.633942
971.000000	99.638455
970.000000	99.638348
969.000000	99.637269
968.000000	99.641953
967.000000	99.654859
966.000000	99.672285
965.000000	99.687965
964.000000	99.696583
963.000000	99.696080
962.000000	99.689647
961.000000	99.684449
960.000000	99.686019
959.000000	99.695043
958.000000	99.710408
957.000000	99.731926
956.000000	99.756994
955.000000	99.777959
954.000000	99.788263
953.000000	99.790243
952.000000	99.792254
951.000000	99.798242
950.000000	99.804654
949.000000	99.807859
948.000000	99.809879
947.000000	99.815208
946.000000	99.824851
945.000000	99.835432
944.000000	99.842344
943.000000	99.843046
942.000000	99.839417
941.000000	99.837244
940.000000	99.841232
939.000000	99.850126
938.000000	99.858522
937.000000	99.863577
936.000000	99.867186
935.000000	99.871291
934.000000	99.874581
933.000000	99.875739
932.000000	99.877334
931.000000	99.883336
930.000000	99.893484
929.000000	99.902424
928.000000	99.905064
927.000000	99.902203
926.000000	99.900233
925.000000	99.905013
924.000000	99.915917
923.000000	99.926313
922.000000	99.930242
921.000000	99.927669
920.000000	99.923188
919.000000	99.921640
918.000000	99.925932
917.000000	99.936410
916.000000	99.949491
915.000000	99.958445
914.000000	99.959171
913.000000	99.954964
912.000000	99.952343
911.000000	99.952877
910.000000	99.952617
909.000000	99.949594
908.000000	99.947793
907.000000	99.952200
906.000000	99.963538
905.000000	99.979417
904.000000	99.997223
903.000000	100.013432
902.000000	100.023440
901.000000	100.026028
900.000000	100.026960
899.000000	100.034599
898.000000	100.052006
897.000000	100.074444
896.000000	100.093705
895.000000	100.103031
894.000000	100.099979
893.000000	100.088215
892.000000	100.077155
891.000000	100.076898
890.000000	100.090837
889.000000	100.112442
888.000000	100.128990
887.000000	100.126846
886.000000	100.094741
885.000000	100.024450
884.000000	99.909627
883.000000	99.744605
882.000000	99.522019
881.000000	99.233152
880.000000	98.871533
879.000000	98.438587
878.000000	97.947608
877.000000	97.417667
876.000000	96.861879
875.000000	96.282791
874.000000	95.698452
873.000000	95.188038
872.000000	94.907482
871.000000	95.014373
870.000000	95.537971
869.000000	96.328045
868.000000	97.146799
867.000000	97.818819
866.000000	98.301805
865.000000	98.640490
864.000000	98.886904
863.000000	99.069800
862.000000	99.206977
861.000000	99.313544
860.000000	99.396578
859.000000	99.456750
858.000000	99.500163
857.000000	99.538006
856.000000	99.574966
855.000000	99.607637
854.000000	99.634415
853.000000	99.657530
852.000000	99.673367
851.000000	99.671940
850.000000	99.652049
849.000000	99.629609
848.000000	99.624868
847.000000	99.644902
846.000000	99.682377
845.000000	99.726283
844.000000	99.768145
843.000000	99.801316
842.000000	99.821402
841.000000	99.828837
840.000000	99.828302
839.000000	99.825708
838.000000	99.826650
837.000000	99.835555
836.000000	99.853568
835.000000	99.877433
834.000000	99.901186
833.000000	99.918911
832.000000	99.927085
831.000000	99.926848
830.000000	99.923985
829.000000	99.923651
828.000000	99.924757
827.000000	99.923090
826.000000	99.919760
825.000000	99.921292
824.000000	99.929756
823.000000	99.938017
822.000000	99.937963
821.000000	99.929704
820.000000	99.920228
819.000000	99.916835
818.000000	99.923508
817.000000	99.939631
816.000000	99.959490
815.000000	99.975908
814.000000	99.986868
813.000000	99.996073
812.000000	100.005284
811.000000	100.009817
810.000000	100.004572
809.000000	99.992222
808.000000	99.982184
807.000000	99.982340
806.000000	99.993002
805.000000	100.007354
804.000000	100.016954
803.000000	100.018321
802.000000	100.014501
801.000000	100.009061
800.000000	100.000522
799.000000	99.986589
798.000000	99.971927
797.000000	99.965224
796.000000	99.968013
795.000000	99.972917
794.000000	99.974433
793.000000	99.974494
792.000000	99.975177
791.000000	99.973746
790.000000	99.969820
789.000000	99.970803
788.000000	99.982772
787.000000	99.999549
786.000000	100.008120
785.000000	100.004130
784.000000	99.995979
783.000000	99.993483
782.000000	99.997590
781.000000	100.002701
780.000000	100.005333
779.000000	100.007411
778.000000	100.011160
777.000000	100.012909
776.000000	100.004922
775.000000	99.985455
774.000000	99.965110
773.000000	99.959214
772.000000	99.973245
771.000000	99.998136
770.000000	100.019459
769.000000	100.027853
768.000000	100.021426
767.000000	100.004496
766.000000	99.986478
765.000000	99.976806
764.000000	99.977221
763.000000	99.981627
762.000000	99.985020
761.000000	99.988657
760.000000	99.994701
759.000000	100.000724
758.000000	100.003395
757.000000	100.003716
756.000000	100.004706
755.000000	100.007237
754.000000	100.011707
753.000000	100.020709
752.000000	100.035681
751.000000	100.052625
750.000000	100.064618
749.000000	100.067934
748.000000	100.063613
747.000000	100.054536
746.000000	100.043339
745.000000	100.031807
744.000000	100.020416
743.000000	100.009938
742.000000	100.003865
741.000000	100.006109
740.000000	100.015541
739.000000	100.026069
738.000000	100.032532
737.000000	100.032843
736.000000	100.025012
735.000000	100.008395
734.000000	99.989266
733.000000	99.977535
732.000000	99.974374
731.000000	99.969058
730.000000	99.952376
729.000000	99.927304
728.000000	99.906324
727.000000	99.901578
726.000000	99.914778
725.000000	99.934841
724.000000	99.944502
723.000000	99.932250
722.000000	99.899058
721.000000	99.853099
720.000000	99.798830
719.000000	99.732538
718.000000	99.645986
717.000000	99.528805
716.000000	99.371209
715.000000	99.178697
714.000000	98.990282
713.000000	98.869060
712.000000	98.860944
711.000000	98.959443
710.000000	99.113549
709.000000	99.265683
708.000000	99.381761
707.000000	99.457851
706.000000	99.505981
705.000000	99.540250
704.000000	99.572366
703.000000	99.608003
702.000000	99.645610
701.000000	99.679237
700.000000	99.701603
699.000000	99.711944
698.000000	99.716645
697.000000	99.723213
696.000000	99.737329
695.000000	99.760346
694.000000	99.791096
693.000000	99.823671
692.000000	99.845566
691.000000	99.853113
690.000000	99.858240
689.000000	99.872886
688.000000	99.890196
687.000000	99.891443
686.000000	99.876500
685.000000	99.864787
684.000000	99.864082
683.000000	99.863436
682.000000	99.858140
681.000000	99.857501
680.000000	99.861132
679.000000	99.854353
678.000000	99.836114
677.000000	99.820045
676.000000	99.815744
675.000000	99.819213
674.000000	99.829462
673.000000	99.856381
672.000000	99.908936
671.000000	99.991978
670.000000	100.113821
669.000000	100.262184
668.000000	100.324637
667.000000	100.215903
666.000000	100.071407
665.000000	99.944490
664.000000	99.842658
663.000000	99.787206
662.000000	99.781617
661.000000	99.800889
660.000000	99.817049
659.000000	99.823809
658.000000	99.828173
657.000000	99.827107
656.000000	99.821682
655.000000	99.824939
654.000000	99.839559
653.000000	99.849678
652.000000	99.850181
651.000000	99.855925
650.000000	99.875312
649.000000	99.893053
648.000000	99.894415
647.000000	99.884292
646.000000	99.870698
645.000000	99.855634
644.000000	99.843944
643.000000	99.840168
642.000000	99.837687
641.000000	99.823932
640.000000	99.802417
639.000000	99.794382
638.000000	99.808958
637.000000	99.830210
636.000000	99.842912
635.000000	99.849155
634.000000	99.854343
633.000000	99.854563
632.000000	99.845507
631.000000	99.833136
630.000000	99.827007
629.000000	99.829972
628.000000	99.841031
627.000000	99.858598
626.000000	99.873048
625.000000	99.873081
624.000000	99.859707
623.000000	99.845034
622.000000	99.838648
621.000000	99.842006
620.000000	99.852589
619.000000	99.862610
618.000000	99.858349
617.000000	99.835059
616.000000	99.809149
615.000000	99.799752
614.000000	99.801935
613.000000	99.795538
612.000000	99.778549
611.000000	99.771133
610.000000	99.783457
609.000000	99.800781
608.000000	99.809102
607.000000	99.817074
606.000000	99.835495
605.000000	99.855652
604.000000	99.860528
603.000000	99.846894
602.000000	99.825489
601.000000	99.805599
600.000000	99.791558
599.000000	99.789163
598.000000	99.800903
597.000000	99.816247
596.000000	99.819113
595.000000	99.806544
594.000000	99.792762
593.000000	99.792920
592.000000	99.808800
591.000000	99.831736
590.000000	99.853209
589.000000	99.868609
588.000000	99.875225
587.000000	99.871316
586.000000	99.856721
585.000000	99.833504
584.000000	99.806758
583.000000	99.785953
582.000000	99.782245
581.000000	99.800361
580.000000	99.832047
579.000000	99.860693
578.000000	99.873471
577.000000	99.869561
576.000000	99.856722
575.000000	99.840939
574.000000	99.821512
573.000000	99.796653
572.000000	99.771270
571.000000	99.755536
570.000000	99.756064
569.000000	99.769338
568.000000	99.785132
567.000000	99.793855
566.000000	99.791689
565.000000	99.782745
564.000000	99.775722
563.000000	99.776499
562.000000	99.783308
561.000000	99.790627
560.000000	99.795764
559.000000	99.798583
558.000000	99.797896
557.000000	99.792891
556.000000	99.786621
555.000000	99.785095
554.000000	99.792795
553.000000	99.810128
552.000000	99.832374
551.000000	99.848187
550.000000	99.846438
549.000000	99.830346
548.000000	99.818191
547.000000	99.823088
546.000000	99.834508
545.000000	99.827954
544.000000	99.793602
543.000000	99.746591
542.000000	99.711639
541.000000	99.704867
540.000000	99.727117
539.000000	99.765892
538.000000	99.800674
537.000000	99.813660
536.000000	99.802059
535.000000	99.781284
534.000000	99.773829
533.000000	99.793305
532.000000	99.833592
531.000000	99.871061
530.000000	99.882704
529.000000	99.863974
528.000000	99.824661
527.000000	99.775993
526.000000	99.730959
525.000000	99.709028
524.000000	99.721106
523.000000	99.750062
522.000000	99.763747
521.000000	99.751754
520.000000	99.737860
519.000000	99.747947
518.000000	99.776610
517.000000	99.802421
516.000000	99.825062
515.000000	99.856382
514.000000	99.889865
513.000000	99.906838
512.000000	99.904825
511.000000	99.899561
510.000000	99.900490
509.000000	99.901802
508.000000	99.896644
507.000000	99.885943
506.000000	99.869983
505.000000	99.848173
504.000000	99.829893
503.000000	99.829606
502.000000	99.846347
501.000000	99.860884
500.000000	99.863568
499.000000	99.867276
498.000000	99.886041
497.000000	99.915988
496.000000	99.939619
495.000000	99.942705
494.000000	99.926629
493.000000	99.907164
492.000000	99.899499
491.000000	99.900802
490.000000	99.893110
489.000000	99.874044
488.000000	99.868543
487.000000	99.895837
486.000000	99.935037
485.000000	99.946646
484.000000	99.932051
483.000000	99.939711
482.000000	99.996076
481.000000	100.061461
480.000000	100.072507
479.000000	100.006829
478.000000	99.899210
477.000000	99.812925
476.000000	99.797685
475.000000	99.860586
474.000000	99.960250
473.000000	100.030485
472.000000	100.030944
471.000000	99.983215
470.000000	99.932773
469.000000	99.900256
468.000000	99.888563
467.000000	99.897745
466.000000	99.917406
465.000000	99.929134
464.000000	99.924490
463.000000	99.905987
462.000000	99.873285
461.000000	99.823692
460.000000	99.773827
459.000000	99.764264
458.000000	99.826555
457.000000	99.939398
456.000000	100.048707
455.000000	100.123374
454.000000	100.155153
453.000000	100.147175
452.000000	100.117809
451.000000	100.086760
450.000000	100.054181
