PE IR       SUBTECH     SPECTRUM    ASCII       PEDS        4.00        
   -1
AG10-F010_1.ASC
23/09/08
10:41:37.00
23/09/08
11:14:38.00
uco
Sample 010 By uco Date Friday, September 08 2023
450.000000
#HDR
-1
-1
#GR
cm-1
%T
1.0
0.0
4000.000000
-1.000000
3551
8
99.918151
90.139820
#DATA
4000.000000	99.774270
3999.000000	99.776631
3998.000000	99.779229
3997.000000	99.780051
3996.000000	99.777919
3995.000000	99.773514
3994.000000	99.769083
3993.000000	99.766528
3992.000000	99.766181
3991.000000	99.767263
3990.000000	99.769172
3989.000000	99.771973
3988.000000	99.775621
3987.000000	99.779147
3986.000000	99.781003
3985.000000	99.780351
3984.000000	99.777888
3983.000000	99.775211
3982.000000	99.773425
3981.000000	99.772458
3980.000000	99.771773
3979.000000	99.771370
3978.000000	99.771757
3977.000000	99.773081
3976.000000	99.774733
3975.000000	99.775930
3974.000000	99.776419
3973.000000	99.776372
3972.000000	99.775687
3971.000000	99.773860
3970.000000	99.770666
3969.000000	99.766905
3968.000000	99.764203
3967.000000	99.763798
3966.000000	99.765368
3965.000000	99.766761
3964.000000	99.765190
3963.000000	99.759312
3962.000000	99.750673
3961.000000	99.743018
3960.000000	99.739465
3959.000000	99.740431
3958.000000	99.743832
3957.000000	99.746820
3956.000000	99.747498
3955.000000	99.745572
3954.000000	99.742447
3953.000000	99.740340
3952.000000	99.740575
3951.000000	99.742414
3950.000000	99.743638
3949.000000	99.742841
3948.000000	99.740998
3947.000000	99.740656
3946.000000	99.743766
3945.000000	99.749770
3944.000000	99.755429
3943.000000	99.756996
3942.000000	99.753062
3941.000000	99.745741
3940.000000	99.739090
3939.000000	99.736434
3938.000000	99.738412
3937.000000	99.743031
3936.000000	99.747112
3935.000000	99.747757
3934.000000	99.743920
3933.000000	99.737508
3932.000000	99.732444
3931.000000	99.731610
3930.000000	99.734610
3929.000000	99.739219
3928.000000	99.743645
3927.000000	99.746600
3926.000000	99.746959
3925.000000	99.744998
3924.000000	99.743192
3923.000000	99.743491
3922.000000	99.744620
3921.000000	99.743598
3920.000000	99.739757
3919.000000	99.736289
3918.000000	99.736919
3917.000000	99.741319
3916.000000	99.745116
3915.000000	99.744632
3914.000000	99.739630
3913.000000	99.732756
3912.000000	99.727665
3911.000000	99.727635
3910.000000	99.733692
3909.000000	99.744060
3908.000000	99.755069
3907.000000	99.761938
3906.000000	99.760100
3905.000000	99.748049
3904.000000	99.731078
3903.000000	99.718781
3902.000000	99.716426
3901.000000	99.721221
3900.000000	99.727054
3899.000000	99.730456
3898.000000	99.731922
3897.000000	99.732848
3896.000000	99.733075
3895.000000	99.732196
3894.000000	99.730586
3893.000000	99.729574
3892.000000	99.730028
3891.000000	99.731440
3890.000000	99.732778
3889.000000	99.734825
3888.000000	99.738289
3887.000000	99.740371
3886.000000	99.738401
3885.000000	99.734800
3884.000000	99.733888
3883.000000	99.736463
3882.000000	99.738999
3881.000000	99.738124
3880.000000	99.734928
3879.000000	99.732874
3878.000000	99.734344
3877.000000	99.739525
3876.000000	99.745494
3875.000000	99.747753
3874.000000	99.744866
3873.000000	99.740314
3872.000000	99.738084
3871.000000	99.738210
3870.000000	99.738919
3869.000000	99.740416
3868.000000	99.743761
3867.000000	99.748239
3866.000000	99.750059
3865.000000	99.746400
3864.000000	99.739840
3863.000000	99.734476
3862.000000	99.730631
3861.000000	99.727437
3860.000000	99.725377
3859.000000	99.725200
3858.000000	99.727423
3857.000000	99.732169
3856.000000	99.737746
3855.000000	99.737502
3854.000000	99.725883
3853.000000	99.713626
3852.000000	99.710402
3851.000000	99.712244
3850.000000	99.714362
3849.000000	99.715933
3848.000000	99.718377
3847.000000	99.723799
3846.000000	99.732231
3845.000000	99.741748
3844.000000	99.749555
3843.000000	99.753280
3842.000000	99.752224
3841.000000	99.747841
3840.000000	99.741754
3839.000000	99.736098
3838.000000	99.733903
3837.000000	99.735870
3836.000000	99.739883
3835.000000	99.743877
3834.000000	99.747424
3833.000000	99.750837
3832.000000	99.754380
3831.000000	99.758204
3830.000000	99.762474
3829.000000	99.766684
3828.000000	99.768845
3827.000000	99.766421
3826.000000	99.759378
3825.000000	99.752292
3824.000000	99.750624
3823.000000	99.755129
3822.000000	99.760768
3821.000000	99.762949
3820.000000	99.760967
3819.000000	99.755710
3818.000000	99.748259
3817.000000	99.737429
3816.000000	99.725324
3815.000000	99.719168
3814.000000	99.722288
3813.000000	99.730520
3812.000000	99.737359
3811.000000	99.740371
3810.000000	99.741771
3809.000000	99.743866
3808.000000	99.744996
3807.000000	99.742680
3806.000000	99.738413
3805.000000	99.737090
3804.000000	99.741391
3803.000000	99.748256
3802.000000	99.751475
3801.000000	99.750116
3800.000000	99.748131
3799.000000	99.749062
3798.000000	99.752239
3797.000000	99.753489
3796.000000	99.750438
3795.000000	99.745113
3794.000000	99.741297
3793.000000	99.740477
3792.000000	99.741544
3791.000000	99.742687
3790.000000	99.742364
3789.000000	99.739807
3788.000000	99.735806
3787.000000	99.732558
3786.000000	99.732315
3785.000000	99.735976
3784.000000	99.742566
3783.000000	99.750009
3782.000000	99.755459
3781.000000	99.755745
3780.000000	99.749793
3779.000000	99.741529
3778.000000	99.736395
3777.000000	99.736172
3776.000000	99.738439
3775.000000	99.739888
3774.000000	99.739403
3773.000000	99.738200
3772.000000	99.737258
3771.000000	99.736233
3770.000000	99.735702
3769.000000	99.737481
3768.000000	99.742190
3767.000000	99.748118
3766.000000	99.752280
3765.000000	99.752449
3764.000000	99.749204
3763.000000	99.745565
3762.000000	99.743703
3761.000000	99.743748
3760.000000	99.745117
3759.000000	99.747027
3758.000000	99.746629
3757.000000	99.742235
3756.000000	99.737246
3755.000000	99.736698
3754.000000	99.741054
3753.000000	99.744904
3752.000000	99.743308
3751.000000	99.738701
3750.000000	99.735796
3749.000000	99.733926
3748.000000	99.732554
3747.000000	99.733491
3746.000000	99.735295
3745.000000	99.734814
3744.000000	99.736222
3743.000000	99.743605
3742.000000	99.754087
3741.000000	99.763405
3740.000000	99.770342
3739.000000	99.776623
3738.000000	99.782127
3737.000000	99.781476
3736.000000	99.773770
3735.000000	99.768774
3734.000000	99.773388
3733.000000	99.780953
3732.000000	99.781546
3731.000000	99.773758
3730.000000	99.763311
3729.000000	99.755625
3728.000000	99.752149
3727.000000	99.751744
3726.000000	99.753498
3725.000000	99.756308
3724.000000	99.758150
3723.000000	99.758234
3722.000000	99.758269
3721.000000	99.760660
3720.000000	99.765001
3719.000000	99.768114
3718.000000	99.766936
3717.000000	99.761952
3716.000000	99.757882
3715.000000	99.758612
3714.000000	99.761958
3713.000000	99.761091
3712.000000	99.753200
3711.000000	99.745249
3710.000000	99.744895
3709.000000	99.751510
3708.000000	99.759753
3707.000000	99.765675
3706.000000	99.769222
3705.000000	99.772952
3704.000000	99.778403
3703.000000	99.783845
3702.000000	99.785843
3701.000000	99.782948
3700.000000	99.777171
3699.000000	99.771752
3698.000000	99.767755
3697.000000	99.763558
3696.000000	99.757999
3695.000000	99.751811
3694.000000	99.746052
3693.000000	99.741562
3692.000000	99.739510
3691.000000	99.741333
3690.000000	99.746829
3689.000000	99.753337
3688.000000	99.757353
3687.000000	99.758359
3686.000000	99.759260
3685.000000	99.760949
3684.000000	99.761564
3683.000000	99.760453
3682.000000	99.759244
3681.000000	99.758291
3680.000000	99.756106
3679.000000	99.753181
3678.000000	99.752845
3677.000000	99.756285
3676.000000	99.760648
3675.000000	99.763605
3674.000000	99.762938
3673.000000	99.760364
3672.000000	99.757586
3671.000000	99.752625
3670.000000	99.747137
3669.000000	99.747366
3668.000000	99.753500
3667.000000	99.760822
3666.000000	99.765704
3665.000000	99.766894
3664.000000	99.765254
3663.000000	99.762726
3662.000000	99.760611
3661.000000	99.759061
3660.000000	99.758461
3659.000000	99.759146
3658.000000	99.760026
3657.000000	99.758189
3656.000000	99.751971
3655.000000	99.743205
3654.000000	99.736076
3653.000000	99.733632
3652.000000	99.734132
3651.000000	99.732168
3650.000000	99.726043
3649.000000	99.722607
3648.000000	99.727278
3647.000000	99.736299
3646.000000	99.743295
3645.000000	99.745483
3644.000000	99.742957
3643.000000	99.737229
3642.000000	99.730853
3641.000000	99.726542
3640.000000	99.725312
3639.000000	99.725537
3638.000000	99.725297
3637.000000	99.724933
3636.000000	99.726221
3635.000000	99.729367
3634.000000	99.732702
3633.000000	99.735682
3632.000000	99.739584
3631.000000	99.744280
3630.000000	99.746544
3629.000000	99.746894
3628.000000	99.749222
3627.000000	99.751971
3626.000000	99.753249
3625.000000	99.753275
3624.000000	99.753165
3623.000000	99.754578
3622.000000	99.758342
3621.000000	99.762938
3620.000000	99.765887
3619.000000	99.765902
3618.000000	99.762100
3617.000000	99.753970
3616.000000	99.743112
3615.000000	99.731350
3614.000000	99.719279
3613.000000	99.707673
3612.000000	99.698585
3611.000000	99.694604
3610.000000	99.696996
3609.000000	99.704925
3608.000000	99.715237
3607.000000	99.722842
3606.000000	99.723938
3605.000000	99.718936
3604.000000	99.711745
3603.000000	99.706446
3602.000000	99.705110
3601.000000	99.707201
3600.000000	99.710606
3599.000000	99.712869
3598.000000	99.712136
3597.000000	99.707877
3596.000000	99.701724
3595.000000	99.696894
3594.000000	99.696104
3593.000000	99.699471
3592.000000	99.704464
3591.000000	99.708530
3590.000000	99.710301
3589.000000	99.709903
3588.000000	99.709198
3587.000000	99.709331
3586.000000	99.707503
3585.000000	99.701786
3584.000000	99.694726
3583.000000	99.689222
3582.000000	99.685315
3581.000000	99.681070
3580.000000	99.675322
3579.000000	99.668762
3578.000000	99.662425
3577.000000	99.656626
3576.000000	99.651553
3575.000000	99.648002
3574.000000	99.646286
3573.000000	99.645463
3572.000000	99.644603
3571.000000	99.644431
3570.000000	99.646538
3569.000000	99.650651
3568.000000	99.654451
3567.000000	99.655820
3566.000000	99.653345
3565.000000	99.646634
3564.000000	99.638462
3563.000000	99.633236
3562.000000	99.633902
3561.000000	99.640440
3560.000000	99.649997
3559.000000	99.658757
3558.000000	99.664222
3557.000000	99.665626
3556.000000	99.662902
3555.000000	99.656176
3554.000000	99.646500
3553.000000	99.636543
3552.000000	99.629250
3551.000000	99.625026
3550.000000	99.621455
3549.000000	99.616154
3548.000000	99.609531
3547.000000	99.605223
3546.000000	99.607048
3545.000000	99.614548
3544.000000	99.622830
3543.000000	99.627192
3542.000000	99.626538
3541.000000	99.623160
3540.000000	99.620331
3539.000000	99.619655
3538.000000	99.619966
3537.000000	99.618508
3536.000000	99.613893
3535.000000	99.607569
3534.000000	99.602580
3533.000000	99.600995
3532.000000	99.602545
3531.000000	99.605188
3530.000000	99.606668
3529.000000	99.605919
3528.000000	99.603264
3527.000000	99.599558
3526.000000	99.595520
3525.000000	99.592028
3524.000000	99.590063
3523.000000	99.589574
3522.000000	99.588988
3521.000000	99.587069
3520.000000	99.584958
3519.000000	99.585107
3518.000000	99.588400
3517.000000	99.592970
3516.000000	99.596214
3515.000000	99.597161
3514.000000	99.596496
3513.000000	99.595021
3512.000000	99.593051
3511.000000	99.591261
3510.000000	99.591124
3509.000000	99.593355
3508.000000	99.596230
3507.000000	99.596511
3506.000000	99.592440
3505.000000	99.585584
3504.000000	99.580249
3503.000000	99.580052
3502.000000	99.584285
3501.000000	99.588421
3500.000000	99.588296
3499.000000	99.583262
3498.000000	99.576107
3497.000000	99.570949
3496.000000	99.570114
3495.000000	99.572303
3494.000000	99.574026
3493.000000	99.573140
3492.000000	99.570354
3491.000000	99.567239
3490.000000	99.564026
3489.000000	99.560213
3488.000000	99.556495
3487.000000	99.554507
3486.000000	99.554625
3485.000000	99.555497
3484.000000	99.556234
3483.000000	99.557888
3482.000000	99.561833
3481.000000	99.566919
3480.000000	99.569471
3479.000000	99.566539
3478.000000	99.558734
3477.000000	99.549671
3476.000000	99.542850
3475.000000	99.538899
3474.000000	99.535893
3473.000000	99.532507
3472.000000	99.530058
3471.000000	99.530617
3470.000000	99.533594
3469.000000	99.535587
3468.000000	99.534000
3467.000000	99.530177
3466.000000	99.528340
3465.000000	99.531697
3464.000000	99.539842
3463.000000	99.549266
3462.000000	99.555886
3461.000000	99.557471
3460.000000	99.554503
3459.000000	99.549058
3458.000000	99.542934
3457.000000	99.536810
3456.000000	99.531069
3455.000000	99.526731
3454.000000	99.525110
3453.000000	99.526442
3452.000000	99.529174
3451.000000	99.530821
3450.000000	99.529654
3449.000000	99.526052
3448.000000	99.522702
3447.000000	99.522941
3446.000000	99.527658
3445.000000	99.533964
3444.000000	99.537298
3443.000000	99.534772
3442.000000	99.527126
3441.000000	99.518183
3440.000000	99.512221
3439.000000	99.511024
3438.000000	99.512792
3437.000000	99.513858
3436.000000	99.511962
3435.000000	99.507933
3434.000000	99.504342
3433.000000	99.502876
3432.000000	99.503308
3431.000000	99.504433
3430.000000	99.505147
3429.000000	99.504902
3428.000000	99.503841
3427.000000	99.502655
3426.000000	99.501893
3425.000000	99.501234
3424.000000	99.499669
3423.000000	99.496497
3422.000000	99.492170
3421.000000	99.488191
3420.000000	99.485875
3419.000000	99.484805
3418.000000	99.482787
3417.000000	99.477970
3416.000000	99.471095
3415.000000	99.465234
3414.000000	99.462926
3413.000000	99.463798
3412.000000	99.465196
3411.000000	99.464673
3410.000000	99.461850
3409.000000	99.458674
3408.000000	99.458211
3407.000000	99.462183
3406.000000	99.468832
3405.000000	99.473767
3404.000000	99.473903
3403.000000	99.470477
3402.000000	99.467547
3401.000000	99.467722
3400.000000	99.469892
3399.000000	99.470872
3398.000000	99.468602
3397.000000	99.463812
3396.000000	99.459080
3395.000000	99.456573
3394.000000	99.456442
3393.000000	99.457058
3392.000000	99.456597
3391.000000	99.454433
3390.000000	99.451218
3389.000000	99.447882
3388.000000	99.444587
3387.000000	99.440447
3386.000000	99.434459
3385.000000	99.426981
3384.000000	99.419989
3383.000000	99.415359
3382.000000	99.413296
3381.000000	99.413083
3380.000000	99.414686
3379.000000	99.418216
3378.000000	99.421898
3377.000000	99.422468
3376.000000	99.418481
3375.000000	99.412273
3374.000000	99.407695
3373.000000	99.406559
3372.000000	99.407865
3371.000000	99.409446
3370.000000	99.409151
3369.000000	99.405367
3368.000000	99.398374
3367.000000	99.391356
3366.000000	99.388267
3365.000000	99.389710
3364.000000	99.391986
3363.000000	99.391125
3362.000000	99.387203
3361.000000	99.383827
3360.000000	99.383630
3359.000000	99.385253
3358.000000	99.385065
3357.000000	99.381270
3356.000000	99.375691
3355.000000	99.371596
3354.000000	99.370305
3353.000000	99.370304
3352.000000	99.369286
3351.000000	99.366394
3350.000000	99.362457
3349.000000	99.358801
3348.000000	99.356281
3347.000000	99.354955
3346.000000	99.354079
3345.000000	99.352448
3344.000000	99.349218
3343.000000	99.344510
3342.000000	99.339027
3341.000000	99.333253
3340.000000	99.327455
3339.000000	99.322483
3338.000000	99.319994
3337.000000	99.321240
3336.000000	99.325344
3335.000000	99.328972
3334.000000	99.328410
3333.000000	99.322641
3332.000000	99.314573
3331.000000	99.308902
3330.000000	99.308322
3329.000000	99.311486
3328.000000	99.314368
3327.000000	99.313363
3326.000000	99.307488
3325.000000	99.298549
3324.000000	99.289773
3323.000000	99.283909
3322.000000	99.282062
3321.000000	99.284033
3320.000000	99.289247
3319.000000	99.296539
3318.000000	99.303085
3317.000000	99.304968
3316.000000	99.300315
3315.000000	99.291895
3314.000000	99.285460
3313.000000	99.284755
3312.000000	99.288243
3311.000000	99.290863
3310.000000	99.288842
3309.000000	99.282788
3308.000000	99.276248
3307.000000	99.271769
3306.000000	99.268746
3305.000000	99.265053
3304.000000	99.260003
3303.000000	99.255004
3302.000000	99.251528
3301.000000	99.249340
3300.000000	99.247182
3299.000000	99.244605
3298.000000	99.242516
3297.000000	99.242145
3296.000000	99.243850
3295.000000	99.246865
3294.000000	99.249988
3293.000000	99.252676
3292.000000	99.255512
3291.000000	99.259231
3290.000000	99.263160
3289.000000	99.265059
3288.000000	99.262909
3287.000000	99.256732
3286.000000	99.248600
3285.000000	99.241283
3284.000000	99.236848
3283.000000	99.235698
3282.000000	99.236376
3281.000000	99.236786
3280.000000	99.236154
3279.000000	99.235473
3278.000000	99.235785
3277.000000	99.236469
3276.000000	99.235819
3275.000000	99.233177
3274.000000	99.229879
3273.000000	99.228142
3272.000000	99.229171
3271.000000	99.231972
3270.000000	99.233820
3269.000000	99.232419
3268.000000	99.228103
3267.000000	99.223716
3266.000000	99.222138
3265.000000	99.224379
3264.000000	99.230021
3263.000000	99.238153
3262.000000	99.246934
3261.000000	99.253389
3260.000000	99.255345
3259.000000	99.253579
3258.000000	99.251003
3257.000000	99.249699
3256.000000	99.249600
3255.000000	99.249742
3254.000000	99.249603
3253.000000	99.249118
3252.000000	99.248661
3251.000000	99.249345
3250.000000	99.252228
3249.000000	99.256672
3248.000000	99.260444
3247.000000	99.262132
3246.000000	99.262732
3245.000000	99.264038
3244.000000	99.265826
3243.000000	99.265645
3242.000000	99.261503
3241.000000	99.254512
3240.000000	99.248922
3239.000000	99.249322
3238.000000	99.256983
3237.000000	99.268405
3236.000000	99.277940
3235.000000	99.282361
3234.000000	99.282614
3233.000000	99.281223
3232.000000	99.279211
3231.000000	99.276422
3230.000000	99.273892
3229.000000	99.273945
3228.000000	99.277513
3227.000000	99.282403
3226.000000	99.285205
3225.000000	99.284508
3224.000000	99.281757
3223.000000	99.279250
3222.000000	99.277853
3221.000000	99.276823
3220.000000	99.275245
3219.000000	99.273174
3218.000000	99.271414
3217.000000	99.270727
3216.000000	99.271672
3215.000000	99.274816
3214.000000	99.280145
3213.000000	99.285973
3212.000000	99.289213
3211.000000	99.287591
3210.000000	99.281643
3209.000000	99.274206
3208.000000	99.268229
3207.000000	99.265229
3206.000000	99.265274
3205.000000	99.267418
3204.000000	99.270105
3203.000000	99.272095
3202.000000	99.273452
3201.000000	99.275217
3200.000000	99.277920
3199.000000	99.280804
3198.000000	99.282665
3197.000000	99.282868
3196.000000	99.281404
3195.000000	99.278582
3194.000000	99.275101
3193.000000	99.271872
3192.000000	99.269190
3191.000000	99.266440
3190.000000	99.263281
3189.000000	99.260870
3188.000000	99.261213
3187.000000	99.265279
3186.000000	99.272189
3185.000000	99.280033
3184.000000	99.286977
3183.000000	99.291665
3182.000000	99.293509
3181.000000	99.293083
3180.000000	99.291955
3179.000000	99.291792
3178.000000	99.293395
3177.000000	99.296353
3176.000000	99.299268
3175.000000	99.300461
3174.000000	99.299232
3173.000000	99.296817
3172.000000	99.295756
3171.000000	99.297671
3170.000000	99.301787
3169.000000	99.305929
3168.000000	99.308803
3167.000000	99.310882
3166.000000	99.313074
3165.000000	99.315126
3164.000000	99.315838
3163.000000	99.314859
3162.000000	99.313829
3161.000000	99.315129
3160.000000	99.319260
3159.000000	99.323651
3158.000000	99.324611
3157.000000	99.320771
3156.000000	99.314452
3155.000000	99.309455
3154.000000	99.307676
3153.000000	99.308075
3152.000000	99.308744
3151.000000	99.309407
3150.000000	99.311470
3149.000000	99.315791
3148.000000	99.320883
3147.000000	99.323705
3146.000000	99.322432
3145.000000	99.318362
3144.000000	99.315083
3143.000000	99.315576
3142.000000	99.319971
3141.000000	99.325858
3140.000000	99.330679
3139.000000	99.333896
3138.000000	99.337162
3137.000000	99.342373
3136.000000	99.349375
3135.000000	99.355447
3134.000000	99.357383
3133.000000	99.354375
3132.000000	99.349013
3131.000000	99.345401
3130.000000	99.346230
3129.000000	99.351183
3128.000000	99.357493
3127.000000	99.361951
3126.000000	99.362974
3125.000000	99.361271
3124.000000	99.358689
3123.000000	99.356356
3122.000000	99.353938
3121.000000	99.350481
3120.000000	99.345664
3119.000000	99.340103
3118.000000	99.334863
3117.000000	99.331078
3116.000000	99.329825
3115.000000	99.331705
3114.000000	99.336132
3113.000000	99.341051
3112.000000	99.343818
3111.000000	99.342932
3110.000000	99.339472
3109.000000	99.336746
3108.000000	99.338081
3107.000000	99.344261
3106.000000	99.352692
3105.000000	99.359008
3104.000000	99.359929
3103.000000	99.355351
3102.000000	99.348282
3101.000000	99.342721
3100.000000	99.340826
3099.000000	99.341612
3098.000000	99.342303
3097.000000	99.341096
3096.000000	99.338517
3095.000000	99.336341
3094.000000	99.335754
3093.000000	99.336932
3092.000000	99.339802
3091.000000	99.344155
3090.000000	99.348841
3089.000000	99.351623
3088.000000	99.350629
3087.000000	99.346128
3086.000000	99.340562
3085.000000	99.336572
3084.000000	99.334900
3083.000000	99.334149
3082.000000	99.332601
3081.000000	99.330130
3080.000000	99.328265
3079.000000	99.328616
3078.000000	99.331573
3077.000000	99.336262
3076.000000	99.340964
3075.000000	99.343335
3074.000000	99.341216
3073.000000	99.334412
3072.000000	99.325755
3071.000000	99.319577
3070.000000	99.318476
3069.000000	99.321404
3068.000000	99.324796
3067.000000	99.325467
3066.000000	99.322913
3065.000000	99.319493
3064.000000	99.318428
3063.000000	99.321183
3062.000000	99.326383
3061.000000	99.331108
3060.000000	99.333161
3059.000000	99.332324
3058.000000	99.330205
3057.000000	99.329284
3056.000000	99.331439
3055.000000	99.336402
3054.000000	99.341461
3053.000000	99.343281
3052.000000	99.340337
3051.000000	99.333820
3050.000000	99.326665
3049.000000	99.321917
3048.000000	99.321356
3047.000000	99.324608
3046.000000	99.329399
3045.000000	99.333095
3044.000000	99.334278
3043.000000	99.333087
3042.000000	99.330675
3041.000000	99.328779
3040.000000	99.329240
3039.000000	99.332925
3038.000000	99.338923
3037.000000	99.345140
3036.000000	99.349697
3035.000000	99.351722
3034.000000	99.351361
3033.000000	99.349518
3032.000000	99.347099
3031.000000	99.344071
3030.000000	99.339981
3029.000000	99.335956
3028.000000	99.334964
3027.000000	99.338551
3026.000000	99.343889
3025.000000	99.345894
3024.000000	99.342498
3023.000000	99.336572
3022.000000	99.332616
3021.000000	99.333084
3020.000000	99.337841
3019.000000	99.344922
3018.000000	99.350701
3017.000000	99.351078
3016.000000	99.344479
3015.000000	99.333525
3014.000000	99.323140
3013.000000	99.317264
3012.000000	99.317182
3011.000000	99.321074
3010.000000	99.324357
3009.000000	99.322238
3008.000000	99.313833
3007.000000	99.303354
3006.000000	99.295928
3005.000000	99.292644
3004.000000	99.290556
3003.000000	99.286801
3002.000000	99.281286
3001.000000	99.275791
3000.000000	99.272036
2999.000000	99.270608
2998.000000	99.270318
2997.000000	99.268381
2996.000000	99.262474
2995.000000	99.252988
2994.000000	99.242326
2993.000000	99.231724
2992.000000	99.219822
2991.000000	99.204839
2990.000000	99.187199
2989.000000	99.169319
2988.000000	99.153513
2987.000000	99.140683
2986.000000	99.130273
2985.000000	99.120416
2984.000000	99.108270
2983.000000	99.091486
2982.000000	99.070037
2981.000000	99.046369
2980.000000	99.023287
2979.000000	99.001770
2978.000000	98.980880
2977.000000	98.959327
2976.000000	98.936284
2975.000000	98.910660
2974.000000	98.880581
2973.000000	98.844749
2972.000000	98.804313
2971.000000	98.762444
2970.000000	98.721741
2969.000000	98.682654
2968.000000	98.644840
2967.000000	98.609089
2966.000000	98.576661
2965.000000	98.546807
2964.000000	98.516197
2963.000000	98.481640
2962.000000	98.443026
2961.000000	98.403193
2960.000000	98.365265
2959.000000	98.330678
2958.000000	98.299544
2957.000000	98.271764
2956.000000	98.247361
2955.000000	98.226426
2954.000000	98.209628
2953.000000	98.198423
2952.000000	98.193515
2951.000000	98.192873
2950.000000	98.192078
2949.000000	98.187257
2948.000000	98.177116
2947.000000	98.161883
2946.000000	98.141215
2945.000000	98.114043
2944.000000	98.079910
2943.000000	98.038986
2942.000000	97.990891
2941.000000	97.934663
2940.000000	97.870370
2939.000000	97.799819
2938.000000	97.724863
2937.000000	97.645522
2936.000000	97.560096
2935.000000	97.467133
2934.000000	97.367184
2933.000000	97.262880
2932.000000	97.157286
2931.000000	97.051770
2930.000000	96.945751
2929.000000	96.838988
2928.000000	96.733954
2927.000000	96.635286
2926.000000	96.547081
2925.000000	96.471872
2924.000000	96.411821
2923.000000	96.369322
2922.000000	96.345450
2921.000000	96.339171
2920.000000	96.349691
2919.000000	96.378863
2918.000000	96.430469
2917.000000	96.507121
2916.000000	96.608500
2915.000000	96.731649
2914.000000	96.871004
2913.000000	97.018068
2912.000000	97.162493
2911.000000	97.295252
2910.000000	97.411148
2909.000000	97.509167
2908.000000	97.591640
2907.000000	97.662882
2906.000000	97.727217
2905.000000	97.786739
2904.000000	97.841000
2903.000000	97.888823
2902.000000	97.930490
2901.000000	97.967821
2900.000000	98.003358
2899.000000	98.039576
2898.000000	98.077885
2897.000000	98.117948
2896.000000	98.158092
2895.000000	98.196687
2894.000000	98.232702
2893.000000	98.264936
2892.000000	98.292067
2891.000000	98.314589
2890.000000	98.336007
2889.000000	98.360444
2888.000000	98.388478
2887.000000	98.416233
2886.000000	98.439253
2885.000000	98.456745
2884.000000	98.471516
2883.000000	98.486067
2882.000000	98.499638
2881.000000	98.509194
2880.000000	98.512519
2879.000000	98.509729
2878.000000	98.502143
2877.000000	98.490691
2876.000000	98.475843
2875.000000	98.458656
2874.000000	98.441175
2873.000000	98.425567
2872.000000	98.413144
2871.000000	98.404135
2870.000000	98.397765
2869.000000	98.392062
2868.000000	98.384064
2867.000000	98.371072
2866.000000	98.351967
2865.000000	98.326815
2864.000000	98.294921
2863.000000	98.254047
2862.000000	98.202012
2861.000000	98.138521
2860.000000	98.064456
2859.000000	97.979774
2858.000000	97.883787
2857.000000	97.778468
2856.000000	97.670560
2855.000000	97.569156
2854.000000	97.481814
2853.000000	97.413555
2852.000000	97.369331
2851.000000	97.356175
2850.000000	97.381750
2849.000000	97.450511
2848.000000	97.560051
2847.000000	97.700053
2846.000000	97.855000
2845.000000	98.009777
2844.000000	98.154234
2843.000000	98.284036
2842.000000	98.398280
2841.000000	98.497089
2840.000000	98.581378
2839.000000	98.652923
2838.000000	98.713602
2837.000000	98.764923
2836.000000	98.808636
2835.000000	98.847130
2834.000000	98.882369
2833.000000	98.914585
2832.000000	98.942648
2831.000000	98.965682
2830.000000	98.984039
2829.000000	98.999147
2828.000000	99.012763
2827.000000	99.026016
2826.000000	99.038692
2825.000000	99.049628
2824.000000	99.058202
2823.000000	99.065313
2822.000000	99.072715
2821.000000	99.081638
2820.000000	99.092042
2819.000000	99.102708
2818.000000	99.111926
2817.000000	99.118814
2816.000000	99.124314
2815.000000	99.130196
2814.000000	99.136640
2813.000000	99.141760
2812.000000	99.144362
2811.000000	99.146257
2810.000000	99.150432
2809.000000	99.157191
2808.000000	99.163621
2807.000000	99.167173
2806.000000	99.168522
2805.000000	99.170254
2804.000000	99.173612
2803.000000	99.177467
2802.000000	99.180251
2801.000000	99.182032
2800.000000	99.184351
2799.000000	99.188295
2798.000000	99.193147
2797.000000	99.197220
2796.000000	99.199825
2795.000000	99.201920
2794.000000	99.204653
2793.000000	99.207925
2792.000000	99.210880
2791.000000	99.213246
2790.000000	99.215460
2789.000000	99.217790
2788.000000	99.220235
2787.000000	99.223197
2786.000000	99.227250
2785.000000	99.231925
2784.000000	99.235491
2783.000000	99.236585
2782.000000	99.235768
2781.000000	99.235087
2780.000000	99.236134
2779.000000	99.238666
2778.000000	99.240988
2777.000000	99.241665
2776.000000	99.241048
2775.000000	99.241123
2774.000000	99.243661
2773.000000	99.248660
2772.000000	99.254788
2771.000000	99.260943
2770.000000	99.266715
2769.000000	99.271577
2768.000000	99.274666
2767.000000	99.275772
2766.000000	99.275891
2765.000000	99.276184
2764.000000	99.276753
2763.000000	99.276885
2762.000000	99.276202
2761.000000	99.274983
2760.000000	99.273477
2759.000000	99.271622
2758.000000	99.269709
2757.000000	99.268815
2756.000000	99.269992
2755.000000	99.273076
2754.000000	99.276724
2753.000000	99.279756
2752.000000	99.282044
2751.000000	99.283812
2750.000000	99.284494
2749.000000	99.283075
2748.000000	99.279712
2747.000000	99.276308
2746.000000	99.274965
2745.000000	99.276073
2744.000000	99.278292
2743.000000	99.280181
2742.000000	99.281435
2741.000000	99.282598
2740.000000	99.283996
2739.000000	99.285160
2738.000000	99.285308
2737.000000	99.284526
2736.000000	99.284305
2735.000000	99.286221
2734.000000	99.289771
2733.000000	99.292252
2732.000000	99.291683
2731.000000	99.289430
2730.000000	99.288851
2729.000000	99.291256
2728.000000	99.294269
2727.000000	99.294689
2726.000000	99.292112
2725.000000	99.289066
2724.000000	99.288195
2723.000000	99.290167
2722.000000	99.294043
2721.000000	99.298592
2720.000000	99.302832
2719.000000	99.305947
2718.000000	99.307513
2717.000000	99.308017
2716.000000	99.308760
2715.000000	99.310718
2714.000000	99.313365
2713.000000	99.314892
2712.000000	99.313892
2711.000000	99.310776
2710.000000	99.307364
2709.000000	99.305278
2708.000000	99.305173
2707.000000	99.307290
2706.000000	99.311810
2705.000000	99.317984
2704.000000	99.323441
2703.000000	99.325465
2702.000000	99.323462
2701.000000	99.319810
2700.000000	99.317752
2699.000000	99.318315
2698.000000	99.319492
2697.000000	99.318472
2696.000000	99.314605
2695.000000	99.310090
2694.000000	99.307911
2693.000000	99.309293
2692.000000	99.313139
2691.000000	99.317481
2690.000000	99.321023
2689.000000	99.323325
2688.000000	99.324146
2687.000000	99.323233
2686.000000	99.320832
2685.000000	99.317974
2684.000000	99.315825
2683.000000	99.314684
2682.000000	99.313833
2681.000000	99.312564
2680.000000	99.311233
2679.000000	99.310994
2678.000000	99.312402
2677.000000	99.314559
2676.000000	99.315915
2675.000000	99.315779
2674.000000	99.314797
2673.000000	99.314121
2672.000000	99.314556
2671.000000	99.316413
2670.000000	99.319488
2669.000000	99.322743
2668.000000	99.324506
2667.000000	99.323700
2666.000000	99.320767
2665.000000	99.316878
2664.000000	99.312326
2663.000000	99.306501
2662.000000	99.299708
2661.000000	99.294101
2660.000000	99.291976
2659.000000	99.293490
2658.000000	99.297003
2657.000000	99.301499
2656.000000	99.307440
2655.000000	99.314700
2654.000000	99.320854
2653.000000	99.323041
2652.000000	99.321387
2651.000000	99.319269
2650.000000	99.319718
2649.000000	99.322430
2648.000000	99.324994
2647.000000	99.326261
2646.000000	99.327288
2645.000000	99.329073
2644.000000	99.330744
2643.000000	99.330679
2642.000000	99.328702
2641.000000	99.326311
2640.000000	99.325059
2639.000000	99.325587
2638.000000	99.328121
2637.000000	99.332725
2636.000000	99.338504
2635.000000	99.343454
2634.000000	99.346165
2633.000000	99.347506
2632.000000	99.349768
2631.000000	99.354044
2630.000000	99.359130
2629.000000	99.363109
2628.000000	99.365296
2627.000000	99.366348
2626.000000	99.367042
2625.000000	99.367477
2624.000000	99.367326
2623.000000	99.366517
2622.000000	99.365702
2621.000000	99.365935
2620.000000	99.367512
2619.000000	99.369268
2618.000000	99.369662
2617.000000	99.368636
2616.000000	99.367736
2615.000000	99.368402
2614.000000	99.371009
2613.000000	99.375600
2612.000000	99.381956
2611.000000	99.388052
2610.000000	99.390103
2609.000000	99.386210
2608.000000	99.379519
2607.000000	99.375841
2606.000000	99.377843
2605.000000	99.383080
2604.000000	99.387912
2603.000000	99.391591
2602.000000	99.395511
2601.000000	99.399816
2600.000000	99.402539
2599.000000	99.401851
2598.000000	99.397911
2597.000000	99.392381
2596.000000	99.387154
2595.000000	99.384070
2594.000000	99.384893
2593.000000	99.390194
2592.000000	99.397904
2591.000000	99.403961
2590.000000	99.405520
2589.000000	99.403658
2588.000000	99.402393
2587.000000	99.404778
2586.000000	99.410170
2585.000000	99.415211
2584.000000	99.417153
2583.000000	99.416587
2582.000000	99.417436
2581.000000	99.423723
2580.000000	99.434989
2579.000000	99.444968
2578.000000	99.446521
2577.000000	99.438624
2576.000000	99.427642
2575.000000	99.421375
2574.000000	99.422873
2573.000000	99.429776
2572.000000	99.437091
2571.000000	99.439750
2570.000000	99.435339
2569.000000	99.426991
2568.000000	99.422124
2567.000000	99.425640
2566.000000	99.435072
2565.000000	99.444243
2564.000000	99.450414
2563.000000	99.455098
2562.000000	99.459102
2561.000000	99.460552
2560.000000	99.458066
2559.000000	99.452585
2558.000000	99.445140
2557.000000	99.435721
2556.000000	99.425557
2555.000000	99.417862
2554.000000	99.414518
2553.000000	99.413991
2552.000000	99.414294
2551.000000	99.416341
2550.000000	99.422284
2549.000000	99.431312
2548.000000	99.439026
2547.000000	99.441176
2546.000000	99.437428
2545.000000	99.431799
2544.000000	99.429592
2543.000000	99.432890
2542.000000	99.438377
2541.000000	99.440323
2540.000000	99.436187
2539.000000	99.428505
2538.000000	99.421395
2537.000000	99.416773
2536.000000	99.414474
2535.000000	99.414109
2534.000000	99.415225
2533.000000	99.416770
2532.000000	99.417943
2531.000000	99.419094
2530.000000	99.420558
2529.000000	99.421105
2528.000000	99.418678
2527.000000	99.412549
2526.000000	99.404118
2525.000000	99.396023
2524.000000	99.391056
2523.000000	99.391133
2522.000000	99.396038
2521.000000	99.403057
2520.000000	99.408414
2519.000000	99.409243
2518.000000	99.404447
2517.000000	99.394809
2516.000000	99.383182
2515.000000	99.373796
2514.000000	99.369875
2513.000000	99.371345
2512.000000	99.375114
2511.000000	99.377635
2510.000000	99.376931
2509.000000	99.372653
2508.000000	99.365379
2507.000000	99.356768
2506.000000	99.350099
2505.000000	99.349138
2504.000000	99.355072
2503.000000	99.364601
2502.000000	99.372523
2501.000000	99.376892
2500.000000	99.380434
2499.000000	99.386007
2498.000000	99.391931
2497.000000	99.393649
2496.000000	99.389482
2495.000000	99.382712
2494.000000	99.377908
2493.000000	99.376922
2492.000000	99.378912
2491.000000	99.382591
2490.000000	99.387465
2489.000000	99.393972
2488.000000	99.403014
2487.000000	99.414255
2486.000000	99.424358
2485.000000	99.428318
2484.000000	99.424074
2483.000000	99.415365
2482.000000	99.409024
2481.000000	99.409686
2480.000000	99.417144
2479.000000	99.427784
2478.000000	99.437506
2477.000000	99.443989
2476.000000	99.447827
2475.000000	99.451892
2474.000000	99.458760
2473.000000	99.468081
2472.000000	99.476578
2471.000000	99.480665
2470.000000	99.479014
2469.000000	99.472819
2468.000000	99.464387
2467.000000	99.456242
2466.000000	99.451024
2465.000000	99.450510
2464.000000	99.453614
2463.000000	99.456472
2462.000000	99.456387
2461.000000	99.455400
2460.000000	99.457859
2459.000000	99.464168
2458.000000	99.469495
2457.000000	99.469850
2456.000000	99.467336
2455.000000	99.467238
2454.000000	99.471353
2453.000000	99.476566
2452.000000	99.478929
2451.000000	99.476616
2450.000000	99.469725
2449.000000	99.460387
2448.000000	99.453519
2447.000000	99.454563
2446.000000	99.464675
2445.000000	99.479023
2444.000000	99.490485
2443.000000	99.494388
2442.000000	99.490340
2441.000000	99.481623
2440.000000	99.473370
2439.000000	99.469666
2438.000000	99.471362
2437.000000	99.476978
2436.000000	99.485236
2435.000000	99.495237
2434.000000	99.504614
2433.000000	99.509986
2432.000000	99.510266
2431.000000	99.508149
2430.000000	99.507426
2429.000000	99.509763
2428.000000	99.514282
2427.000000	99.518903
2426.000000	99.521464
2425.000000	99.520790
2424.000000	99.517632
2423.000000	99.513842
2422.000000	99.510069
2421.000000	99.505090
2420.000000	99.497894
2419.000000	99.489731
2418.000000	99.483566
2417.000000	99.481791
2416.000000	99.484525
2415.000000	99.489670
2414.000000	99.494558
2413.000000	99.497878
2412.000000	99.499891
2411.000000	99.500677
2410.000000	99.499219
2409.000000	99.495218
2408.000000	99.491049
2407.000000	99.490284
2406.000000	99.493907
2405.000000	99.498829
2404.000000	99.500457
2403.000000	99.496927
2402.000000	99.491358
2401.000000	99.489883
2400.000000	99.496134
2399.000000	99.507022
2398.000000	99.515409
2397.000000	99.517582
2396.000000	99.516246
2395.000000	99.515140
2394.000000	99.513332
2393.000000	99.507550
2392.000000	99.498195
2391.000000	99.489851
2390.000000	99.486283
2389.000000	99.487777
2388.000000	99.493274
2387.000000	99.501622
2386.000000	99.511081
2385.000000	99.519662
2384.000000	99.526776
2383.000000	99.533135
2382.000000	99.537945
2381.000000	99.539309
2380.000000	99.537058
2379.000000	99.533257
2378.000000	99.529802
2377.000000	99.526920
2376.000000	99.524540
2375.000000	99.523209
2374.000000	99.524096
2373.000000	99.528579
2372.000000	99.537223
2371.000000	99.547362
2370.000000	99.554165
2369.000000	99.556126
2368.000000	99.555096
2367.000000	99.551504
2366.000000	99.543766
2365.000000	99.533745
2364.000000	99.526840
2363.000000	99.522541
2362.000000	99.515378
2361.000000	99.508291
2360.000000	99.510797
2359.000000	99.526748
2358.000000	99.547309
2357.000000	99.560655
2356.000000	99.561372
2355.000000	99.548096
2354.000000	99.529333
2353.000000	99.517876
2352.000000	99.517372
2351.000000	99.519717
2350.000000	99.516075
2349.000000	99.506764
2348.000000	99.498334
2347.000000	99.500000
2346.000000	99.510975
2345.000000	99.515377
2344.000000	99.502210
2343.000000	99.480042
2342.000000	99.467957
2341.000000	99.472302
2340.000000	99.482243
2339.000000	99.485933
2338.000000	99.484804
2337.000000	99.486459
2336.000000	99.491773
2335.000000	99.495422
2334.000000	99.497120
2333.000000	99.500938
2332.000000	99.506118
2331.000000	99.508056
2330.000000	99.504370
2329.000000	99.498771
2328.000000	99.491750
2327.000000	99.481808
2326.000000	99.469345
2325.000000	99.457043
2324.000000	99.448255
2323.000000	99.442130
2322.000000	99.435882
2321.000000	99.425606
2320.000000	99.411648
2319.000000	99.398721
2318.000000	99.390168
2317.000000	99.385425
2316.000000	99.383520
2315.000000	99.388799
2314.000000	99.405214
2313.000000	99.428694
2312.000000	99.447709
2311.000000	99.454776
2310.000000	99.452486
2309.000000	99.448784
2308.000000	99.448984
2307.000000	99.452891
2306.000000	99.457322
2305.000000	99.459356
2304.000000	99.460105
2303.000000	99.463395
2302.000000	99.471261
2301.000000	99.481019
2300.000000	99.489059
2299.000000	99.495305
2298.000000	99.499794
2297.000000	99.498509
2296.000000	99.485740
2295.000000	99.463460
2294.000000	99.443013
2293.000000	99.436242
2292.000000	99.444989
2291.000000	99.459940
2290.000000	99.468820
2289.000000	99.465522
2288.000000	99.453814
2287.000000	99.442474
2286.000000	99.437377
2285.000000	99.437963
2284.000000	99.441355
2283.000000	99.446057
2282.000000	99.451094
2281.000000	99.454590
2280.000000	99.456901
2279.000000	99.461564
2278.000000	99.469195
2277.000000	99.473167
2276.000000	99.466630
2275.000000	99.453377
2274.000000	99.446074
2273.000000	99.453369
2272.000000	99.471883
2271.000000	99.491157
2270.000000	99.502445
2269.000000	99.503040
2268.000000	99.497259
2267.000000	99.494616
2266.000000	99.502482
2265.000000	99.518147
2264.000000	99.530805
2263.000000	99.533107
2262.000000	99.527622
2261.000000	99.520414
2260.000000	99.512374
2259.000000	99.500050
2258.000000	99.483625
2257.000000	99.469623
2256.000000	99.464805
2255.000000	99.468830
2254.000000	99.474611
2253.000000	99.476229
2252.000000	99.474995
2251.000000	99.476807
2250.000000	99.484645
2249.000000	99.496340
2248.000000	99.509544
2247.000000	99.524923
2246.000000	99.542064
2245.000000	99.555745
2244.000000	99.560662
2243.000000	99.558861
2242.000000	99.558194
2241.000000	99.562775
2240.000000	99.567844
2239.000000	99.565380
2238.000000	99.553078
2237.000000	99.536341
2236.000000	99.522318
2235.000000	99.513852
2234.000000	99.510478
2233.000000	99.513609
2232.000000	99.526523
2231.000000	99.547111
2230.000000	99.564260
2229.000000	99.566640
2228.000000	99.554981
2227.000000	99.541702
2226.000000	99.538617
2225.000000	99.548603
2224.000000	99.567384
2223.000000	99.586836
2222.000000	99.595837
2221.000000	99.585242
2220.000000	99.556480
2219.000000	99.521419
2218.000000	99.491785
2217.000000	99.473209
2216.000000	99.469813
2215.000000	99.486846
2214.000000	99.523711
2213.000000	99.568871
2212.000000	99.606990
2211.000000	99.628921
2210.000000	99.631873
2209.000000	99.615478
2208.000000	99.583798
2207.000000	99.547856
2206.000000	99.520641
2205.000000	99.509406
2204.000000	99.513057
2203.000000	99.523596
2202.000000	99.529041
2201.000000	99.520817
2200.000000	99.503247
2199.000000	99.492036
2198.000000	99.498532
2197.000000	99.517319
2196.000000	99.532931
2195.000000	99.537355
2194.000000	99.537362
2193.000000	99.545260
2192.000000	99.563946
2191.000000	99.580563
2190.000000	99.576252
2189.000000	99.546283
2188.000000	99.510686
2187.000000	99.498372
2186.000000	99.518597
2185.000000	99.552314
2184.000000	99.572017
2183.000000	99.565839
2182.000000	99.541952
2181.000000	99.517792
2180.000000	99.508668
2179.000000	99.519805
2178.000000	99.544141
2177.000000	99.569212
2176.000000	99.587689
2175.000000	99.599164
2174.000000	99.602581
2173.000000	99.593281
2172.000000	99.568825
2171.000000	99.532736
2170.000000	99.493561
2169.000000	99.465088
2168.000000	99.461504
2167.000000	99.482118
2166.000000	99.505115
2165.000000	99.508986
2164.000000	99.499809
2163.000000	99.502109
2162.000000	99.523453
2161.000000	99.549672
2160.000000	99.578266
2159.000000	99.629833
2158.000000	99.707699
2157.000000	99.774970
2156.000000	99.796762
2155.000000	99.777207
2154.000000	99.741224
2153.000000	99.707204
2152.000000	99.685472
2151.000000	99.681786
2150.000000	99.689902
2149.000000	99.691435
2148.000000	99.675030
2147.000000	99.650014
2146.000000	99.635093
2145.000000	99.640307
2144.000000	99.663577
2143.000000	99.696109
2142.000000	99.725868
2141.000000	99.743749
2140.000000	99.752183
2139.000000	99.760977
2138.000000	99.771430
2137.000000	99.773432
2136.000000	99.761502
2135.000000	99.743810
2134.000000	99.729976
2133.000000	99.719528
2132.000000	99.707555
2131.000000	99.692645
2130.000000	99.673825
2129.000000	99.648100
2128.000000	99.617491
2127.000000	99.592158
2126.000000	99.580657
2125.000000	99.581221
2124.000000	99.586633
2123.000000	99.592181
2122.000000	99.594134
2121.000000	99.586697
2120.000000	99.568696
2119.000000	99.549973
2118.000000	99.543478
2117.000000	99.551885
2116.000000	99.566552
2115.000000	99.578183
2114.000000	99.583438
2113.000000	99.582986
2112.000000	99.579149
2111.000000	99.575451
2110.000000	99.574105
2109.000000	99.573443
2108.000000	99.570566
2107.000000	99.566071
2106.000000	99.563762
2105.000000	99.566773
2104.000000	99.575831
2103.000000	99.589327
2102.000000	99.603018
2101.000000	99.612145
2100.000000	99.616155
2099.000000	99.618507
2098.000000	99.620231
2097.000000	99.618181
2096.000000	99.612448
2095.000000	99.609551
2094.000000	99.613023
2093.000000	99.615930
2092.000000	99.609486
2091.000000	99.595615
2090.000000	99.583875
2089.000000	99.577328
2088.000000	99.568111
2087.000000	99.548899
2086.000000	99.524335
2085.000000	99.508437
2084.000000	99.511847
2083.000000	99.532164
2082.000000	99.555856
2081.000000	99.568757
2080.000000	99.565816
2079.000000	99.552382
2078.000000	99.538423
2077.000000	99.532740
2076.000000	99.538907
2075.000000	99.552092
2074.000000	99.561445
2073.000000	99.561413
2072.000000	99.560016
2071.000000	99.569030
2070.000000	99.586220
2069.000000	99.595320
2068.000000	99.586210
2067.000000	99.567030
2066.000000	99.552376
2065.000000	99.546720
2064.000000	99.544648
2063.000000	99.542634
2062.000000	99.543456
2061.000000	99.550025
2060.000000	99.558223
2059.000000	99.555809
2058.000000	99.531451
2057.000000	99.490534
2056.000000	99.458774
2055.000000	99.459313
2054.000000	99.485571
2053.000000	99.508687
2052.000000	99.514472
2051.000000	99.519448
2050.000000	99.544501
2049.000000	99.583863
2048.000000	99.611259
2047.000000	99.611379
2046.000000	99.591454
2045.000000	99.567089
2044.000000	99.551187
2043.000000	99.551213
2042.000000	99.564377
2041.000000	99.578045
2040.000000	99.583743
2039.000000	99.585675
2038.000000	99.588434
2037.000000	99.586705
2036.000000	99.578039
2035.000000	99.576423
2034.000000	99.597867
2033.000000	99.635714
2032.000000	99.662412
2031.000000	99.654945
2030.000000	99.612500
2029.000000	99.559023
2028.000000	99.534627
2027.000000	99.568548
2026.000000	99.648562
2025.000000	99.723578
2024.000000	99.748000
2023.000000	99.720393
2022.000000	99.673363
2021.000000	99.638995
2020.000000	99.630262
2019.000000	99.641745
2018.000000	99.657864
2017.000000	99.667518
2016.000000	99.677218
2015.000000	99.699915
2014.000000	99.729379
2013.000000	99.741740
2012.000000	99.727992
2011.000000	99.708186
2010.000000	99.703147
2009.000000	99.708637
2008.000000	99.709920
2007.000000	99.706855
2006.000000	99.706765
2005.000000	99.704555
2004.000000	99.690232
2003.000000	99.667863
2002.000000	99.651739
2001.000000	99.647924
2000.000000	99.648929
1999.000000	99.643472
1998.000000	99.625505
1997.000000	99.598717
1996.000000	99.577787
1995.000000	99.579869
1994.000000	99.610007
1993.000000	99.656706
1992.000000	99.701956
1991.000000	99.730699
1990.000000	99.729637
1989.000000	99.690804
1988.000000	99.626793
1987.000000	99.569782
1986.000000	99.542332
1985.000000	99.536022
1984.000000	99.527005
1983.000000	99.503896
1982.000000	99.472017
1981.000000	99.442053
1980.000000	99.429107
1979.000000	99.454437
1978.000000	99.528140
1977.000000	99.627122
1976.000000	99.707979
1975.000000	99.746391
1974.000000	99.750007
1973.000000	99.739542
1972.000000	99.732162
1971.000000	99.736016
1970.000000	99.748552
1969.000000	99.760450
1968.000000	99.765740
1967.000000	99.767443
1966.000000	99.772634
1965.000000	99.785442
1964.000000	99.804036
1963.000000	99.817733
1962.000000	99.808846
1961.000000	99.768959
1960.000000	99.713067
1959.000000	99.665334
1958.000000	99.634558
1957.000000	99.616360
1956.000000	99.612565
1955.000000	99.630824
1954.000000	99.665040
1953.000000	99.692615
1952.000000	99.696444
1951.000000	99.679451
1950.000000	99.655667
1949.000000	99.637784
1948.000000	99.634380
1947.000000	99.645940
1946.000000	99.659723
1945.000000	99.660933
1944.000000	99.652989
1943.000000	99.654908
1942.000000	99.671873
1941.000000	99.684642
1940.000000	99.679606
1939.000000	99.668168
1938.000000	99.667466
1937.000000	99.679146
1936.000000	99.694356
1935.000000	99.709703
1934.000000	99.726523
1933.000000	99.739967
1932.000000	99.740523
1931.000000	99.725150
1930.000000	99.700884
1929.000000	99.679356
1928.000000	99.672701
1927.000000	99.688280
1926.000000	99.720247
1925.000000	99.748389
1924.000000	99.751264
1923.000000	99.725304
1922.000000	99.688160
1921.000000	99.660295
1920.000000	99.649380
1919.000000	99.651465
1918.000000	99.656638
1917.000000	99.655152
1916.000000	99.645202
1915.000000	99.632992
1914.000000	99.624244
1913.000000	99.619620
1912.000000	99.617475
1911.000000	99.617703
1910.000000	99.621636
1909.000000	99.629349
1908.000000	99.639832
1907.000000	99.651591
1906.000000	99.661833
1905.000000	99.667772
1904.000000	99.669756
1903.000000	99.670663
1902.000000	99.670225
1901.000000	99.664878
1900.000000	99.656394
1899.000000	99.653556
1898.000000	99.661325
1897.000000	99.673340
1896.000000	99.678881
1895.000000	99.675753
1894.000000	99.671376
1893.000000	99.671922
1892.000000	99.675790
1891.000000	99.676754
1890.000000	99.670773
1889.000000	99.662496
1888.000000	99.662290
1887.000000	99.673984
1886.000000	99.689736
1885.000000	99.698466
1884.000000	99.697832
1883.000000	99.694522
1882.000000	99.692750
1881.000000	99.690172
1880.000000	99.686964
1879.000000	99.688965
1878.000000	99.698333
1877.000000	99.709322
1876.000000	99.716555
1875.000000	99.720508
1874.000000	99.721621
1873.000000	99.716825
1872.000000	99.707309
1871.000000	99.702514
1870.000000	99.709754
1869.000000	99.722588
1868.000000	99.728882
1867.000000	99.729311
1866.000000	99.733132
1865.000000	99.741758
1864.000000	99.748858
1863.000000	99.749392
1862.000000	99.742089
1861.000000	99.727669
1860.000000	99.710639
1859.000000	99.699726
1858.000000	99.700364
1857.000000	99.708060
1856.000000	99.714427
1855.000000	99.717481
1854.000000	99.720255
1853.000000	99.722018
1852.000000	99.719428
1851.000000	99.714307
1850.000000	99.712604
1849.000000	99.717004
1848.000000	99.724186
1847.000000	99.730813
1846.000000	99.737864
1845.000000	99.747447
1844.000000	99.757550
1843.000000	99.762972
1842.000000	99.761254
1841.000000	99.754384
1840.000000	99.747267
1839.000000	99.744524
1838.000000	99.746428
1837.000000	99.749026
1836.000000	99.749689
1835.000000	99.750478
1834.000000	99.754108
1833.000000	99.760317
1832.000000	99.767270
1831.000000	99.770596
1830.000000	99.764137
1829.000000	99.749865
1828.000000	99.737753
1827.000000	99.732892
1826.000000	99.731270
1825.000000	99.728207
1824.000000	99.727261
1823.000000	99.734234
1822.000000	99.746355
1821.000000	99.755231
1820.000000	99.757775
1819.000000	99.759076
1818.000000	99.764706
1817.000000	99.774002
1816.000000	99.782361
1815.000000	99.787370
1814.000000	99.788639
1813.000000	99.785807
1812.000000	99.779864
1811.000000	99.772713
1810.000000	99.764648
1809.000000	99.753960
1808.000000	99.741113
1807.000000	99.730583
1806.000000	99.724671
1805.000000	99.718632
1804.000000	99.705285
1803.000000	99.682774
1802.000000	99.654577
1801.000000	99.626448
1800.000000	99.604406
1799.000000	99.591115
1798.000000	99.584096
1797.000000	99.577003
1796.000000	99.564585
1795.000000	99.547212
1794.000000	99.529000
1793.000000	99.516118
1792.000000	99.517424
1791.000000	99.537479
1790.000000	99.568893
1789.000000	99.598117
1788.000000	99.616819
1787.000000	99.626819
1786.000000	99.636567
1785.000000	99.651333
1784.000000	99.668071
1783.000000	99.681518
1782.000000	99.688783
1781.000000	99.689799
1780.000000	99.688888
1779.000000	99.691665
1778.000000	99.699396
1777.000000	99.707801
1776.000000	99.713097
1775.000000	99.716090
1774.000000	99.717764
1773.000000	99.714579
1772.000000	99.705709
1771.000000	99.697379
1770.000000	99.692050
1769.000000	99.685879
1768.000000	99.676612
1767.000000	99.667599
1766.000000	99.662875
1765.000000	99.661308
1764.000000	99.658991
1763.000000	99.652764
1762.000000	99.641069
1761.000000	99.626653
1760.000000	99.614675
1759.000000	99.606247
1758.000000	99.597339
1757.000000	99.582604
1756.000000	99.564181
1755.000000	99.547734
1754.000000	99.531212
1753.000000	99.506795
1752.000000	99.471178
1751.000000	99.430856
1750.000000	99.392513
1749.000000	99.352194
1748.000000	99.306734
1747.000000	99.263568
1746.000000	99.227210
1745.000000	99.192857
1744.000000	99.156260
1743.000000	99.119676
1742.000000	99.085225
1741.000000	99.049088
1740.000000	99.009100
1739.000000	98.974147
1738.000000	98.950937
1737.000000	98.935881
1736.000000	98.926914
1735.000000	98.935290
1734.000000	98.972059
1733.000000	99.019384
1732.000000	99.054942
1731.000000	99.083697
1730.000000	99.117788
1729.000000	99.158421
1728.000000	99.200818
1727.000000	99.240329
1726.000000	99.274123
1725.000000	99.300375
1724.000000	99.321497
1723.000000	99.341847
1722.000000	99.361916
1721.000000	99.377138
1720.000000	99.385923
1719.000000	99.390213
1718.000000	99.391046
1717.000000	99.390558
1716.000000	99.388245
1715.000000	99.383681
1714.000000	99.380551
1713.000000	99.379656
1712.000000	99.380693
1711.000000	99.386365
1710.000000	99.398007
1709.000000	99.410188
1708.000000	99.415948
1707.000000	99.414623
1706.000000	99.412050
1705.000000	99.413807
1704.000000	99.415927
1703.000000	99.411398
1702.000000	99.398528
1701.000000	99.379940
1700.000000	99.363017
1699.000000	99.356277
1698.000000	99.355624
1697.000000	99.347749
1696.000000	99.328992
1695.000000	99.309864
1694.000000	99.298221
1693.000000	99.288659
1692.000000	99.275420
1691.000000	99.257717
1690.000000	99.236456
1689.000000	99.211021
1688.000000	99.183753
1687.000000	99.159314
1686.000000	99.138642
1685.000000	99.111251
1684.000000	99.069695
1683.000000	99.032848
1682.000000	99.009617
1681.000000	98.988081
1680.000000	98.964124
1679.000000	98.939489
1678.000000	98.914912
1677.000000	98.885743
1676.000000	98.854456
1675.000000	98.834809
1674.000000	98.832277
1673.000000	98.832636
1672.000000	98.823557
1671.000000	98.806093
1670.000000	98.790167
1669.000000	98.783490
1668.000000	98.784219
1667.000000	98.786806
1666.000000	98.786131
1665.000000	98.779127
1664.000000	98.765745
1663.000000	98.748752
1662.000000	98.731818
1661.000000	98.715472
1660.000000	98.700959
1659.000000	98.689801
1658.000000	98.680916
1657.000000	98.669290
1656.000000	98.656381
1655.000000	98.649383
1654.000000	98.648929
1653.000000	98.641317
1652.000000	98.627752
1651.000000	98.621708
1650.000000	98.619839
1649.000000	98.617044
1648.000000	98.609626
1647.000000	98.607488
1646.000000	98.619464
1645.000000	98.636971
1644.000000	98.649170
1643.000000	98.657755
1642.000000	98.665567
1641.000000	98.674910
1640.000000	98.686709
1639.000000	98.700498
1638.000000	98.714481
1637.000000	98.724857
1636.000000	98.731044
1635.000000	98.740168
1634.000000	98.753128
1633.000000	98.765655
1632.000000	98.777480
1631.000000	98.790945
1630.000000	98.808079
1629.000000	98.826421
1628.000000	98.843790
1627.000000	98.861849
1626.000000	98.881123
1625.000000	98.899808
1624.000000	98.918940
1623.000000	98.941828
1622.000000	98.965729
1621.000000	98.982847
1620.000000	98.993430
1619.000000	99.004437
1618.000000	99.020080
1617.000000	99.037914
1616.000000	99.055234
1615.000000	99.073176
1614.000000	99.089639
1613.000000	99.101206
1612.000000	99.109916
1611.000000	99.122892
1610.000000	99.141512
1609.000000	99.157651
1608.000000	99.166296
1607.000000	99.172880
1606.000000	99.182527
1605.000000	99.192691
1604.000000	99.200334
1603.000000	99.205730
1602.000000	99.208385
1601.000000	99.205988
1600.000000	99.199446
1599.000000	99.193086
1598.000000	99.188134
1597.000000	99.182163
1596.000000	99.174684
1595.000000	99.167902
1594.000000	99.161305
1593.000000	99.151476
1592.000000	99.138875
1591.000000	99.127512
1590.000000	99.116479
1589.000000	99.099647
1588.000000	99.075917
1587.000000	99.051250
1586.000000	99.028272
1585.000000	99.001689
1584.000000	98.968520
1583.000000	98.933776
1582.000000	98.901684
1581.000000	98.870937
1580.000000	98.841291
1579.000000	98.817350
1578.000000	98.802105
1577.000000	98.792272
1576.000000	98.787000
1575.000000	98.792373
1574.000000	98.805174
1573.000000	98.816216
1572.000000	98.824980
1571.000000	98.837127
1570.000000	98.856015
1569.000000	98.875627
1568.000000	98.892251
1567.000000	98.908225
1566.000000	98.922292
1565.000000	98.928159
1564.000000	98.925007
1563.000000	98.919422
1562.000000	98.914406
1561.000000	98.911129
1560.000000	98.903326
1559.000000	98.874187
1558.000000	98.844009
1557.000000	98.823152
1556.000000	98.799696
1555.000000	98.779054
1554.000000	98.756661
1553.000000	98.731462
1552.000000	98.697162
1551.000000	98.653439
1550.000000	98.602511
1549.000000	98.550776
1548.000000	98.500040
1547.000000	98.444479
1546.000000	98.374776
1545.000000	98.287861
1544.000000	98.196453
1543.000000	98.117847
1542.000000	98.053471
1541.000000	97.991823
1540.000000	97.941154
1539.000000	97.923118
1538.000000	97.924081
1537.000000	97.922786
1536.000000	97.919208
1535.000000	97.919498
1534.000000	97.927313
1533.000000	97.934656
1532.000000	97.934853
1531.000000	97.928011
1530.000000	97.915010
1529.000000	97.892623
1528.000000	97.859212
1527.000000	97.818401
1526.000000	97.774421
1525.000000	97.729390
1524.000000	97.684487
1523.000000	97.636653
1522.000000	97.576386
1521.000000	97.507920
1520.000000	97.452357
1519.000000	97.412700
1518.000000	97.368057
1517.000000	97.301838
1516.000000	97.225635
1515.000000	97.159908
1514.000000	97.101127
1513.000000	97.037190
1512.000000	96.969774
1511.000000	96.909402
1510.000000	96.856684
1509.000000	96.800402
1508.000000	96.727681
1507.000000	96.640810
1506.000000	96.562752
1505.000000	96.499532
1504.000000	96.444375
1503.000000	96.392836
1502.000000	96.334738
1501.000000	96.266276
1500.000000	96.191398
1499.000000	96.117663
1498.000000	96.038877
1497.000000	95.945632
1496.000000	95.850252
1495.000000	95.772888
1494.000000	95.709978
1493.000000	95.644848
1492.000000	95.570799
1491.000000	95.492056
1490.000000	95.413415
1489.000000	95.337704
1488.000000	95.267087
1487.000000	95.200224
1486.000000	95.132411
1485.000000	95.058715
1484.000000	94.981063
1483.000000	94.903770
1482.000000	94.824690
1481.000000	94.740890
1480.000000	94.656294
1479.000000	94.574856
1478.000000	94.490610
1477.000000	94.394994
1476.000000	94.289867
1475.000000	94.183878
1474.000000	94.073653
1473.000000	93.950655
1472.000000	93.831720
1471.000000	93.737577
1470.000000	93.658984
1469.000000	93.580368
1468.000000	93.501542
1467.000000	93.429550
1466.000000	93.364567
1465.000000	93.299446
1464.000000	93.236874
1463.000000	93.184826
1462.000000	93.139938
1461.000000	93.092381
1460.000000	93.036048
1459.000000	92.968615
1458.000000	92.885385
1457.000000	92.799436
1456.000000	92.743288
1455.000000	92.715391
1454.000000	92.687337
1453.000000	92.647450
1452.000000	92.601266
1451.000000	92.557645
1450.000000	92.514545
1449.000000	92.466693
1448.000000	92.416966
1447.000000	92.371893
1446.000000	92.328477
1445.000000	92.280251
1444.000000	92.228995
1443.000000	92.179534
1442.000000	92.131721
1441.000000	92.082257
1440.000000	92.030753
1439.000000	91.977691
1438.000000	91.921127
1437.000000	91.863483
1436.000000	91.817909
1435.000000	91.788042
1434.000000	91.757121
1433.000000	91.712916
1432.000000	91.658650
1431.000000	91.601645
1430.000000	91.540692
1429.000000	91.473092
1428.000000	91.406714
1427.000000	91.349387
1426.000000	91.295824
1425.000000	91.235691
1424.000000	91.170122
1423.000000	91.106204
1422.000000	91.040211
1421.000000	90.963428
1420.000000	90.879522
1419.000000	90.803283
1418.000000	90.739522
1417.000000	90.679733
1416.000000	90.620189
1415.000000	90.561520
1414.000000	90.499204
1413.000000	90.431216
1412.000000	90.366767
1411.000000	90.315882
1410.000000	90.273311
1409.000000	90.229066
1408.000000	90.186764
1407.000000	90.157592
1406.000000	90.143569
1405.000000	90.139820
1404.000000	90.147245
1403.000000	90.163945
1402.000000	90.177220
1401.000000	90.178387
1400.000000	90.174711
1399.000000	90.177340
1398.000000	90.181854
1397.000000	90.178905
1396.000000	90.176402
1395.000000	90.190668
1394.000000	90.220858
1393.000000	90.255177
1392.000000	90.293318
1391.000000	90.339335
1390.000000	90.390053
1389.000000	90.444650
1388.000000	90.514615
1387.000000	90.607469
1386.000000	90.707607
1385.000000	90.798449
1384.000000	90.886575
1383.000000	90.984691
1382.000000	91.091455
1381.000000	91.199180
1380.000000	91.309222
1379.000000	91.425938
1378.000000	91.543898
1377.000000	91.657815
1376.000000	91.776992
1375.000000	91.914817
1374.000000	92.065993
1373.000000	92.211439
1372.000000	92.344153
1371.000000	92.470675
1370.000000	92.595637
1369.000000	92.719393
1368.000000	92.842033
1367.000000	92.960207
1366.000000	93.069321
1365.000000	93.174988
1364.000000	93.293792
1363.000000	93.435206
1362.000000	93.587037
1361.000000	93.731253
1360.000000	93.864687
1359.000000	93.990874
1358.000000	94.109110
1357.000000	94.220391
1356.000000	94.330799
1355.000000	94.442055
1354.000000	94.547776
1353.000000	94.645026
1352.000000	94.739309
1351.000000	94.834163
1350.000000	94.925365
1349.000000	95.008757
1348.000000	95.086455
1347.000000	95.160542
1346.000000	95.229130
1345.000000	95.292062
1344.000000	95.352649
1343.000000	95.411037
1342.000000	95.464289
1341.000000	95.514765
1340.000000	95.570413
1339.000000	95.632266
1338.000000	95.690868
1337.000000	95.741563
1336.000000	95.789945
1335.000000	95.839203
1334.000000	95.885089
1333.000000	95.925225
1332.000000	95.964578
1331.000000	96.008431
1330.000000	96.056234
1329.000000	96.104999
1328.000000	96.152733
1327.000000	96.196755
1326.000000	96.234673
1325.000000	96.268815
1324.000000	96.304389
1323.000000	96.341255
1322.000000	96.373965
1321.000000	96.400728
1320.000000	96.426113
1319.000000	96.453929
1318.000000	96.483600
1317.000000	96.514770
1316.000000	96.548394
1315.000000	96.582386
1314.000000	96.613468
1313.000000	96.644326
1312.000000	96.681254
1311.000000	96.723377
1310.000000	96.761781
1309.000000	96.790983
1308.000000	96.814425
1307.000000	96.837930
1306.000000	96.863743
1305.000000	96.891936
1304.000000	96.922180
1303.000000	96.951787
1302.000000	96.977342
1301.000000	96.999657
1300.000000	97.022749
1299.000000	97.047832
1298.000000	97.073209
1297.000000	97.099187
1296.000000	97.127150
1295.000000	97.154357
1294.000000	97.176215
1293.000000	97.193522
1292.000000	97.210836
1291.000000	97.227754
1290.000000	97.238826
1289.000000	97.243261
1288.000000	97.247778
1287.000000	97.257835
1286.000000	97.271700
1285.000000	97.285296
1284.000000	97.297670
1283.000000	97.309405
1282.000000	97.320127
1281.000000	97.329304
1280.000000	97.336625
1279.000000	97.341631
1278.000000	97.346023
1277.000000	97.355160
1276.000000	97.372490
1275.000000	97.393208
1274.000000	97.408400
1273.000000	97.415374
1272.000000	97.419410
1271.000000	97.425550
1270.000000	97.433605
1269.000000	97.441468
1268.000000	97.448132
1267.000000	97.452673
1266.000000	97.454899
1265.000000	97.457573
1264.000000	97.463747
1263.000000	97.471821
1262.000000	97.477489
1261.000000	97.480301
1260.000000	97.483593
1259.000000	97.488449
1258.000000	97.492619
1257.000000	97.495046
1256.000000	97.496233
1255.000000	97.494713
1254.000000	97.488611
1253.000000	97.480661
1252.000000	97.476441
1251.000000	97.477283
1250.000000	97.479368
1249.000000	97.479813
1248.000000	97.479063
1247.000000	97.477231
1246.000000	97.473368
1245.000000	97.469305
1244.000000	97.469066
1243.000000	97.472973
1242.000000	97.476653
1241.000000	97.477106
1240.000000	97.475537
1239.000000	97.473382
1238.000000	97.470042
1237.000000	97.465824
1236.000000	97.462855
1235.000000	97.461610
1234.000000	97.460464
1233.000000	97.460157
1232.000000	97.464758
1231.000000	97.476110
1230.000000	97.490786
1229.000000	97.504746
1228.000000	97.517894
1227.000000	97.532128
1226.000000	97.547740
1225.000000	97.563896
1224.000000	97.580532
1223.000000	97.597652
1222.000000	97.614098
1221.000000	97.628468
1220.000000	97.640561
1219.000000	97.651690
1218.000000	97.664280
1217.000000	97.680392
1216.000000	97.699134
1215.000000	97.716510
1214.000000	97.729747
1213.000000	97.740697
1212.000000	97.752626
1211.000000	97.764912
1210.000000	97.773701
1209.000000	97.776420
1208.000000	97.772981
1207.000000	97.764262
1206.000000	97.753083
1205.000000	97.745334
1204.000000	97.745795
1203.000000	97.752889
1202.000000	97.760597
1201.000000	97.765108
1200.000000	97.766542
1199.000000	97.765113
1198.000000	97.760062
1197.000000	97.752857
1196.000000	97.747624
1195.000000	97.747098
1194.000000	97.750214
1193.000000	97.753882
1192.000000	97.755095
1191.000000	97.751820
1190.000000	97.744712
1189.000000	97.737766
1188.000000	97.734376
1187.000000	97.732549
1186.000000	97.726428
1185.000000	97.712887
1184.000000	97.694348
1183.000000	97.675569
1182.000000	97.660247
1181.000000	97.650328
1180.000000	97.645712
1179.000000	97.644097
1178.000000	97.643151
1177.000000	97.642768
1176.000000	97.643258
1175.000000	97.641999
1174.000000	97.634847
1173.000000	97.621469
1172.000000	97.607253
1171.000000	97.599160
1170.000000	97.600224
1169.000000	97.607696
1168.000000	97.615578
1167.000000	97.619756
1166.000000	97.622009
1165.000000	97.628016
1164.000000	97.640619
1163.000000	97.656661
1162.000000	97.671472
1161.000000	97.683996
1160.000000	97.695499
1159.000000	97.706148
1158.000000	97.716082
1157.000000	97.727574
1156.000000	97.742526
1155.000000	97.759096
1154.000000	97.774039
1153.000000	97.787339
1152.000000	97.801799
1151.000000	97.819634
1150.000000	97.842047
1149.000000	97.869902
1148.000000	97.901415
1147.000000	97.931189
1146.000000	97.955515
1145.000000	97.977079
1144.000000	98.000618
1143.000000	98.025784
1142.000000	98.048436
1141.000000	98.067429
1140.000000	98.085552
1139.000000	98.104599
1138.000000	98.123613
1137.000000	98.141504
1136.000000	98.157628
1135.000000	98.170416
1134.000000	98.178990
1133.000000	98.185346
1132.000000	98.191942
1131.000000	98.198073
1130.000000	98.201767
1129.000000	98.204117
1128.000000	98.208189
1127.000000	98.214601
1126.000000	98.221307
1125.000000	98.226756
1124.000000	98.230381
1123.000000	98.231308
1122.000000	98.229855
1121.000000	98.229113
1120.000000	98.231659
1119.000000	98.235555
1118.000000	98.236225
1117.000000	98.231429
1116.000000	98.222237
1115.000000	98.211040
1114.000000	98.201129
1113.000000	98.195984
1112.000000	98.195949
1111.000000	98.197584
1110.000000	98.198933
1109.000000	98.202774
1108.000000	98.211682
1107.000000	98.222790
1106.000000	98.231514
1105.000000	98.237400
1104.000000	98.241740
1103.000000	98.242510
1102.000000	98.237087
1101.000000	98.228209
1100.000000	98.221518
1099.000000	98.217991
1098.000000	98.213975
1097.000000	98.206823
1096.000000	98.196793
1095.000000	98.184910
1094.000000	98.173694
1093.000000	98.168001
1092.000000	98.169880
1091.000000	98.173695
1090.000000	98.171055
1089.000000	98.159697
1088.000000	98.142845
1087.000000	98.121898
1086.000000	98.096226
1085.000000	98.069648
1084.000000	98.050521
1083.000000	98.043349
1082.000000	98.044303
1081.000000	98.046353
1080.000000	98.045964
1079.000000	98.044302
1078.000000	98.045060
1077.000000	98.051640
1076.000000	98.063587
1075.000000	98.076118
1074.000000	98.085511
1073.000000	98.093484
1072.000000	98.103217
1071.000000	98.113232
1070.000000	98.119599
1069.000000	98.122439
1068.000000	98.125221
1067.000000	98.128902
1066.000000	98.132073
1065.000000	98.136206
1064.000000	98.144849
1063.000000	98.157025
1062.000000	98.166630
1061.000000	98.169842
1060.000000	98.169151
1059.000000	98.168868
1058.000000	98.170285
1057.000000	98.172182
1056.000000	98.172983
1055.000000	98.171457
1054.000000	98.168033
1053.000000	98.166198
1052.000000	98.170263
1051.000000	98.180877
1050.000000	98.194214
1049.000000	98.205218
1048.000000	98.210151
1047.000000	98.207799
1046.000000	98.201125
1045.000000	98.196087
1044.000000	98.195896
1043.000000	98.197793
1042.000000	98.197815
1041.000000	98.196809
1040.000000	98.198304
1039.000000	98.202442
1038.000000	98.206031
1037.000000	98.207377
1036.000000	98.207147
1035.000000	98.205394
1034.000000	98.201744
1033.000000	98.197809
1032.000000	98.195811
1031.000000	98.195511
1030.000000	98.195905
1029.000000	98.198888
1028.000000	98.207290
1027.000000	98.219738
1026.000000	98.231203
1025.000000	98.238348
1024.000000	98.241534
1023.000000	98.242873
1022.000000	98.245704
1021.000000	98.254179
1020.000000	98.268783
1019.000000	98.282936
1018.000000	98.288499
1017.000000	98.284623
1016.000000	98.277520
1015.000000	98.272696
1014.000000	98.271679
1013.000000	98.275346
1012.000000	98.285090
1011.000000	98.299803
1010.000000	98.315858
1009.000000	98.331217
1008.000000	98.346512
1007.000000	98.361699
1006.000000	98.375138
1005.000000	98.386486
1004.000000	98.397662
1003.000000	98.410474
1002.000000	98.425717
1001.000000	98.444307
1000.000000	98.466330
999.000000	98.489218
998.000000	98.509919
997.000000	98.528740
996.000000	98.547949
995.000000	98.566854
994.000000	98.581899
993.000000	98.592456
992.000000	98.603152
991.000000	98.618861
990.000000	98.639116
989.000000	98.658551
988.000000	98.672218
987.000000	98.680368
986.000000	98.688689
985.000000	98.703091
984.000000	98.723474
983.000000	98.743849
982.000000	98.758957
981.000000	98.768559
980.000000	98.774544
979.000000	98.777249
978.000000	98.777020
977.000000	98.776164
976.000000	98.776316
975.000000	98.776691
974.000000	98.777980
973.000000	98.784697
972.000000	98.799377
971.000000	98.816727
970.000000	98.828253
969.000000	98.831753
968.000000	98.832652
967.000000	98.837692
966.000000	98.850935
965.000000	98.873557
964.000000	98.902459
963.000000	98.929725
962.000000	98.948333
961.000000	98.959142
960.000000	98.969189
959.000000	98.983965
958.000000	99.004371
957.000000	99.029000
956.000000	99.054919
955.000000	99.077461
954.000000	99.094166
953.000000	99.108565
952.000000	99.125780
951.000000	99.144836
950.000000	99.160098
949.000000	99.170122
948.000000	99.180129
947.000000	99.194831
946.000000	99.212589
945.000000	99.228022
944.000000	99.237489
943.000000	99.241439
942.000000	99.243979
941.000000	99.250114
940.000000	99.261050
939.000000	99.272399
938.000000	99.279353
937.000000	99.283493
936.000000	99.291877
935.000000	99.309549
934.000000	99.334564
933.000000	99.359378
932.000000	99.375847
931.000000	99.380874
930.000000	99.379590
929.000000	99.381298
928.000000	99.389983
927.000000	99.401101
926.000000	99.409910
925.000000	99.418710
924.000000	99.431720
923.000000	99.446065
922.000000	99.454015
921.000000	99.453100
920.000000	99.449077
919.000000	99.449836
918.000000	99.460145
917.000000	99.480386
916.000000	99.505354
915.000000	99.525332
914.000000	99.533878
913.000000	99.534674
912.000000	99.536521
911.000000	99.543041
910.000000	99.551740
909.000000	99.561306
908.000000	99.573604
907.000000	99.588494
906.000000	99.602614
905.000000	99.613839
904.000000	99.622385
903.000000	99.627882
902.000000	99.630627
901.000000	99.635346
900.000000	99.647834
899.000000	99.667127
898.000000	99.686584
897.000000	99.703028
896.000000	99.719302
895.000000	99.737283
894.000000	99.754436
893.000000	99.769278
892.000000	99.784695
891.000000	99.803557
890.000000	99.824513
889.000000	99.842300
888.000000	99.847515
887.000000	99.824387
886.000000	99.755033
885.000000	99.626791
884.000000	99.430352
883.000000	99.151878
882.000000	98.769969
881.000000	98.263570
880.000000	97.617936
879.000000	96.827090
878.000000	95.901339
877.000000	94.870324
876.000000	93.774324
875.000000	92.660822
874.000000	91.625213
873.000000	90.866091
872.000000	90.663248
871.000000	91.210225
870.000000	92.421920
869.000000	93.938930
868.000000	95.348722
867.000000	96.417868
866.000000	97.141326
865.000000	97.625473
864.000000	97.965762
863.000000	98.216206
862.000000	98.410405
861.000000	98.570377
860.000000	98.701670
859.000000	98.801107
858.000000	98.874400
857.000000	98.935617
856.000000	98.992959
855.000000	99.045969
854.000000	99.094501
853.000000	99.138766
852.000000	99.168031
851.000000	99.163041
850.000000	99.119937
849.000000	99.066712
848.000000	99.046627
847.000000	99.082963
846.000000	99.162039
845.000000	99.248993
844.000000	99.315704
843.000000	99.355573
842.000000	99.378883
841.000000	99.398671
840.000000	99.420052
839.000000	99.439527
838.000000	99.452406
837.000000	99.460126
836.000000	99.470306
835.000000	99.490218
834.000000	99.520054
833.000000	99.552293
832.000000	99.577961
831.000000	99.593782
830.000000	99.603288
829.000000	99.611164
828.000000	99.618281
827.000000	99.623738
826.000000	99.629196
825.000000	99.637281
824.000000	99.646130
823.000000	99.649841
822.000000	99.645637
821.000000	99.638016
820.000000	99.634934
819.000000	99.641407
818.000000	99.655993
817.000000	99.671142
816.000000	99.678228
815.000000	99.676104
814.000000	99.674641
813.000000	99.685351
812.000000	99.707571
811.000000	99.727550
810.000000	99.732330
809.000000	99.721609
808.000000	99.705259
807.000000	99.693519
806.000000	99.691566
805.000000	99.698794
804.000000	99.709215
803.000000	99.714831
802.000000	99.712358
801.000000	99.706543
800.000000	99.705146
799.000000	99.711002
798.000000	99.719577
797.000000	99.722952
796.000000	99.715943
795.000000	99.701013
794.000000	99.687618
793.000000	99.683805
792.000000	99.687989
791.000000	99.692170
790.000000	99.693602
789.000000	99.698032
788.000000	99.708808
787.000000	99.718045
786.000000	99.714351
785.000000	99.697866
784.000000	99.682113
783.000000	99.679835
782.000000	99.690331
781.000000	99.702246
780.000000	99.706652
779.000000	99.704777
778.000000	99.703210
777.000000	99.704557
776.000000	99.705741
775.000000	99.704901
774.000000	99.705452
773.000000	99.710435
772.000000	99.716126
771.000000	99.715847
770.000000	99.708661
769.000000	99.699403
768.000000	99.690750
767.000000	99.681217
766.000000	99.672118
765.000000	99.670456
764.000000	99.681376
763.000000	99.701330
762.000000	99.721855
761.000000	99.737492
760.000000	99.747434
759.000000	99.752374
758.000000	99.753733
757.000000	99.754469
756.000000	99.757235
755.000000	99.762188
754.000000	99.768180
753.000000	99.774879
752.000000	99.781899
751.000000	99.787061
750.000000	99.787808
749.000000	99.784341
748.000000	99.779773
747.000000	99.776750
746.000000	99.775009
745.000000	99.772755
744.000000	99.770207
743.000000	99.770810
742.000000	99.777342
741.000000	99.786797
740.000000	99.791767
739.000000	99.788303
738.000000	99.779374
737.000000	99.768587
736.000000	99.754301
735.000000	99.734145
734.000000	99.712576
733.000000	99.697868
732.000000	99.692021
731.000000	99.688561
730.000000	99.680409
729.000000	99.665526
728.000000	99.647670
727.000000	99.634161
726.000000	99.628336
725.000000	99.623277
724.000000	99.606631
723.000000	99.572889
722.000000	99.525746
721.000000	99.466872
720.000000	99.389184
719.000000	99.282968
718.000000	99.137564
717.000000	98.930886
716.000000	98.635809
715.000000	98.264045
714.000000	97.903486
713.000000	97.684139
712.000000	97.686745
711.000000	97.884825
710.000000	98.178230
709.000000	98.470848
708.000000	98.715041
707.000000	98.904531
706.000000	99.045138
705.000000	99.140497
704.000000	99.197520
703.000000	99.231538
702.000000	99.261258
701.000000	99.296742
700.000000	99.333016
699.000000	99.361798
698.000000	99.383953
697.000000	99.406462
696.000000	99.431647
695.000000	99.454737
694.000000	99.475020
693.000000	99.497470
692.000000	99.520370
691.000000	99.536560
690.000000	99.545577
689.000000	99.556111
688.000000	99.573272
687.000000	99.590946
686.000000	99.604662
685.000000	99.616492
684.000000	99.622442
683.000000	99.613680
682.000000	99.593834
681.000000	99.579036
680.000000	99.574855
679.000000	99.571641
678.000000	99.566694
677.000000	99.566226
676.000000	99.570258
675.000000	99.569498
674.000000	99.563426
673.000000	99.566995
672.000000	99.593790
671.000000	99.649155
670.000000	99.737669
669.000000	99.853486
668.000000	99.918151
667.000000	99.861810
666.000000	99.761853
665.000000	99.663406
664.000000	99.580454
663.000000	99.532750
662.000000	99.523646
661.000000	99.538980
660.000000	99.559195
659.000000	99.571628
658.000000	99.569030
657.000000	99.548177
656.000000	99.523048
655.000000	99.517275
654.000000	99.533580
653.000000	99.549908
652.000000	99.553767
651.000000	99.556502
650.000000	99.569918
649.000000	99.587030
648.000000	99.597060
647.000000	99.600673
646.000000	99.600532
645.000000	99.596086
644.000000	99.590430
643.000000	99.588741
642.000000	99.590206
641.000000	99.588951
640.000000	99.585153
639.000000	99.585874
638.000000	99.591584
637.000000	99.594775
636.000000	99.594407
635.000000	99.595902
634.000000	99.597654
633.000000	99.592200
632.000000	99.580781
631.000000	99.573964
630.000000	99.575078
629.000000	99.575335
628.000000	99.570933
627.000000	99.572109
626.000000	99.586536
625.000000	99.606541
624.000000	99.616857
623.000000	99.607656
622.000000	99.579065
621.000000	99.540415
620.000000	99.506610
619.000000	99.488307
618.000000	99.483367
617.000000	99.482432
616.000000	99.481760
615.000000	99.483928
614.000000	99.489182
613.000000	99.495801
612.000000	99.507380
611.000000	99.528076
610.000000	99.551054
609.000000	99.563247
608.000000	99.562520
607.000000	99.559067
606.000000	99.557602
605.000000	99.554755
604.000000	99.553032
603.000000	99.561579
602.000000	99.579717
601.000000	99.592943
600.000000	99.591260
599.000000	99.580953
598.000000	99.571991
597.000000	99.564986
596.000000	99.558553
595.000000	99.557145
594.000000	99.560533
593.000000	99.555583
592.000000	99.533498
591.000000	99.509631
590.000000	99.509526
589.000000	99.536536
588.000000	99.568095
587.000000	99.581422
586.000000	99.571018
585.000000	99.544025
584.000000	99.510369
583.000000	99.481550
582.000000	99.469157
581.000000	99.475784
580.000000	99.490416
579.000000	99.498572
578.000000	99.495770
577.000000	99.489841
576.000000	99.492340
575.000000	99.507317
574.000000	99.525928
573.000000	99.532602
572.000000	99.518293
571.000000	99.488016
570.000000	99.456480
569.000000	99.435615
568.000000	99.428655
567.000000	99.433724
566.000000	99.446436
565.000000	99.458618
564.000000	99.459130
563.000000	99.440947
562.000000	99.408400
561.000000	99.376141
560.000000	99.358404
559.000000	99.356900
558.000000	99.358202
557.000000	99.345674
556.000000	99.315920
555.000000	99.283947
554.000000	99.269944
553.000000	99.279703
552.000000	99.299949
551.000000	99.310128
550.000000	99.300236
549.000000	99.281029
548.000000	99.275050
547.000000	99.295065
546.000000	99.329814
545.000000	99.354649
544.000000	99.357964
543.000000	99.350146
542.000000	99.347637
541.000000	99.354845
540.000000	99.363153
539.000000	99.361700
538.000000	99.343633
537.000000	99.307147
536.000000	99.258457
535.000000	99.214771
534.000000	99.197302
533.000000	99.214957
532.000000	99.254617
531.000000	99.290609
530.000000	99.305969
529.000000	99.304123
528.000000	99.296892
527.000000	99.286981
526.000000	99.269379
525.000000	99.247496
524.000000	99.234467
523.000000	99.233988
522.000000	99.234879
521.000000	99.228620
520.000000	99.221398
519.000000	99.225049
518.000000	99.244784
517.000000	99.283323
516.000000	99.344507
515.000000	99.416353
514.000000	99.466332
513.000000	99.470517
512.000000	99.441477
511.000000	99.414519
510.000000	99.408857
509.000000	99.417617
508.000000	99.430401
507.000000	99.444297
506.000000	99.450854
505.000000	99.437101
504.000000	99.406669
503.000000	99.380692
502.000000	99.371958
501.000000	99.371442
500.000000	99.370056
499.000000	99.375118
498.000000	99.390792
497.000000	99.400458
496.000000	99.383786
495.000000	99.342851
494.000000	99.301570
493.000000	99.284403
492.000000	99.299048
491.000000	99.332662
490.000000	99.359854
489.000000	99.363556
488.000000	99.349141
487.000000	99.332693
486.000000	99.319898
485.000000	99.310035
484.000000	99.318549
483.000000	99.366990
482.000000	99.439605
481.000000	99.482851
480.000000	99.465819
479.000000	99.418476
478.000000	99.395499
477.000000	99.416315
476.000000	99.456068
475.000000	99.477190
474.000000	99.447982
473.000000	99.353876
472.000000	99.227704
471.000000	99.145826
470.000000	99.150938
469.000000	99.214069
468.000000	99.280340
467.000000	99.319596
466.000000	99.336005
465.000000	99.344226
464.000000	99.351381
463.000000	99.356009
462.000000	99.346055
461.000000	99.308511
460.000000	99.259500
459.000000	99.253351
458.000000	99.334244
457.000000	99.468585
456.000000	99.583029
455.000000	99.662622
454.000000	99.736875
453.000000	99.809800
452.000000	99.847267
451.000000	99.821659
450.000000	99.745292
