PE IR       SUBTECH     SPECTRUM    ASCII       PEDS        4.00        
   -1
AG10-F015_1.ASC
23/09/08
10:45:56.00
23/09/08
11:14:38.00
uco
Sample 015 By uco Date Friday, September 08 2023
450.000000
#HDR
-1
-1
#GR
cm-1
%T
1.0
0.0
4000.000000
-1.000000
3551
8
99.990418
90.464693
#DATA
4000.000000	99.849418
3999.000000	99.851300
3998.000000	99.851786
3997.000000	99.850138
3996.000000	99.847218
3995.000000	99.852975
3994.000000	99.851507
3993.000000	99.851209
3992.000000	99.851920
3991.000000	99.853058
3990.000000	99.853977
3989.000000	99.854367
3988.000000	99.854215
3987.000000	99.853618
3986.000000	99.852528
3985.000000	99.850622
3984.000000	99.847413
3983.000000	99.842546
3982.000000	99.836272
3981.000000	99.829739
3980.000000	99.824664
3979.000000	99.822331
3978.000000	99.822633
3977.000000	99.824052
3976.000000	99.824823
3975.000000	99.824354
3974.000000	99.823546
3973.000000	99.823788
3972.000000	99.825498
3971.000000	99.827714
3970.000000	99.829013
3969.000000	99.828839
3968.000000	99.828066
3967.000000	99.828220
3966.000000	99.830198
3965.000000	99.833488
3964.000000	99.836358
3963.000000	99.836815
3962.000000	99.833818
3961.000000	99.828021
3960.000000	99.821334
3959.000000	99.815896
3958.000000	99.813068
3957.000000	99.812981
3956.000000	99.814661
3955.000000	99.816466
3954.000000	99.817052
3953.000000	99.815957
3952.000000	99.813571
3951.000000	99.810767
3950.000000	99.808335
3949.000000	99.806723
3948.000000	99.806101
3947.000000	99.806872
3946.000000	99.810004
3945.000000	99.815607
3944.000000	99.821299
3943.000000	99.823257
3942.000000	99.819301
3941.000000	99.810887
3940.000000	99.801769
3939.000000	99.795498
3938.000000	99.794036
3937.000000	99.797739
3936.000000	99.805377
3935.000000	99.813726
3934.000000	99.818813
3933.000000	99.818810
3932.000000	99.815754
3931.000000	99.813371
3930.000000	99.813034
3929.000000	99.813579
3928.000000	99.813838
3927.000000	99.813200
3926.000000	99.811073
3925.000000	99.807817
3924.000000	99.805792
3923.000000	99.806882
3922.000000	99.809585
3921.000000	99.810267
3920.000000	99.807434
3919.000000	99.803784
3918.000000	99.803229
3917.000000	99.806065
3916.000000	99.808353
3915.000000	99.806358
3914.000000	99.799528
3913.000000	99.790657
3912.000000	99.784268
3911.000000	99.784532
3910.000000	99.792286
3909.000000	99.803983
3908.000000	99.814055
3907.000000	99.817690
3906.000000	99.812553
3905.000000	99.799884
3904.000000	99.785736
3903.000000	99.778006
3902.000000	99.779888
3901.000000	99.787692
3900.000000	99.795144
3899.000000	99.798658
3898.000000	99.798944
3897.000000	99.798433
3896.000000	99.798195
3895.000000	99.798448
3894.000000	99.799101
3893.000000	99.799321
3892.000000	99.797071
3891.000000	99.791469
3890.000000	99.785155
3889.000000	99.783358
3888.000000	99.789411
3887.000000	99.800049
3886.000000	99.808000
3885.000000	99.810281
3884.000000	99.810006
3883.000000	99.810415
3882.000000	99.810442
3881.000000	99.807123
3880.000000	99.800985
3879.000000	99.795729
3878.000000	99.794460
3877.000000	99.797989
3876.000000	99.803759
3875.000000	99.806814
3874.000000	99.805177
3873.000000	99.802696
3872.000000	99.803543
3871.000000	99.806020
3870.000000	99.805551
3869.000000	99.802726
3868.000000	99.802363
3867.000000	99.806544
3866.000000	99.811724
3865.000000	99.813464
3864.000000	99.811849
3863.000000	99.809148
3862.000000	99.804994
3861.000000	99.798459
3860.000000	99.790426
3859.000000	99.781877
3858.000000	99.773762
3857.000000	99.768359
3856.000000	99.768794
3855.000000	99.773120
3854.000000	99.772634
3853.000000	99.770486
3852.000000	99.775316
3851.000000	99.784195
3850.000000	99.791183
3849.000000	99.794652
3848.000000	99.796301
3847.000000	99.798841
3846.000000	99.802661
3845.000000	99.806142
3844.000000	99.807409
3843.000000	99.806087
3842.000000	99.803416
3841.000000	99.800749
3840.000000	99.797624
3839.000000	99.793691
3838.000000	99.791717
3837.000000	99.794826
3836.000000	99.802808
3835.000000	99.813055
3834.000000	99.823278
3833.000000	99.831943
3832.000000	99.837746
3831.000000	99.839911
3830.000000	99.838925
3829.000000	99.836014
3828.000000	99.831172
3827.000000	99.822494
3826.000000	99.808912
3825.000000	99.793714
3824.000000	99.782818
3823.000000	99.779605
3822.000000	99.781390
3821.000000	99.784567
3820.000000	99.788477
3819.000000	99.791911
3818.000000	99.793375
3817.000000	99.789574
3816.000000	99.781030
3815.000000	99.776689
3814.000000	99.783552
3813.000000	99.798010
3812.000000	99.811199
3811.000000	99.818285
3810.000000	99.820734
3809.000000	99.821015
3808.000000	99.816491
3807.000000	99.804023
3806.000000	99.788356
3805.000000	99.779232
3804.000000	99.781700
3803.000000	99.791915
3802.000000	99.799760
3801.000000	99.800838
3800.000000	99.799894
3799.000000	99.802024
3798.000000	99.806530
3797.000000	99.809137
3796.000000	99.808432
3795.000000	99.807924
3794.000000	99.810998
3793.000000	99.816630
3792.000000	99.821398
3791.000000	99.823676
3790.000000	99.824421
3789.000000	99.824995
3788.000000	99.825644
3787.000000	99.825962
3786.000000	99.826042
3785.000000	99.826832
3784.000000	99.829284
3783.000000	99.833184
3782.000000	99.836191
3781.000000	99.833964
3780.000000	99.823259
3779.000000	99.807253
3778.000000	99.794184
3777.000000	99.789818
3776.000000	99.793188
3775.000000	99.799007
3774.000000	99.802820
3773.000000	99.803992
3772.000000	99.803963
3771.000000	99.803588
3770.000000	99.803681
3769.000000	99.805447
3768.000000	99.809394
3767.000000	99.814679
3766.000000	99.819403
3765.000000	99.821376
3764.000000	99.819662
3763.000000	99.815258
3762.000000	99.809241
3761.000000	99.802219
3760.000000	99.796219
3759.000000	99.794399
3758.000000	99.796314
3757.000000	99.798747
3756.000000	99.801475
3755.000000	99.806937
3754.000000	99.814209
3753.000000	99.816234
3752.000000	99.805774
3751.000000	99.785912
3750.000000	99.768312
3749.000000	99.758701
3748.000000	99.757235
3747.000000	99.765519
3746.000000	99.783106
3745.000000	99.802589
3744.000000	99.818207
3743.000000	99.830502
3742.000000	99.839736
3741.000000	99.843582
3740.000000	99.841154
3739.000000	99.834802
3738.000000	99.826313
3737.000000	99.813154
3736.000000	99.798162
3735.000000	99.794986
3734.000000	99.809926
3733.000000	99.830641
3732.000000	99.841777
3731.000000	99.839963
3730.000000	99.831829
3729.000000	99.824376
3728.000000	99.819859
3727.000000	99.816908
3726.000000	99.814597
3725.000000	99.813139
3724.000000	99.812074
3723.000000	99.811205
3722.000000	99.811800
3721.000000	99.815666
3720.000000	99.822472
3719.000000	99.829221
3718.000000	99.832308
3717.000000	99.830642
3716.000000	99.827131
3715.000000	99.824867
3714.000000	99.822060
3713.000000	99.812844
3712.000000	99.795885
3711.000000	99.781090
3710.000000	99.779274
3709.000000	99.790008
3708.000000	99.805305
3707.000000	99.818010
3706.000000	99.826043
3705.000000	99.832177
3704.000000	99.839666
3703.000000	99.848126
3702.000000	99.853797
3701.000000	99.854066
3700.000000	99.850641
3699.000000	99.847388
3698.000000	99.845789
3697.000000	99.843753
3696.000000	99.838909
3695.000000	99.830943
3694.000000	99.821017
3693.000000	99.811956
3692.000000	99.808786
3691.000000	99.816601
3690.000000	99.834253
3689.000000	99.851677
3688.000000	99.858664
3687.000000	99.855918
3686.000000	99.852212
3685.000000	99.852629
3684.000000	99.855548
3683.000000	99.857352
3682.000000	99.855924
3681.000000	99.849469
3680.000000	99.837042
3679.000000	99.822464
3678.000000	99.813471
3677.000000	99.814295
3676.000000	99.820911
3675.000000	99.827679
3674.000000	99.830166
3673.000000	99.829108
3672.000000	99.827345
3671.000000	99.824745
3670.000000	99.822682
3669.000000	99.826139
3668.000000	99.834615
3667.000000	99.843279
3666.000000	99.849120
3665.000000	99.851625
3664.000000	99.851851
3663.000000	99.851371
3662.000000	99.851021
3661.000000	99.850712
3660.000000	99.850907
3659.000000	99.852236
3658.000000	99.853532
3657.000000	99.851406
3656.000000	99.844913
3655.000000	99.838276
3654.000000	99.836547
3653.000000	99.841281
3652.000000	99.848536
3651.000000	99.850841
3650.000000	99.845636
3649.000000	99.841075
3648.000000	99.842861
3647.000000	99.845573
3646.000000	99.843696
3645.000000	99.838063
3644.000000	99.831922
3643.000000	99.827789
3642.000000	99.827306
3641.000000	99.831062
3640.000000	99.837576
3639.000000	99.842983
3638.000000	99.843975
3637.000000	99.840567
3636.000000	99.834658
3635.000000	99.826895
3634.000000	99.817425
3633.000000	99.809367
3632.000000	99.807976
3631.000000	99.815203
3630.000000	99.825117
3629.000000	99.830751
3628.000000	99.833014
3627.000000	99.834042
3626.000000	99.834749
3625.000000	99.835632
3624.000000	99.837301
3623.000000	99.840808
3622.000000	99.846467
3621.000000	99.852183
3620.000000	99.854836
3619.000000	99.853570
3618.000000	99.849920
3617.000000	99.845953
3616.000000	99.844140
3615.000000	99.845064
3614.000000	99.845837
3613.000000	99.843219
3612.000000	99.837874
3611.000000	99.833865
3610.000000	99.833842
3609.000000	99.837014
3608.000000	99.841177
3607.000000	99.844471
3606.000000	99.845706
3605.000000	99.844608
3604.000000	99.842249
3603.000000	99.840109
3602.000000	99.839351
3601.000000	99.840426
3600.000000	99.843127
3599.000000	99.846035
3598.000000	99.846490
3597.000000	99.842132
3596.000000	99.833539
3595.000000	99.825365
3594.000000	99.823641
3593.000000	99.830662
3592.000000	99.842864
3591.000000	99.854768
3590.000000	99.862055
3589.000000	99.862403
3588.000000	99.857063
3587.000000	99.851095
3586.000000	99.847364
3585.000000	99.845231
3584.000000	99.844205
3583.000000	99.843800
3582.000000	99.842660
3581.000000	99.839419
3580.000000	99.833891
3579.000000	99.827219
3578.000000	99.820863
3577.000000	99.816136
3576.000000	99.813881
3575.000000	99.814299
3574.000000	99.816719
3573.000000	99.820091
3572.000000	99.823860
3571.000000	99.828121
3570.000000	99.832632
3569.000000	99.835455
3568.000000	99.835026
3567.000000	99.833555
3566.000000	99.833903
3565.000000	99.834806
3564.000000	99.834483
3563.000000	99.833097
3562.000000	99.831478
3561.000000	99.830440
3560.000000	99.830795
3559.000000	99.832921
3558.000000	99.836399
3557.000000	99.840089
3556.000000	99.842497
3555.000000	99.842048
3554.000000	99.837769
3553.000000	99.830616
3552.000000	99.823760
3551.000000	99.819953
3550.000000	99.818931
3549.000000	99.818227
3548.000000	99.815927
3547.000000	99.812746
3546.000000	99.811373
3545.000000	99.813634
3544.000000	99.818920
3543.000000	99.825205
3542.000000	99.830176
3541.000000	99.832393
3540.000000	99.832487
3539.000000	99.832543
3538.000000	99.833530
3537.000000	99.833543
3536.000000	99.830032
3535.000000	99.823380
3534.000000	99.817343
3533.000000	99.815907
3532.000000	99.820363
3531.000000	99.828877
3530.000000	99.837571
3529.000000	99.842425
3528.000000	99.841568
3527.000000	99.836602
3526.000000	99.831138
3525.000000	99.827756
3524.000000	99.826276
3523.000000	99.824679
3522.000000	99.821579
3521.000000	99.817969
3520.000000	99.816584
3519.000000	99.819088
3518.000000	99.824048
3517.000000	99.827807
3516.000000	99.827749
3515.000000	99.824422
3514.000000	99.820435
3513.000000	99.817797
3512.000000	99.816829
3511.000000	99.817309
3510.000000	99.819625
3509.000000	99.823834
3508.000000	99.828180
3507.000000	99.829762
3506.000000	99.827086
3505.000000	99.821605
3504.000000	99.817259
3503.000000	99.817492
3502.000000	99.821746
3501.000000	99.825845
3500.000000	99.826353
3499.000000	99.823857
3498.000000	99.822055
3497.000000	99.824333
3496.000000	99.830518
3495.000000	99.836781
3494.000000	99.838934
3493.000000	99.836118
3492.000000	99.831049
3491.000000	99.826858
3490.000000	99.824208
3489.000000	99.821654
3488.000000	99.818249
3487.000000	99.814847
3486.000000	99.812783
3485.000000	99.812288
3484.000000	99.812888
3483.000000	99.814609
3482.000000	99.817908
3481.000000	99.822465
3480.000000	99.826935
3479.000000	99.830223
3478.000000	99.832308
3477.000000	99.833446
3476.000000	99.833082
3475.000000	99.830159
3474.000000	99.824632
3473.000000	99.818424
3472.000000	99.814575
3471.000000	99.815116
3470.000000	99.819405
3469.000000	99.824453
3468.000000	99.827121
3467.000000	99.826594
3466.000000	99.825037
3465.000000	99.825583
3464.000000	99.829478
3463.000000	99.834986
3462.000000	99.839031
3461.000000	99.839800
3460.000000	99.837785
3459.000000	99.834737
3458.000000	99.832145
3457.000000	99.830605
3456.000000	99.830208
3455.000000	99.830975
3454.000000	99.832884
3453.000000	99.835591
3452.000000	99.838289
3451.000000	99.840003
3450.000000	99.839970
3449.000000	99.837940
3448.000000	99.834375
3447.000000	99.830301
3446.000000	99.826419
3445.000000	99.822645
3444.000000	99.818861
3443.000000	99.815767
3442.000000	99.814502
3441.000000	99.815359
3440.000000	99.817333
3439.000000	99.818994
3438.000000	99.819485
3437.000000	99.818457
3436.000000	99.815744
3435.000000	99.811619
3434.000000	99.807231
3433.000000	99.804230
3432.000000	99.803758
3431.000000	99.805925
3430.000000	99.809991
3429.000000	99.814982
3428.000000	99.820228
3427.000000	99.825399
3426.000000	99.829845
3425.000000	99.831881
3424.000000	99.829350
3423.000000	99.821716
3422.000000	99.811773
3421.000000	99.804485
3420.000000	99.802990
3419.000000	99.805649
3418.000000	99.807796
3417.000000	99.806338
3416.000000	99.802090
3415.000000	99.797916
3414.000000	99.795483
3413.000000	99.794360
3412.000000	99.793614
3411.000000	99.792993
3410.000000	99.792509
3409.000000	99.792044
3408.000000	99.791999
3407.000000	99.793372
3406.000000	99.796360
3405.000000	99.799328
3404.000000	99.800146
3403.000000	99.798495
3402.000000	99.796187
3401.000000	99.795010
3400.000000	99.794714
3399.000000	99.793488
3398.000000	99.790195
3397.000000	99.785796
3396.000000	99.782420
3395.000000	99.781461
3394.000000	99.782881
3393.000000	99.785863
3392.000000	99.789242
3391.000000	99.791283
3390.000000	99.790304
3389.000000	99.786326
3388.000000	99.781592
3387.000000	99.778517
3386.000000	99.777206
3385.000000	99.775591
3384.000000	99.771905
3383.000000	99.766218
3382.000000	99.759821
3381.000000	99.754219
3380.000000	99.750851
3379.000000	99.750591
3378.000000	99.752769
3377.000000	99.755297
3376.000000	99.756302
3375.000000	99.755554
3374.000000	99.754246
3373.000000	99.753843
3372.000000	99.755117
3371.000000	99.757491
3370.000000	99.758787
3369.000000	99.756379
3368.000000	99.749694
3367.000000	99.741615
3366.000000	99.736485
3365.000000	99.736125
3364.000000	99.738125
3363.000000	99.738449
3362.000000	99.735622
3361.000000	99.732053
3360.000000	99.731091
3359.000000	99.733071
3358.000000	99.734713
3357.000000	99.732396
3356.000000	99.725500
3355.000000	99.716387
3354.000000	99.707888
3353.000000	99.701651
3352.000000	99.698538
3351.000000	99.699080
3350.000000	99.702742
3349.000000	99.707413
3348.000000	99.710544
3347.000000	99.710982
3346.000000	99.709614
3345.000000	99.708287
3344.000000	99.708103
3343.000000	99.708445
3342.000000	99.707357
3341.000000	99.703004
3340.000000	99.695097
3339.000000	99.685181
3338.000000	99.675851
3337.000000	99.669659
3336.000000	99.668026
3335.000000	99.670310
3334.000000	99.673905
3333.000000	99.676080
3332.000000	99.676195
3331.000000	99.675898
3330.000000	99.676955
3329.000000	99.679138
3328.000000	99.680428
3327.000000	99.679035
3326.000000	99.675004
3325.000000	99.669935
3324.000000	99.665334
3323.000000	99.661336
3322.000000	99.657262
3321.000000	99.653388
3320.000000	99.651522
3319.000000	99.653124
3318.000000	99.657054
3317.000000	99.659986
3316.000000	99.659368
3315.000000	99.655521
3314.000000	99.650690
3313.000000	99.646578
3312.000000	99.643127
3311.000000	99.639311
3310.000000	99.634830
3309.000000	99.631102
3308.000000	99.630352
3307.000000	99.633333
3306.000000	99.638110
3305.000000	99.641593
3304.000000	99.642090
3303.000000	99.639921
3302.000000	99.636070
3301.000000	99.631471
3300.000000	99.627653
3299.000000	99.626440
3298.000000	99.627941
3297.000000	99.629768
3296.000000	99.629286
3295.000000	99.626359
3294.000000	99.623182
3293.000000	99.621809
3292.000000	99.622532
3291.000000	99.624142
3290.000000	99.624854
3289.000000	99.623146
3288.000000	99.618646
3287.000000	99.612642
3286.000000	99.607503
3285.000000	99.605440
3284.000000	99.607514
3283.000000	99.612990
3282.000000	99.619174
3281.000000	99.622561
3280.000000	99.621241
3279.000000	99.616352
3278.000000	99.610862
3277.000000	99.606913
3276.000000	99.604510
3275.000000	99.602462
3274.000000	99.599868
3273.000000	99.596623
3272.000000	99.593125
3271.000000	99.589927
3270.000000	99.587584
3269.000000	99.586496
3268.000000	99.586698
3267.000000	99.587804
3266.000000	99.589472
3265.000000	99.592203
3264.000000	99.597130
3263.000000	99.604299
3262.000000	99.611397
3261.000000	99.615138
3260.000000	99.614124
3259.000000	99.609641
3258.000000	99.603683
3257.000000	99.597336
3256.000000	99.591598
3255.000000	99.588498
3254.000000	99.590012
3253.000000	99.595970
3252.000000	99.603827
3251.000000	99.610337
3250.000000	99.613157
3249.000000	99.611587
3248.000000	99.606753
3247.000000	99.601070
3246.000000	99.596832
3245.000000	99.594969
3244.000000	99.594869
3243.000000	99.594812
3242.000000	99.592640
3241.000000	99.587400
3240.000000	99.581235
3239.000000	99.578569
3238.000000	99.581968
3237.000000	99.589141
3236.000000	99.595183
3235.000000	99.597556
3234.000000	99.597552
3233.000000	99.597329
3232.000000	99.597429
3231.000000	99.597690
3230.000000	99.598827
3229.000000	99.601686
3228.000000	99.605611
3227.000000	99.608643
3226.000000	99.609297
3225.000000	99.607478
3224.000000	99.603922
3223.000000	99.599344
3222.000000	99.594259
3221.000000	99.589460
3220.000000	99.586333
3219.000000	99.586138
3218.000000	99.588490
3217.000000	99.591014
3216.000000	99.591381
3215.000000	99.589896
3214.000000	99.589180
3213.000000	99.590742
3212.000000	99.592793
3211.000000	99.592197
3210.000000	99.588281
3209.000000	99.583954
3208.000000	99.583155
3207.000000	99.587369
3206.000000	99.594270
3205.000000	99.599358
3204.000000	99.599290
3203.000000	99.594413
3202.000000	99.588046
3201.000000	99.583296
3200.000000	99.580961
3199.000000	99.580416
3198.000000	99.581313
3197.000000	99.583251
3196.000000	99.584596
3195.000000	99.583332
3194.000000	99.579413
3193.000000	99.575154
3192.000000	99.572831
3191.000000	99.572521
3190.000000	99.572699
3189.000000	99.572248
3188.000000	99.571302
3187.000000	99.570485
3186.000000	99.569950
3185.000000	99.569108
3184.000000	99.567205
3183.000000	99.564455
3182.000000	99.562686
3181.000000	99.564083
3180.000000	99.568683
3179.000000	99.573565
3178.000000	99.575360
3177.000000	99.573690
3176.000000	99.571501
3175.000000	99.571932
3174.000000	99.575322
3173.000000	99.579295
3172.000000	99.581062
3171.000000	99.579403
3170.000000	99.575028
3169.000000	99.569993
3168.000000	99.566910
3167.000000	99.567864
3166.000000	99.573047
3165.000000	99.579966
3164.000000	99.584607
3163.000000	99.584336
3162.000000	99.580282
3161.000000	99.576676
3160.000000	99.577402
3159.000000	99.582800
3158.000000	99.589558
3157.000000	99.593691
3156.000000	99.593744
3155.000000	99.591497
3154.000000	99.589824
3153.000000	99.590121
3152.000000	99.591787
3151.000000	99.593787
3150.000000	99.595786
3149.000000	99.597338
3148.000000	99.596779
3147.000000	99.592272
3146.000000	99.584153
3145.000000	99.575332
3144.000000	99.568867
3143.000000	99.565522
3142.000000	99.564141
3141.000000	99.563786
3140.000000	99.564845
3139.000000	99.568343
3138.000000	99.574825
3137.000000	99.583537
3136.000000	99.591941
3135.000000	99.596346
3134.000000	99.594454
3133.000000	99.587953
3132.000000	99.581905
3131.000000	99.580812
3130.000000	99.585276
3129.000000	99.592271
3128.000000	99.597925
3127.000000	99.599981
3126.000000	99.598494
3125.000000	99.595006
3124.000000	99.591217
3123.000000	99.588069
3122.000000	99.585738
3121.000000	99.584055
3120.000000	99.582608
3119.000000	99.580666
3118.000000	99.577799
3117.000000	99.574827
3116.000000	99.573526
3115.000000	99.574851
3114.000000	99.577795
3113.000000	99.580309
3112.000000	99.581071
3111.000000	99.580176
3110.000000	99.578772
3109.000000	99.578507
3108.000000	99.580759
3107.000000	99.585344
3106.000000	99.589840
3105.000000	99.591094
3104.000000	99.587923
3103.000000	99.582134
3102.000000	99.576682
3101.000000	99.573284
3100.000000	99.571904
3099.000000	99.571802
3098.000000	99.572278
3097.000000	99.572633
3096.000000	99.572175
3095.000000	99.570624
3094.000000	99.568374
3093.000000	99.566281
3092.000000	99.565181
3091.000000	99.565419
3090.000000	99.566628
3089.000000	99.567967
3088.000000	99.568715
3087.000000	99.568706
3086.000000	99.568319
3085.000000	99.568355
3084.000000	99.569810
3083.000000	99.573150
3082.000000	99.577331
3081.000000	99.579885
3080.000000	99.578688
3079.000000	99.573979
3078.000000	99.568442
3077.000000	99.565103
3076.000000	99.564996
3075.000000	99.566604
3074.000000	99.567334
3073.000000	99.565780
3072.000000	99.562926
3071.000000	99.561221
3070.000000	99.562159
3069.000000	99.564613
3068.000000	99.565605
3067.000000	99.562781
3066.000000	99.556332
3065.000000	99.548908
3064.000000	99.543791
3063.000000	99.542758
3062.000000	99.544950
3061.000000	99.547526
3060.000000	99.547821
3059.000000	99.545451
3058.000000	99.542768
3057.000000	99.543245
3056.000000	99.548824
3055.000000	99.558194
3054.000000	99.567291
3053.000000	99.571936
3052.000000	99.570623
3051.000000	99.565238
3050.000000	99.559194
3049.000000	99.554868
3048.000000	99.552700
3047.000000	99.552111
3046.000000	99.552529
3045.000000	99.553334
3044.000000	99.553641
3043.000000	99.552957
3042.000000	99.552009
3041.000000	99.552205
3040.000000	99.554088
3039.000000	99.556780
3038.000000	99.559200
3037.000000	99.561240
3036.000000	99.563193
3035.000000	99.564501
3034.000000	99.564029
3033.000000	99.561669
3032.000000	99.558820
3031.000000	99.556931
3030.000000	99.556295
3029.000000	99.556718
3028.000000	99.558422
3027.000000	99.561299
3026.000000	99.563727
3025.000000	99.563399
3024.000000	99.559698
3023.000000	99.554556
3022.000000	99.550639
3021.000000	99.549186
3020.000000	99.549783
3019.000000	99.551405
3018.000000	99.552900
3017.000000	99.552752
3016.000000	99.549451
3015.000000	99.542767
3014.000000	99.534622
3013.000000	99.528244
3012.000000	99.525898
3011.000000	99.526886
3010.000000	99.527798
3009.000000	99.525150
3008.000000	99.518203
3007.000000	99.509408
3006.000000	99.502167
3005.000000	99.498119
3004.000000	99.496302
3003.000000	99.494585
3002.000000	99.491807
3001.000000	99.488719
3000.000000	99.487056
2999.000000	99.487654
2998.000000	99.489345
2997.000000	99.489717
2996.000000	99.487004
2995.000000	99.481237
2994.000000	99.473562
2993.000000	99.464544
2992.000000	99.453376
2991.000000	99.438925
2990.000000	99.421622
2989.000000	99.404056
2988.000000	99.389381
2987.000000	99.378884
2986.000000	99.371014
2985.000000	99.362582
2984.000000	99.350728
2983.000000	99.334402
2982.000000	99.314909
2981.000000	99.295300
2980.000000	99.278212
2979.000000	99.263520
2978.000000	99.248307
2977.000000	99.229687
2976.000000	99.207480
2975.000000	99.183867
2974.000000	99.160814
2973.000000	99.138326
2972.000000	99.114856
2971.000000	99.088653
2970.000000	99.058924
2969.000000	99.026614
2968.000000	98.994352
2967.000000	98.964916
2966.000000	98.938976
2965.000000	98.914409
2964.000000	98.888071
2963.000000	98.858457
2962.000000	98.826738
2961.000000	98.795387
2960.000000	98.765937
2959.000000	98.738237
2958.000000	98.712034
2957.000000	98.688682
2956.000000	98.670371
2955.000000	98.657525
2954.000000	98.647948
2953.000000	98.639271
2952.000000	98.631363
2951.000000	98.625492
2950.000000	98.621529
2949.000000	98.617185
2948.000000	98.609815
2947.000000	98.597934
2946.000000	98.580877
2945.000000	98.558059
2944.000000	98.529327
2943.000000	98.495445
2942.000000	98.457601
2941.000000	98.416303
2940.000000	98.370815
2939.000000	98.319596
2938.000000	98.261379
2937.000000	98.196246
2936.000000	98.125551
2935.000000	98.050703
2934.000000	97.972384
2933.000000	97.891257
2932.000000	97.808830
2931.000000	97.726538
2930.000000	97.644270
2929.000000	97.560878
2928.000000	97.476592
2927.000000	97.394396
2926.000000	97.318722
2925.000000	97.253496
2924.000000	97.201291
2923.000000	97.163584
2922.000000	97.141115
2921.000000	97.134462
2920.000000	97.145002
2919.000000	97.174854
2918.000000	97.225628
2917.000000	97.296993
2916.000000	97.386435
2915.000000	97.489873
2914.000000	97.602117
2913.000000	97.717391
2912.000000	97.829907
2911.000000	97.934511
2910.000000	98.026988
2909.000000	98.104903
2908.000000	98.168870
2907.000000	98.222489
2906.000000	98.270158
2905.000000	98.314527
2904.000000	98.356084
2903.000000	98.394232
2902.000000	98.428390
2901.000000	98.457983
2900.000000	98.483292
2899.000000	98.506623
2898.000000	98.531672
2897.000000	98.561050
2896.000000	98.594158
2895.000000	98.627636
2894.000000	98.657845
2893.000000	98.683148
2892.000000	98.704462
2891.000000	98.724131
2890.000000	98.744041
2889.000000	98.764430
2888.000000	98.784224
2887.000000	98.802433
2886.000000	98.819117
2885.000000	98.834956
2884.000000	98.850002
2883.000000	98.863054
2882.000000	98.872344
2881.000000	98.876935
2880.000000	98.877475
2879.000000	98.875430
2878.000000	98.871513
2877.000000	98.865051
2876.000000	98.855168
2875.000000	98.842494
2874.000000	98.829268
2873.000000	98.817468
2872.000000	98.807223
2871.000000	98.797487
2870.000000	98.787993
2869.000000	98.779636
2868.000000	98.772541
2867.000000	98.764424
2866.000000	98.751731
2865.000000	98.732408
2864.000000	98.706711
2863.000000	98.675223
2862.000000	98.636816
2861.000000	98.589086
2860.000000	98.530325
2859.000000	98.460597
2858.000000	98.381613
2857.000000	98.296668
2856.000000	98.210665
2855.000000	98.129197
2854.000000	98.057517
2853.000000	98.000530
2852.000000	97.963754
2851.000000	97.953574
2850.000000	97.975533
2849.000000	98.031855
2848.000000	98.119637
2847.000000	98.230740
2846.000000	98.353798
2845.000000	98.477638
2844.000000	98.593784
2843.000000	98.697123
2842.000000	98.785508
2841.000000	98.859573
2840.000000	98.922424
2839.000000	98.977461
2838.000000	99.025862
2837.000000	99.066890
2836.000000	99.100772
2835.000000	99.129939
2834.000000	99.156717
2833.000000	99.180931
2832.000000	99.201078
2831.000000	99.217172
2830.000000	99.230966
2829.000000	99.243721
2828.000000	99.255151
2827.000000	99.264732
2826.000000	99.272812
2825.000000	99.279879
2824.000000	99.285824
2823.000000	99.290745
2822.000000	99.295926
2821.000000	99.303062
2820.000000	99.312469
2819.000000	99.322606
2818.000000	99.331604
2817.000000	99.339037
2816.000000	99.346047
2815.000000	99.353733
2814.000000	99.361461
2813.000000	99.366976
2812.000000	99.368476
2811.000000	99.366610
2810.000000	99.364070
2809.000000	99.363039
2808.000000	99.363407
2807.000000	99.363904
2806.000000	99.364562
2805.000000	99.367146
2804.000000	99.372835
2803.000000	99.380162
2802.000000	99.386129
2801.000000	99.389297
2800.000000	99.391087
2799.000000	99.393803
2798.000000	99.397923
2797.000000	99.401858
2796.000000	99.403996
2795.000000	99.404350
2794.000000	99.404206
2793.000000	99.404745
2792.000000	99.406212
2791.000000	99.408016
2790.000000	99.409492
2789.000000	99.410834
2788.000000	99.413343
2787.000000	99.418215
2786.000000	99.424671
2785.000000	99.429779
2784.000000	99.430918
2783.000000	99.428512
2782.000000	99.425740
2781.000000	99.425271
2780.000000	99.426746
2779.000000	99.427891
2778.000000	99.427608
2777.000000	99.427134
2776.000000	99.428215
2775.000000	99.431089
2774.000000	99.434783
2773.000000	99.438620
2772.000000	99.442476
2771.000000	99.445819
2770.000000	99.447621
2769.000000	99.447537
2768.000000	99.446423
2767.000000	99.445321
2766.000000	99.444563
2765.000000	99.444163
2764.000000	99.444345
2763.000000	99.445148
2762.000000	99.446155
2761.000000	99.447195
2760.000000	99.448671
2759.000000	99.450479
2758.000000	99.451274
2757.000000	99.449913
2756.000000	99.447355
2755.000000	99.446169
2754.000000	99.448137
2753.000000	99.452995
2752.000000	99.459128
2751.000000	99.464476
2750.000000	99.466929
2749.000000	99.465238
2748.000000	99.460196
2747.000000	99.454179
2746.000000	99.449168
2745.000000	99.445724
2744.000000	99.443863
2743.000000	99.443880
2742.000000	99.445730
2741.000000	99.448289
2740.000000	99.449916
2739.000000	99.449594
2738.000000	99.447535
2737.000000	99.445319
2736.000000	99.445407
2735.000000	99.449402
2734.000000	99.456116
2733.000000	99.462065
2732.000000	99.464659
2731.000000	99.464449
2730.000000	99.463712
2729.000000	99.463511
2728.000000	99.463097
2727.000000	99.461882
2726.000000	99.460853
2725.000000	99.461608
2724.000000	99.464478
2723.000000	99.467931
2722.000000	99.469703
2721.000000	99.468471
2720.000000	99.464700
2719.000000	99.460119
2718.000000	99.456593
2717.000000	99.455471
2716.000000	99.457382
2715.000000	99.461815
2714.000000	99.466993
2713.000000	99.471024
2712.000000	99.473495
2711.000000	99.475309
2710.000000	99.476846
2709.000000	99.477309
2708.000000	99.476412
2707.000000	99.475680
2706.000000	99.476937
2705.000000	99.479887
2704.000000	99.482300
2703.000000	99.482618
2702.000000	99.481619
2701.000000	99.481356
2700.000000	99.482976
2699.000000	99.485597
2698.000000	99.486907
2697.000000	99.484848
2696.000000	99.479298
2695.000000	99.472473
2694.000000	99.467558
2693.000000	99.466835
2692.000000	99.470713
2691.000000	99.477734
2690.000000	99.484964
2689.000000	99.489034
2688.000000	99.488118
2687.000000	99.483463
2686.000000	99.478540
2685.000000	99.476235
2684.000000	99.476759
2683.000000	99.478134
2682.000000	99.478302
2681.000000	99.476669
2680.000000	99.474059
2679.000000	99.471591
2678.000000	99.469674
2677.000000	99.468000
2676.000000	99.466330
2675.000000	99.465040
2674.000000	99.464851
2673.000000	99.466265
2672.000000	99.469401
2671.000000	99.473990
2670.000000	99.479100
2669.000000	99.483047
2668.000000	99.484250
2667.000000	99.482509
2666.000000	99.479151
2665.000000	99.475671
2664.000000	99.472345
2663.000000	99.468472
2662.000000	99.463864
2661.000000	99.459566
2660.000000	99.456781
2659.000000	99.455428
2658.000000	99.454475
2657.000000	99.453765
2656.000000	99.454667
2655.000000	99.458283
2654.000000	99.463585
2653.000000	99.468305
2652.000000	99.471402
2651.000000	99.473673
2650.000000	99.476057
2649.000000	99.478620
2648.000000	99.481520
2647.000000	99.485447
2646.000000	99.489979
2645.000000	99.492606
2644.000000	99.491030
2643.000000	99.486232
2642.000000	99.481981
2641.000000	99.481313
2640.000000	99.484455
2639.000000	99.490060
2638.000000	99.496915
2637.000000	99.503744
2636.000000	99.508638
2635.000000	99.510174
2634.000000	99.509095
2633.000000	99.508016
2632.000000	99.509113
2631.000000	99.512213
2630.000000	99.515081
2629.000000	99.515449
2628.000000	99.512934
2627.000000	99.509460
2626.000000	99.507860
2625.000000	99.509660
2624.000000	99.513834
2623.000000	99.517705
2622.000000	99.519348
2621.000000	99.519336
2620.000000	99.520039
2619.000000	99.523000
2618.000000	99.526878
2617.000000	99.528188
2616.000000	99.524407
2615.000000	99.516683
2614.000000	99.509620
2613.000000	99.508072
2612.000000	99.513356
2611.000000	99.521970
2610.000000	99.528111
2609.000000	99.528082
2608.000000	99.522901
2607.000000	99.516996
2606.000000	99.514622
2605.000000	99.517446
2604.000000	99.524565
2603.000000	99.533670
2602.000000	99.542001
2601.000000	99.547165
2600.000000	99.548253
2599.000000	99.546581
2598.000000	99.544990
2597.000000	99.545690
2596.000000	99.548268
2595.000000	99.550001
2594.000000	99.548685
2593.000000	99.545100
2592.000000	99.541989
2591.000000	99.540672
2590.000000	99.539919
2589.000000	99.538560
2588.000000	99.537758
2587.000000	99.539291
2586.000000	99.542634
2585.000000	99.545630
2584.000000	99.547831
2583.000000	99.551435
2582.000000	99.558390
2581.000000	99.567596
2580.000000	99.575202
2579.000000	99.577208
2578.000000	99.572409
2577.000000	99.564065
2576.000000	99.558270
2575.000000	99.558877
2574.000000	99.563785
2573.000000	99.567360
2572.000000	99.566229
2571.000000	99.561436
2570.000000	99.555942
2569.000000	99.552809
2568.000000	99.555563
2567.000000	99.566457
2566.000000	99.582459
2565.000000	99.595610
2564.000000	99.599946
2563.000000	99.596705
2562.000000	99.591100
2561.000000	99.586080
2560.000000	99.581380
2559.000000	99.576724
2558.000000	99.572561
2557.000000	99.568371
2556.000000	99.563454
2555.000000	99.559456
2554.000000	99.559344
2553.000000	99.563301
2552.000000	99.567857
2551.000000	99.569648
2550.000000	99.568264
2549.000000	99.564920
2548.000000	99.560514
2547.000000	99.555958
2546.000000	99.552597
2545.000000	99.550899
2544.000000	99.549922
2543.000000	99.549213
2542.000000	99.549973
2541.000000	99.552936
2540.000000	99.556021
2539.000000	99.555915
2538.000000	99.551826
2537.000000	99.546389
2536.000000	99.542688
2535.000000	99.541409
2534.000000	99.541158
2533.000000	99.540636
2532.000000	99.539863
2531.000000	99.539610
2530.000000	99.540111
2529.000000	99.540515
2528.000000	99.539650
2527.000000	99.537331
2526.000000	99.534581
2525.000000	99.532236
2524.000000	99.529680
2523.000000	99.525575
2522.000000	99.519788
2521.000000	99.513748
2520.000000	99.508631
2519.000000	99.504060
2518.000000	99.499394
2517.000000	99.495862
2516.000000	99.496192
2515.000000	99.501597
2514.000000	99.509584
2513.000000	99.515265
2512.000000	99.515055
2511.000000	99.509336
2510.000000	99.501713
2509.000000	99.495606
2508.000000	99.491377
2507.000000	99.487106
2506.000000	99.482396
2505.000000	99.480390
2504.000000	99.484744
2503.000000	99.494731
2502.000000	99.505167
2501.000000	99.512007
2500.000000	99.516484
2499.000000	99.522378
2498.000000	99.529977
2497.000000	99.534683
2496.000000	99.531949
2495.000000	99.522342
2494.000000	99.511365
2493.000000	99.505083
2492.000000	99.506412
2491.000000	99.514674
2490.000000	99.527178
2489.000000	99.540612
2488.000000	99.551420
2487.000000	99.556236
2486.000000	99.553351
2485.000000	99.544281
2484.000000	99.533445
2483.000000	99.525680
2482.000000	99.523885
2481.000000	99.528683
2480.000000	99.539214
2479.000000	99.553477
2478.000000	99.568331
2477.000000	99.580256
2476.000000	99.587032
2475.000000	99.589115
2474.000000	99.589440
2473.000000	99.591312
2472.000000	99.595733
2471.000000	99.600592
2470.000000	99.602863
2469.000000	99.601444
2468.000000	99.597404
2467.000000	99.592350
2466.000000	99.587821
2465.000000	99.585682
2464.000000	99.586917
2463.000000	99.589737
2462.000000	99.591044
2461.000000	99.590393
2460.000000	99.590191
2459.000000	99.590666
2458.000000	99.587366
2457.000000	99.576675
2456.000000	99.562845
2455.000000	99.556415
2454.000000	99.564436
2453.000000	99.583272
2452.000000	99.601025
2451.000000	99.606670
2450.000000	99.598254
2449.000000	99.583833
2448.000000	99.574328
2447.000000	99.574436
2446.000000	99.580401
2445.000000	99.586391
2444.000000	99.590803
2443.000000	99.595045
2442.000000	99.598868
2441.000000	99.600428
2440.000000	99.600159
2439.000000	99.601054
2438.000000	99.604672
2437.000000	99.609367
2436.000000	99.613157
2435.000000	99.616207
2434.000000	99.619504
2433.000000	99.622692
2432.000000	99.624330
2431.000000	99.623705
2430.000000	99.622014
2429.000000	99.622069
2428.000000	99.626143
2427.000000	99.632955
2426.000000	99.637674
2425.000000	99.636600
2424.000000	99.631473
2423.000000	99.627360
2422.000000	99.626479
2421.000000	99.626218
2420.000000	99.623317
2419.000000	99.617812
2418.000000	99.612023
2417.000000	99.607352
2416.000000	99.603480
2415.000000	99.600137
2414.000000	99.598550
2413.000000	99.600700
2412.000000	99.606799
2411.000000	99.613734
2410.000000	99.617378
2409.000000	99.617206
2408.000000	99.617448
2407.000000	99.622188
2406.000000	99.630104
2405.000000	99.635556
2404.000000	99.634482
2403.000000	99.628273
2402.000000	99.622503
2401.000000	99.622619
2400.000000	99.629479
2399.000000	99.637794
2398.000000	99.640648
2397.000000	99.637173
2396.000000	99.633906
2395.000000	99.636295
2394.000000	99.640769
2393.000000	99.638943
2392.000000	99.628656
2391.000000	99.617151
2390.000000	99.612827
2389.000000	99.617089
2388.000000	99.625456
2387.000000	99.632979
2386.000000	99.637585
2385.000000	99.639515
2384.000000	99.639659
2383.000000	99.638707
2382.000000	99.636504
2381.000000	99.633699
2380.000000	99.632098
2379.000000	99.631855
2378.000000	99.629880
2377.000000	99.623335
2376.000000	99.614521
2375.000000	99.609257
2374.000000	99.611436
2373.000000	99.620901
2372.000000	99.635588
2371.000000	99.651409
2370.000000	99.661861
2369.000000	99.662592
2368.000000	99.654493
2367.000000	99.641965
2366.000000	99.629113
2365.000000	99.618491
2364.000000	99.610158
2363.000000	99.598585
2362.000000	99.579549
2361.000000	99.561935
2360.000000	99.559478
2359.000000	99.577250
2358.000000	99.605895
2357.000000	99.629895
2356.000000	99.636730
2355.000000	99.620021
2354.000000	99.594065
2353.000000	99.583792
2352.000000	99.596250
2351.000000	99.613808
2350.000000	99.617166
2349.000000	99.605038
2348.000000	99.587992
2347.000000	99.579974
2346.000000	99.583341
2345.000000	99.583407
2344.000000	99.569193
2343.000000	99.548150
2342.000000	99.539462
2341.000000	99.549342
2340.000000	99.563206
2339.000000	99.563969
2338.000000	99.552675
2337.000000	99.543875
2336.000000	99.547896
2335.000000	99.564357
2334.000000	99.590239
2333.000000	99.620175
2332.000000	99.640976
2331.000000	99.639761
2330.000000	99.615497
2329.000000	99.582829
2328.000000	99.553869
2327.000000	99.533130
2326.000000	99.521479
2325.000000	99.519556
2324.000000	99.527880
2323.000000	99.540806
2322.000000	99.549954
2321.000000	99.546653
2320.000000	99.529436
2319.000000	99.505138
2318.000000	99.482707
2317.000000	99.468636
2316.000000	99.465940
2315.000000	99.477337
2314.000000	99.500667
2313.000000	99.526146
2312.000000	99.540718
2311.000000	99.540138
2310.000000	99.532474
2309.000000	99.530088
2308.000000	99.539198
2307.000000	99.556781
2306.000000	99.575124
2305.000000	99.586786
2304.000000	99.589147
2303.000000	99.584247
2302.000000	99.577047
2301.000000	99.572918
2300.000000	99.575841
2299.000000	99.586112
2298.000000	99.597419
2297.000000	99.601004
2296.000000	99.592829
2295.000000	99.578004
2294.000000	99.565148
2293.000000	99.559270
2292.000000	99.560188
2291.000000	99.564964
2290.000000	99.569533
2289.000000	99.569532
2288.000000	99.563742
2287.000000	99.555275
2286.000000	99.548460
2285.000000	99.545386
2284.000000	99.548057
2283.000000	99.559536
2282.000000	99.579570
2281.000000	99.600334
2280.000000	99.612209
2279.000000	99.613303
2278.000000	99.609917
2277.000000	99.608183
2276.000000	99.608227
2275.000000	99.606608
2274.000000	99.600662
2273.000000	99.590673
2272.000000	99.580042
2271.000000	99.573916
2270.000000	99.575514
2269.000000	99.583583
2268.000000	99.594532
2267.000000	99.605615
2266.000000	99.614219
2265.000000	99.616673
2264.000000	99.611748
2263.000000	99.604990
2262.000000	99.605293
2261.000000	99.615769
2260.000000	99.629778
2259.000000	99.636371
2258.000000	99.629987
2257.000000	99.615530
2256.000000	99.605015
2255.000000	99.607036
2254.000000	99.618325
2253.000000	99.627474
2252.000000	99.627093
2251.000000	99.619811
2250.000000	99.612162
2249.000000	99.608013
2248.000000	99.610381
2247.000000	99.624101
2246.000000	99.650737
2245.000000	99.682402
2244.000000	99.705264
2243.000000	99.709750
2242.000000	99.696140
2241.000000	99.672859
2240.000000	99.651462
2239.000000	99.639875
2238.000000	99.636938
2237.000000	99.634451
2236.000000	99.626116
2235.000000	99.613011
2234.000000	99.600490
2233.000000	99.593838
2232.000000	99.597044
2231.000000	99.609346
2230.000000	99.620821
2229.000000	99.618969
2228.000000	99.605093
2227.000000	99.598175
2226.000000	99.615838
2225.000000	99.654882
2224.000000	99.695627
2223.000000	99.721356
2222.000000	99.727783
2221.000000	99.718529
2220.000000	99.699501
2219.000000	99.675977
2218.000000	99.649774
2217.000000	99.621006
2216.000000	99.595690
2215.000000	99.586730
2214.000000	99.601997
2213.000000	99.634806
2212.000000	99.670939
2211.000000	99.700927
2210.000000	99.719376
2209.000000	99.718231
2208.000000	99.691609
2207.000000	99.646646
2206.000000	99.602370
2205.000000	99.577250
2204.000000	99.579666
2203.000000	99.605585
2202.000000	99.639488
2201.000000	99.661674
2200.000000	99.663649
2199.000000	99.655248
2198.000000	99.650535
2197.000000	99.650060
2196.000000	99.644495
2195.000000	99.632257
2194.000000	99.623157
2193.000000	99.624409
2192.000000	99.631647
2191.000000	99.635650
2190.000000	99.630467
2189.000000	99.613005
2188.000000	99.582975
2187.000000	99.548299
2186.000000	99.526115
2185.000000	99.531487
2184.000000	99.562162
2183.000000	99.596979
2182.000000	99.614246
2181.000000	99.614972
2180.000000	99.624621
2179.000000	99.664691
2178.000000	99.723384
2177.000000	99.762731
2176.000000	99.758480
2175.000000	99.726182
2174.000000	99.702071
2173.000000	99.704659
2172.000000	99.722349
2171.000000	99.731630
2170.000000	99.716743
2169.000000	99.675544
2168.000000	99.616776
2167.000000	99.553786
2166.000000	99.498726
2165.000000	99.461636
2164.000000	99.451194
2163.000000	99.469951
2162.000000	99.509337
2161.000000	99.557076
2160.000000	99.611429
2159.000000	99.677758
2158.000000	99.746090
2157.000000	99.792437
2156.000000	99.811058
2155.000000	99.821547
2154.000000	99.837769
2153.000000	99.850255
2152.000000	99.845145
2151.000000	99.824735
2150.000000	99.800115
2149.000000	99.775133
2148.000000	99.749683
2147.000000	99.731534
2146.000000	99.732751
2145.000000	99.755466
2144.000000	99.788354
2143.000000	99.816088
2142.000000	99.827425
2141.000000	99.818674
2140.000000	99.796879
2139.000000	99.777484
2138.000000	99.773278
2137.000000	99.785097
2136.000000	99.802708
2135.000000	99.811663
2134.000000	99.799988
2133.000000	99.765706
2132.000000	99.721830
2131.000000	99.689022
2130.000000	99.679974
2129.000000	99.692498
2128.000000	99.716147
2127.000000	99.740099
2126.000000	99.754200
2125.000000	99.751008
2124.000000	99.733075
2123.000000	99.713416
2122.000000	99.703226
2121.000000	99.701285
2120.000000	99.698812
2119.000000	99.691327
2118.000000	99.681795
2117.000000	99.675645
2116.000000	99.676988
2115.000000	99.686484
2114.000000	99.698264
2113.000000	99.701781
2112.000000	99.692347
2111.000000	99.678240
2110.000000	99.672464
2109.000000	99.678871
2108.000000	99.690107
2107.000000	99.697274
2106.000000	99.697142
2105.000000	99.691730
2104.000000	99.686161
2103.000000	99.686293
2102.000000	99.693985
2101.000000	99.704689
2100.000000	99.712485
2099.000000	99.716074
2098.000000	99.716985
2097.000000	99.714758
2096.000000	99.708532
2095.000000	99.701042
2094.000000	99.695661
2093.000000	99.690930
2092.000000	99.683319
2091.000000	99.674584
2090.000000	99.670891
2089.000000	99.673861
2088.000000	99.676952
2087.000000	99.673449
2086.000000	99.665443
2085.000000	99.662048
2084.000000	99.668877
2083.000000	99.680739
2082.000000	99.686332
2081.000000	99.680084
2080.000000	99.667609
2079.000000	99.658329
2078.000000	99.655428
2077.000000	99.656221
2076.000000	99.658740
2075.000000	99.661904
2074.000000	99.661109
2073.000000	99.651881
2072.000000	99.638560
2071.000000	99.630888
2070.000000	99.630596
2069.000000	99.629889
2068.000000	99.625708
2067.000000	99.625572
2066.000000	99.634201
2065.000000	99.643349
2064.000000	99.643104
2063.000000	99.636729
2062.000000	99.635191
2061.000000	99.642105
2060.000000	99.650717
2059.000000	99.651189
2058.000000	99.636366
2057.000000	99.607386
2056.000000	99.580034
2055.000000	99.577206
2054.000000	99.604789
2053.000000	99.639909
2052.000000	99.653117
2051.000000	99.638408
2050.000000	99.614261
2049.000000	99.601320
2048.000000	99.606696
2047.000000	99.625732
2046.000000	99.648503
2045.000000	99.663771
2044.000000	99.667045
2043.000000	99.666021
2042.000000	99.670818
2041.000000	99.680563
2040.000000	99.686367
2039.000000	99.683554
2038.000000	99.672320
2037.000000	99.652796
2036.000000	99.631312
2035.000000	99.625707
2034.000000	99.650263
2033.000000	99.695990
2032.000000	99.737188
2031.000000	99.756748
2030.000000	99.753965
2029.000000	99.734355
2028.000000	99.708332
2027.000000	99.695185
2026.000000	99.711629
2025.000000	99.752700
2024.000000	99.794054
2023.000000	99.817437
2022.000000	99.826808
2021.000000	99.838106
2020.000000	99.859033
2019.000000	99.880599
2018.000000	99.886930
2017.000000	99.874086
2016.000000	99.855714
2015.000000	99.843280
2014.000000	99.827688
2013.000000	99.792742
2012.000000	99.743438
2011.000000	99.705866
2010.000000	99.697330
2009.000000	99.710646
2008.000000	99.730015
2007.000000	99.747997
2006.000000	99.760325
2005.000000	99.760035
2004.000000	99.748451
2003.000000	99.738520
2002.000000	99.738287
2001.000000	99.741102
2000.000000	99.738053
1999.000000	99.730097
1998.000000	99.721115
1997.000000	99.710054
1996.000000	99.697969
1995.000000	99.692165
1994.000000	99.694966
1993.000000	99.697310
1992.000000	99.692316
1991.000000	99.686673
1990.000000	99.688821
1989.000000	99.696777
1988.000000	99.706732
1987.000000	99.719849
1986.000000	99.730179
1985.000000	99.720553
1984.000000	99.686096
1983.000000	99.649318
1982.000000	99.634333
1981.000000	99.636312
1980.000000	99.636932
1979.000000	99.643447
1978.000000	99.684660
1977.000000	99.761728
1976.000000	99.831901
1975.000000	99.856447
1974.000000	99.839028
1973.000000	99.809032
1972.000000	99.790703
1971.000000	99.792810
1970.000000	99.810884
1969.000000	99.829740
1968.000000	99.832356
1967.000000	99.816708
1966.000000	99.801793
1965.000000	99.811295
1964.000000	99.850741
1963.000000	99.899633
1962.000000	99.923575
1961.000000	99.901190
1960.000000	99.844963
1959.000000	99.787790
1958.000000	99.749696
1957.000000	99.728780
1956.000000	99.721194
1955.000000	99.733554
1954.000000	99.769111
1953.000000	99.813089
1952.000000	99.842274
1951.000000	99.845308
1950.000000	99.828726
1949.000000	99.808700
1948.000000	99.801268
1947.000000	99.813361
1946.000000	99.836652
1945.000000	99.854770
1944.000000	99.860581
1943.000000	99.860976
1942.000000	99.860498
1941.000000	99.850928
1940.000000	99.827323
1939.000000	99.801664
1938.000000	99.790535
1937.000000	99.796839
1936.000000	99.809631
1935.000000	99.818758
1934.000000	99.822046
1933.000000	99.821014
1932.000000	99.818108
1931.000000	99.816985
1930.000000	99.819575
1929.000000	99.822514
1928.000000	99.822135
1927.000000	99.820864
1926.000000	99.822169
1925.000000	99.821117
1924.000000	99.807006
1923.000000	99.779092
1922.000000	99.752636
1921.000000	99.742937
1920.000000	99.751205
1919.000000	99.768157
1918.000000	99.782670
1917.000000	99.787245
1916.000000	99.781065
1915.000000	99.769573
1914.000000	99.760046
1913.000000	99.756557
1912.000000	99.757170
1911.000000	99.756330
1910.000000	99.751496
1909.000000	99.745953
1908.000000	99.744224
1907.000000	99.745858
1906.000000	99.746512
1905.000000	99.744721
1904.000000	99.744054
1903.000000	99.747770
1902.000000	99.753276
1901.000000	99.755237
1900.000000	99.754440
1899.000000	99.757776
1898.000000	99.768317
1897.000000	99.781116
1896.000000	99.790401
1895.000000	99.797051
1894.000000	99.805072
1893.000000	99.814131
1892.000000	99.820619
1891.000000	99.822506
1890.000000	99.819802
1889.000000	99.813250
1888.000000	99.804686
1887.000000	99.797230
1886.000000	99.792592
1885.000000	99.789379
1884.000000	99.785980
1883.000000	99.783491
1882.000000	99.784329
1881.000000	99.789250
1880.000000	99.797362
1879.000000	99.806462
1878.000000	99.812401
1877.000000	99.812456
1876.000000	99.809887
1875.000000	99.810158
1874.000000	99.811942
1873.000000	99.807358
1872.000000	99.793842
1871.000000	99.780753
1870.000000	99.780993
1869.000000	99.796978
1868.000000	99.816478
1867.000000	99.827411
1866.000000	99.829992
1865.000000	99.829968
1864.000000	99.831643
1863.000000	99.836866
1862.000000	99.842559
1861.000000	99.840470
1860.000000	99.825069
1859.000000	99.801603
1858.000000	99.782017
1857.000000	99.773826
1856.000000	99.776569
1855.000000	99.787080
1854.000000	99.802245
1853.000000	99.816278
1852.000000	99.822873
1851.000000	99.821655
1850.000000	99.817239
1849.000000	99.813061
1848.000000	99.808977
1847.000000	99.805035
1846.000000	99.803988
1845.000000	99.808092
1844.000000	99.814599
1843.000000	99.818184
1842.000000	99.817871
1841.000000	99.816402
1840.000000	99.815942
1839.000000	99.816342
1838.000000	99.816223
1837.000000	99.816825
1836.000000	99.822741
1835.000000	99.836453
1834.000000	99.853212
1833.000000	99.865046
1832.000000	99.869245
1831.000000	99.868002
1830.000000	99.862436
1829.000000	99.851945
1828.000000	99.837826
1827.000000	99.824201
1826.000000	99.814493
1825.000000	99.810750
1824.000000	99.814253
1823.000000	99.823046
1822.000000	99.832064
1821.000000	99.836557
1820.000000	99.836412
1819.000000	99.836194
1818.000000	99.839790
1817.000000	99.846465
1816.000000	99.852447
1815.000000	99.856100
1814.000000	99.858499
1813.000000	99.860064
1812.000000	99.859307
1811.000000	99.853971
1810.000000	99.844676
1809.000000	99.835559
1808.000000	99.829628
1807.000000	99.825907
1806.000000	99.820559
1805.000000	99.810122
1804.000000	99.794257
1803.000000	99.775303
1802.000000	99.754505
1801.000000	99.731227
1800.000000	99.706262
1799.000000	99.683290
1798.000000	99.667331
1797.000000	99.660408
1796.000000	99.658856
1795.000000	99.656556
1794.000000	99.649441
1793.000000	99.639998
1792.000000	99.639564
1791.000000	99.656312
1790.000000	99.684102
1789.000000	99.711050
1788.000000	99.730131
1787.000000	99.741230
1786.000000	99.749102
1785.000000	99.758763
1784.000000	99.771553
1783.000000	99.785761
1782.000000	99.798062
1781.000000	99.804867
1780.000000	99.805792
1779.000000	99.803851
1778.000000	99.802477
1777.000000	99.803002
1776.000000	99.806002
1775.000000	99.812335
1774.000000	99.819567
1773.000000	99.820220
1772.000000	99.812630
1771.000000	99.805207
1770.000000	99.801686
1769.000000	99.798222
1768.000000	99.792546
1767.000000	99.787075
1766.000000	99.784847
1765.000000	99.785666
1764.000000	99.787740
1763.000000	99.788737
1762.000000	99.784565
1761.000000	99.773300
1760.000000	99.758664
1759.000000	99.744497
1758.000000	99.729947
1757.000000	99.711856
1756.000000	99.692609
1755.000000	99.676865
1754.000000	99.661880
1753.000000	99.640042
1752.000000	99.608500
1751.000000	99.574658
1750.000000	99.546743
1749.000000	99.521162
1748.000000	99.491906
1747.000000	99.461858
1746.000000	99.434170
1745.000000	99.406755
1744.000000	99.378727
1743.000000	99.352765
1742.000000	99.328842
1741.000000	99.302224
1740.000000	99.271660
1739.000000	99.244888
1738.000000	99.225769
1737.000000	99.209626
1736.000000	99.195462
1735.000000	99.194934
1734.000000	99.221231
1733.000000	99.262032
1732.000000	99.297397
1731.000000	99.329704
1730.000000	99.366359
1729.000000	99.404129
1728.000000	99.436390
1727.000000	99.461675
1726.000000	99.482701
1725.000000	99.501045
1724.000000	99.518735
1723.000000	99.537659
1722.000000	99.557012
1721.000000	99.572776
1720.000000	99.583019
1719.000000	99.587776
1718.000000	99.587106
1717.000000	99.586803
1716.000000	99.591084
1715.000000	99.597196
1714.000000	99.601844
1713.000000	99.601751
1712.000000	99.596965
1711.000000	99.592592
1710.000000	99.593192
1709.000000	99.597937
1708.000000	99.603375
1707.000000	99.608044
1706.000000	99.613125
1705.000000	99.619151
1704.000000	99.621383
1703.000000	99.616117
1702.000000	99.605583
1701.000000	99.592398
1700.000000	99.578882
1699.000000	99.570684
1698.000000	99.568154
1697.000000	99.566087
1696.000000	99.562664
1695.000000	99.557760
1694.000000	99.552179
1693.000000	99.544811
1692.000000	99.533000
1691.000000	99.517087
1690.000000	99.498292
1689.000000	99.475066
1688.000000	99.447381
1687.000000	99.419799
1686.000000	99.398089
1685.000000	99.381156
1684.000000	99.366754
1683.000000	99.357928
1682.000000	99.350103
1681.000000	99.336439
1680.000000	99.316980
1679.000000	99.295151
1678.000000	99.274193
1677.000000	99.252697
1676.000000	99.231550
1675.000000	99.216735
1674.000000	99.210439
1673.000000	99.205078
1672.000000	99.194922
1671.000000	99.182349
1670.000000	99.176490
1669.000000	99.182813
1668.000000	99.195143
1667.000000	99.205076
1666.000000	99.207582
1665.000000	99.201300
1664.000000	99.189383
1663.000000	99.178101
1662.000000	99.170848
1661.000000	99.163584
1660.000000	99.155297
1659.000000	99.149200
1658.000000	99.145911
1657.000000	99.137352
1656.000000	99.120765
1655.000000	99.102891
1654.000000	99.100838
1653.000000	99.120498
1652.000000	99.136295
1651.000000	99.140149
1650.000000	99.139324
1649.000000	99.131614
1648.000000	99.119764
1647.000000	99.123308
1646.000000	99.148444
1645.000000	99.171988
1644.000000	99.179607
1643.000000	99.177642
1642.000000	99.173413
1641.000000	99.172480
1640.000000	99.175350
1639.000000	99.179619
1638.000000	99.185015
1637.000000	99.195479
1636.000000	99.216050
1635.000000	99.240162
1634.000000	99.253127
1633.000000	99.255804
1632.000000	99.256267
1631.000000	99.259112
1630.000000	99.267030
1629.000000	99.277870
1628.000000	99.288078
1627.000000	99.295875
1626.000000	99.301356
1625.000000	99.307081
1624.000000	99.319445
1623.000000	99.342242
1622.000000	99.366285
1621.000000	99.378363
1620.000000	99.378842
1619.000000	99.377073
1618.000000	99.380988
1617.000000	99.392787
1616.000000	99.410346
1615.000000	99.430656
1614.000000	99.448574
1613.000000	99.459772
1612.000000	99.466327
1611.000000	99.475779
1610.000000	99.491092
1609.000000	99.506397
1608.000000	99.516472
1607.000000	99.523106
1606.000000	99.528338
1605.000000	99.530961
1604.000000	99.532486
1603.000000	99.536571
1602.000000	99.541132
1601.000000	99.539219
1600.000000	99.529943
1599.000000	99.520519
1598.000000	99.515584
1597.000000	99.512867
1596.000000	99.510177
1595.000000	99.509091
1594.000000	99.508873
1593.000000	99.503973
1592.000000	99.492207
1591.000000	99.478329
1590.000000	99.465946
1589.000000	99.452402
1588.000000	99.434990
1587.000000	99.415212
1586.000000	99.393391
1585.000000	99.366007
1584.000000	99.333417
1583.000000	99.302856
1582.000000	99.278522
1581.000000	99.256112
1580.000000	99.230714
1579.000000	99.204082
1578.000000	99.181365
1577.000000	99.167680
1576.000000	99.170635
1575.000000	99.192286
1574.000000	99.218188
1573.000000	99.233819
1572.000000	99.239638
1571.000000	99.245785
1570.000000	99.261021
1569.000000	99.279902
1568.000000	99.293392
1567.000000	99.303612
1566.000000	99.314306
1565.000000	99.321653
1564.000000	99.321769
1563.000000	99.317767
1562.000000	99.313108
1561.000000	99.313097
1560.000000	99.310141
1559.000000	99.294544
1558.000000	99.280989
1557.000000	99.261764
1556.000000	99.233839
1555.000000	99.210777
1554.000000	99.192395
1553.000000	99.177365
1552.000000	99.156928
1551.000000	99.127045
1550.000000	99.085136
1549.000000	99.034054
1548.000000	98.977184
1547.000000	98.914067
1546.000000	98.838993
1545.000000	98.749661
1544.000000	98.657080
1543.000000	98.574330
1542.000000	98.499813
1541.000000	98.430132
1540.000000	98.391305
1539.000000	98.396818
1538.000000	98.410334
1537.000000	98.409924
1536.000000	98.400691
1535.000000	98.392108
1534.000000	98.392122
1533.000000	98.393683
1532.000000	98.384497
1531.000000	98.361639
1530.000000	98.330353
1529.000000	98.292647
1528.000000	98.249239
1527.000000	98.202571
1526.000000	98.153403
1525.000000	98.101099
1524.000000	98.047390
1523.000000	97.992929
1522.000000	97.933317
1521.000000	97.869957
1520.000000	97.813362
1519.000000	97.766094
1518.000000	97.717054
1517.000000	97.656878
1516.000000	97.591477
1515.000000	97.529069
1514.000000	97.465445
1513.000000	97.394393
1512.000000	97.319255
1511.000000	97.247619
1510.000000	97.178045
1509.000000	97.102925
1508.000000	97.022773
1507.000000	96.962572
1506.000000	96.925886
1505.000000	96.877997
1504.000000	96.817956
1503.000000	96.756196
1502.000000	96.688199
1501.000000	96.614271
1500.000000	96.538856
1499.000000	96.467402
1498.000000	96.393204
1497.000000	96.310972
1496.000000	96.232998
1495.000000	96.171963
1494.000000	96.120014
1493.000000	96.062219
1492.000000	95.993699
1491.000000	95.918891
1490.000000	95.844102
1489.000000	95.774173
1488.000000	95.710481
1487.000000	95.651518
1486.000000	95.594568
1485.000000	95.534320
1484.000000	95.468466
1483.000000	95.398984
1482.000000	95.326802
1481.000000	95.253015
1480.000000	95.180514
1479.000000	95.110282
1478.000000	95.038054
1477.000000	94.959283
1476.000000	94.874806
1475.000000	94.787885
1474.000000	94.696506
1473.000000	94.601752
1472.000000	94.518140
1471.000000	94.449645
1470.000000	94.382589
1469.000000	94.309756
1468.000000	94.236117
1467.000000	94.169844
1466.000000	94.114213
1465.000000	94.067097
1464.000000	94.025882
1463.000000	93.985272
1462.000000	93.938587
1461.000000	93.882291
1460.000000	93.817606
1459.000000	93.749485
1458.000000	93.685310
1457.000000	93.639566
1456.000000	93.615090
1455.000000	93.592111
1454.000000	93.555912
1453.000000	93.507524
1452.000000	93.456656
1451.000000	93.410889
1450.000000	93.366916
1449.000000	93.321936
1448.000000	93.281567
1447.000000	93.249073
1446.000000	93.214763
1445.000000	93.170261
1444.000000	93.120250
1443.000000	93.072748
1442.000000	93.027845
1441.000000	92.979253
1440.000000	92.923919
1439.000000	92.865432
1438.000000	92.811738
1437.000000	92.774176
1436.000000	92.755030
1435.000000	92.734861
1434.000000	92.694281
1433.000000	92.634945
1432.000000	92.571362
1431.000000	92.515850
1430.000000	92.466872
1429.000000	92.416637
1428.000000	92.364149
1427.000000	92.311060
1426.000000	92.254531
1425.000000	92.192428
1424.000000	92.130987
1423.000000	92.073091
1422.000000	92.009085
1421.000000	91.932937
1420.000000	91.856746
1419.000000	91.798803
1418.000000	91.753432
1417.000000	91.700042
1416.000000	91.635500
1415.000000	91.565833
1414.000000	91.490209
1413.000000	91.408683
1412.000000	91.331408
1411.000000	91.267844
1410.000000	91.210156
1409.000000	91.145243
1408.000000	91.075438
1407.000000	91.013539
1406.000000	90.965572
1405.000000	90.929772
1404.000000	90.905392
1403.000000	90.886832
1402.000000	90.861816
1401.000000	90.826352
1400.000000	90.792181
1399.000000	90.769291
1398.000000	90.745315
1397.000000	90.705421
1396.000000	90.661657
1395.000000	90.638800
1394.000000	90.637220
1393.000000	90.637165
1392.000000	90.633152
1391.000000	90.631466
1390.000000	90.633690
1389.000000	90.644035
1388.000000	90.679882
1387.000000	90.751643
1386.000000	90.837107
1385.000000	90.910183
1384.000000	90.976200
1383.000000	91.052591
1382.000000	91.141060
1381.000000	91.234016
1380.000000	91.333488
1379.000000	91.444423
1378.000000	91.557514
1377.000000	91.661799
1376.000000	91.767690
1375.000000	91.897854
1374.000000	92.052819
1373.000000	92.206111
1372.000000	92.341043
1371.000000	92.465541
1370.000000	92.591609
1369.000000	92.723009
1368.000000	92.857098
1367.000000	92.985984
1366.000000	93.103034
1365.000000	93.215101
1364.000000	93.342651
1363.000000	93.499527
1362.000000	93.672320
1361.000000	93.835374
1360.000000	93.980688
1359.000000	94.113783
1358.000000	94.237968
1357.000000	94.356449
1356.000000	94.475259
1355.000000	94.594416
1354.000000	94.705163
1353.000000	94.804024
1352.000000	94.898966
1351.000000	94.995873
1350.000000	95.089632
1349.000000	95.173527
1348.000000	95.249793
1347.000000	95.323875
1346.000000	95.396388
1345.000000	95.466604
1344.000000	95.535865
1343.000000	95.602593
1342.000000	95.662032
1341.000000	95.715067
1340.000000	95.770462
1339.000000	95.831646
1338.000000	95.889190
1337.000000	95.936322
1336.000000	95.978830
1335.000000	96.023235
1334.000000	96.068555
1333.000000	96.113333
1332.000000	96.161131
1331.000000	96.213799
1330.000000	96.266170
1329.000000	96.312866
1328.000000	96.354897
1327.000000	96.395627
1326.000000	96.435771
1325.000000	96.475547
1324.000000	96.516537
1323.000000	96.557254
1322.000000	96.592664
1321.000000	96.621497
1320.000000	96.649041
1319.000000	96.679952
1318.000000	96.713087
1317.000000	96.746244
1316.000000	96.779782
1315.000000	96.812950
1314.000000	96.843324
1313.000000	96.872491
1312.000000	96.905601
1311.000000	96.942870
1310.000000	96.978163
1309.000000	97.008205
1308.000000	97.036366
1307.000000	97.065653
1306.000000	97.094581
1305.000000	97.122296
1304.000000	97.151751
1303.000000	97.183898
1302.000000	97.214621
1301.000000	97.240896
1300.000000	97.265262
1299.000000	97.291257
1298.000000	97.318856
1297.000000	97.346591
1296.000000	97.373591
1295.000000	97.397692
1294.000000	97.416184
1293.000000	97.430051
1292.000000	97.443000
1291.000000	97.455312
1290.000000	97.463631
1289.000000	97.468183
1288.000000	97.474451
1287.000000	97.485599
1286.000000	97.498383
1285.000000	97.509117
1284.000000	97.518878
1283.000000	97.530156
1282.000000	97.542569
1281.000000	97.553973
1280.000000	97.562736
1279.000000	97.567975
1278.000000	97.570772
1277.000000	97.575623
1276.000000	97.586618
1275.000000	97.601890
1274.000000	97.615895
1273.000000	97.627210
1272.000000	97.639369
1271.000000	97.653583
1270.000000	97.666114
1269.000000	97.674167
1268.000000	97.678972
1267.000000	97.681627
1266.000000	97.681367
1265.000000	97.679994
1264.000000	97.682801
1263.000000	97.692293
1262.000000	97.704753
1261.000000	97.715146
1260.000000	97.721847
1259.000000	97.725278
1258.000000	97.725902
1257.000000	97.725028
1256.000000	97.723797
1255.000000	97.720450
1254.000000	97.712524
1253.000000	97.702403
1252.000000	97.696271
1251.000000	97.696521
1250.000000	97.699211
1249.000000	97.699909
1248.000000	97.697955
1247.000000	97.694013
1246.000000	97.688196
1245.000000	97.682380
1244.000000	97.679765
1243.000000	97.679995
1242.000000	97.678873
1241.000000	97.674734
1240.000000	97.670525
1239.000000	97.667528
1238.000000	97.661843
1237.000000	97.650470
1236.000000	97.637065
1235.000000	97.628239
1234.000000	97.626894
1233.000000	97.631703
1232.000000	97.640389
1231.000000	97.650390
1230.000000	97.658977
1229.000000	97.666170
1228.000000	97.675695
1227.000000	97.690839
1226.000000	97.710923
1225.000000	97.733305
1224.000000	97.756587
1223.000000	97.779789
1222.000000	97.800838
1221.000000	97.818215
1220.000000	97.832762
1219.000000	97.846510
1218.000000	97.861047
1217.000000	97.877617
1216.000000	97.896486
1215.000000	97.915249
1214.000000	97.930056
1213.000000	97.939909
1212.000000	97.947878
1211.000000	97.957179
1210.000000	97.967789
1209.000000	97.976993
1208.000000	97.981153
1207.000000	97.976910
1206.000000	97.963967
1205.000000	97.947642
1204.000000	97.935648
1203.000000	97.931233
1202.000000	97.931309
1201.000000	97.931706
1200.000000	97.931734
1199.000000	97.932721
1198.000000	97.934901
1197.000000	97.937478
1196.000000	97.939966
1195.000000	97.942169
1194.000000	97.944255
1193.000000	97.947157
1192.000000	97.951234
1191.000000	97.954535
1190.000000	97.954623
1189.000000	97.952119
1188.000000	97.949983
1187.000000	97.949178
1186.000000	97.947605
1185.000000	97.943598
1184.000000	97.937517
1183.000000	97.929713
1182.000000	97.920307
1181.000000	97.911724
1180.000000	97.907790
1179.000000	97.908550
1178.000000	97.909038
1177.000000	97.905107
1176.000000	97.897823
1175.000000	97.890623
1174.000000	97.884876
1173.000000	97.880228
1172.000000	97.877269
1171.000000	97.877449
1170.000000	97.880915
1169.000000	97.885989
1168.000000	97.890464
1167.000000	97.893126
1166.000000	97.895179
1165.000000	97.899963
1164.000000	97.909522
1163.000000	97.921443
1162.000000	97.931354
1161.000000	97.938814
1160.000000	97.947994
1159.000000	97.961857
1158.000000	97.978482
1157.000000	97.994360
1156.000000	98.008793
1155.000000	98.023241
1154.000000	98.038510
1153.000000	98.054755
1152.000000	98.072925
1151.000000	98.094367
1150.000000	98.119332
1149.000000	98.146650
1148.000000	98.174223
1147.000000	98.199662
1146.000000	98.221960
1145.000000	98.242940
1144.000000	98.265553
1143.000000	98.290098
1142.000000	98.313376
1141.000000	98.332186
1140.000000	98.346819
1139.000000	98.360761
1138.000000	98.377616
1137.000000	98.398312
1136.000000	98.420590
1135.000000	98.441274
1134.000000	98.459214
1133.000000	98.475110
1132.000000	98.488472
1131.000000	98.496854
1130.000000	98.499439
1129.000000	98.499472
1128.000000	98.501156
1127.000000	98.505594
1126.000000	98.511416
1125.000000	98.517630
1124.000000	98.523768
1123.000000	98.528649
1122.000000	98.531588
1121.000000	98.533845
1120.000000	98.536501
1119.000000	98.537779
1118.000000	98.534661
1117.000000	98.526902
1116.000000	98.517956
1115.000000	98.512627
1114.000000	98.514354
1113.000000	98.522698
1112.000000	98.532013
1111.000000	98.535136
1110.000000	98.531033
1109.000000	98.526830
1108.000000	98.529939
1107.000000	98.539881
1106.000000	98.550444
1105.000000	98.557260
1104.000000	98.559709
1103.000000	98.557709
1102.000000	98.551355
1101.000000	98.543475
1100.000000	98.538291
1099.000000	98.536820
1098.000000	98.536594
1097.000000	98.534447
1096.000000	98.528003
1095.000000	98.516002
1094.000000	98.500898
1093.000000	98.489624
1092.000000	98.487359
1091.000000	98.490443
1090.000000	98.488590
1089.000000	98.474606
1088.000000	98.449518
1087.000000	98.419217
1086.000000	98.389959
1085.000000	98.367099
1084.000000	98.354073
1083.000000	98.350269
1082.000000	98.351138
1081.000000	98.351552
1080.000000	98.349030
1079.000000	98.344618
1078.000000	98.342244
1077.000000	98.346453
1076.000000	98.358496
1075.000000	98.375086
1074.000000	98.392208
1073.000000	98.408675
1072.000000	98.424087
1071.000000	98.435597
1070.000000	98.440421
1069.000000	98.440520
1068.000000	98.441304
1067.000000	98.446172
1066.000000	98.454918
1065.000000	98.466354
1064.000000	98.478912
1063.000000	98.489077
1062.000000	98.492929
1061.000000	98.490102
1060.000000	98.484065
1059.000000	98.478667
1058.000000	98.476419
1057.000000	98.478934
1056.000000	98.485711
1055.000000	98.492615
1054.000000	98.495133
1053.000000	98.494083
1052.000000	98.495563
1051.000000	98.503737
1050.000000	98.515371
1049.000000	98.523064
1048.000000	98.523129
1047.000000	98.519718
1046.000000	98.521204
1045.000000	98.532019
1044.000000	98.547876
1043.000000	98.559882
1042.000000	98.563440
1041.000000	98.561320
1040.000000	98.557772
1039.000000	98.553409
1038.000000	98.547799
1037.000000	98.543379
1036.000000	98.542843
1035.000000	98.544565
1034.000000	98.544512
1033.000000	98.541986
1032.000000	98.540579
1031.000000	98.543869
1030.000000	98.552256
1029.000000	98.562984
1028.000000	98.571173
1027.000000	98.572320
1026.000000	98.566455
1025.000000	98.558903
1024.000000	98.555242
1023.000000	98.556847
1022.000000	98.562673
1021.000000	98.572289
1020.000000	98.584089
1019.000000	98.593177
1018.000000	98.595152
1017.000000	98.590866
1016.000000	98.584334
1015.000000	98.577991
1014.000000	98.573590
1013.000000	98.575475
1012.000000	98.587580
1011.000000	98.607428
1010.000000	98.627612
1009.000000	98.643961
1008.000000	98.658501
1007.000000	98.673666
1006.000000	98.687958
1005.000000	98.699170
1004.000000	98.708857
1003.000000	98.720670
1002.000000	98.735249
1001.000000	98.749264
1000.000000	98.760025
999.000000	98.769867
998.000000	98.784180
997.000000	98.804336
996.000000	98.824361
995.000000	98.836892
994.000000	98.841951
993.000000	98.846853
992.000000	98.857407
991.000000	98.872729
990.000000	98.889127
989.000000	98.905083
988.000000	98.920515
987.000000	98.934922
986.000000	98.948934
985.000000	98.964604
984.000000	98.981472
983.000000	98.995085
982.000000	99.002194
981.000000	99.004937
980.000000	99.007495
979.000000	99.011164
978.000000	99.014928
977.000000	99.017779
976.000000	99.018255
975.000000	99.015634
974.000000	99.014375
973.000000	99.022806
972.000000	99.042879
971.000000	99.064267
970.000000	99.073846
969.000000	99.069394
968.000000	99.060176
967.000000	99.056862
966.000000	99.064822
965.000000	99.084074
964.000000	99.109894
963.000000	99.134095
962.000000	99.150810
961.000000	99.161627
960.000000	99.172259
959.000000	99.185672
958.000000	99.201336
957.000000	99.218442
956.000000	99.235685
955.000000	99.250070
954.000000	99.260457
953.000000	99.270478
952.000000	99.283617
951.000000	99.297330
950.000000	99.307022
949.000000	99.313966
948.000000	99.323987
947.000000	99.339107
946.000000	99.355249
945.000000	99.367636
944.000000	99.374063
943.000000	99.374257
942.000000	99.371016
941.000000	99.370930
940.000000	99.378793
939.000000	99.391790
938.000000	99.403456
937.000000	99.412595
936.000000	99.423182
935.000000	99.436412
934.000000	99.448808
933.000000	99.458477
932.000000	99.467524
931.000000	99.476930
930.000000	99.484001
929.000000	99.486648
928.000000	99.486685
927.000000	99.487731
926.000000	99.492660
925.000000	99.503081
924.000000	99.517919
923.000000	99.532329
922.000000	99.541439
921.000000	99.545378
920.000000	99.548067
919.000000	99.552214
918.000000	99.558942
917.000000	99.570628
916.000000	99.588755
915.000000	99.609092
914.000000	99.624050
913.000000	99.630927
912.000000	99.633938
911.000000	99.637952
910.000000	99.644229
909.000000	99.652252
908.000000	99.661399
907.000000	99.670004
906.000000	99.676632
905.000000	99.682978
904.000000	99.692264
903.000000	99.704760
902.000000	99.718141
901.000000	99.731534
900.000000	99.745702
899.000000	99.760217
898.000000	99.774739
897.000000	99.791487
896.000000	99.811495
895.000000	99.829705
894.000000	99.839998
893.000000	99.844639
892.000000	99.852458
891.000000	99.868043
890.000000	99.888323
889.000000	99.908257
888.000000	99.921544
887.000000	99.913836
886.000000	99.864101
885.000000	99.754524
884.000000	99.572295
883.000000	99.302575
882.000000	98.925633
881.000000	98.425151
880.000000	97.791603
879.000000	97.019506
878.000000	96.113688
877.000000	95.095430
876.000000	93.993789
875.000000	92.838589
874.000000	91.708468
873.000000	90.808901
872.000000	90.464693
871.000000	90.931789
870.000000	92.158582
869.000000	93.764618
868.000000	95.282711
867.000000	96.433669
866.000000	97.199462
865.000000	97.698530
864.000000	98.043250
863.000000	98.297043
862.000000	98.494698
861.000000	98.656491
860.000000	98.788533
859.000000	98.890912
858.000000	98.971149
857.000000	99.040547
856.000000	99.102526
855.000000	99.154496
854.000000	99.197466
853.000000	99.233744
852.000000	99.255075
851.000000	99.245623
850.000000	99.203306
849.000000	99.152492
848.000000	99.129580
847.000000	99.155883
846.000000	99.224999
845.000000	99.312595
844.000000	99.394095
843.000000	99.455606
842.000000	99.495390
841.000000	99.519730
840.000000	99.536927
839.000000	99.552095
838.000000	99.565458
837.000000	99.575560
836.000000	99.584483
835.000000	99.598637
834.000000	99.622032
833.000000	99.649309
832.000000	99.669404
831.000000	99.677613
830.000000	99.680462
829.000000	99.686025
828.000000	99.693179
827.000000	99.696004
826.000000	99.696078
825.000000	99.702206
824.000000	99.716898
823.000000	99.730647
822.000000	99.733752
821.000000	99.728939
820.000000	99.728158
819.000000	99.739696
818.000000	99.760886
817.000000	99.781426
816.000000	99.791778
815.000000	99.790329
814.000000	99.784218
813.000000	99.781691
812.000000	99.783145
811.000000	99.781816
810.000000	99.773452
809.000000	99.762365
808.000000	99.756886
807.000000	99.761674
806.000000	99.775901
805.000000	99.795600
804.000000	99.815195
803.000000	99.829013
802.000000	99.834306
801.000000	99.832467
800.000000	99.826158
799.000000	99.816532
798.000000	99.804299
797.000000	99.791502
796.000000	99.780626
795.000000	99.773575
794.000000	99.771978
793.000000	99.775917
792.000000	99.781595
791.000000	99.783909
790.000000	99.783929
789.000000	99.790426
788.000000	99.809472
787.000000	99.833596
786.000000	99.845905
785.000000	99.836411
784.000000	99.811508
783.000000	99.786239
782.000000	99.770109
781.000000	99.762856
780.000000	99.761545
779.000000	99.766137
778.000000	99.775598
777.000000	99.782785
776.000000	99.779382
775.000000	99.766593
774.000000	99.756136
773.000000	99.757992
772.000000	99.770172
771.000000	99.783055
770.000000	99.790483
769.000000	99.792725
768.000000	99.791285
767.000000	99.786659
766.000000	99.781139
765.000000	99.778836
764.000000	99.781558
763.000000	99.787679
762.000000	99.795696
761.000000	99.805691
760.000000	99.816520
759.000000	99.824829
758.000000	99.828749
757.000000	99.830620
756.000000	99.834694
755.000000	99.843355
754.000000	99.855477
753.000000	99.866818
752.000000	99.872280
751.000000	99.869863
750.000000	99.862436
749.000000	99.854222
748.000000	99.846249
747.000000	99.836775
746.000000	99.825471
745.000000	99.815253
744.000000	99.810468
743.000000	99.814492
742.000000	99.827114
741.000000	99.842467
740.000000	99.852609
739.000000	99.855898
738.000000	99.857667
737.000000	99.859128
736.000000	99.851051
735.000000	99.825815
734.000000	99.792455
733.000000	99.769994
732.000000	99.766009
731.000000	99.769583
730.000000	99.765985
729.000000	99.750260
728.000000	99.727863
727.000000	99.708228
726.000000	99.695772
725.000000	99.684358
724.000000	99.661655
723.000000	99.621690
722.000000	99.570194
721.000000	99.513978
720.000000	99.447665
719.000000	99.353911
718.000000	99.211630
717.000000	98.998478
716.000000	98.698343
715.000000	98.332039
714.000000	97.984933
713.000000	97.778226
712.000000	97.788284
711.000000	97.989399
710.000000	98.279632
709.000000	98.556701
708.000000	98.769827
707.000000	98.918938
706.000000	99.023075
705.000000	99.098892
704.000000	99.159410
703.000000	99.214584
702.000000	99.267927
701.000000	99.315258
700.000000	99.349828
699.000000	99.373679
698.000000	99.397193
697.000000	99.426365
696.000000	99.456519
695.000000	99.478662
694.000000	99.492423
693.000000	99.505066
692.000000	99.519032
691.000000	99.533352
690.000000	99.549556
689.000000	99.568614
688.000000	99.585068
687.000000	99.593137
686.000000	99.601497
685.000000	99.623853
684.000000	99.653461
683.000000	99.667694
682.000000	99.658635
681.000000	99.641267
680.000000	99.628282
679.000000	99.617694
678.000000	99.607914
677.000000	99.599221
676.000000	99.588571
675.000000	99.574176
674.000000	99.565044
673.000000	99.574622
672.000000	99.607309
671.000000	99.667508
670.000000	99.767724
669.000000	99.906949
668.000000	99.990418
667.000000	99.914021
666.000000	99.769070
665.000000	99.638660
664.000000	99.546472
663.000000	99.505350
662.000000	99.505464
661.000000	99.523597
660.000000	99.540388
659.000000	99.550578
658.000000	99.553061
657.000000	99.541389
656.000000	99.520673
655.000000	99.511240
654.000000	99.520751
653.000000	99.531984
652.000000	99.531211
651.000000	99.525673
650.000000	99.526466
649.000000	99.530372
648.000000	99.531310
647.000000	99.531593
646.000000	99.530578
645.000000	99.523003
644.000000	99.511995
643.000000	99.508020
642.000000	99.513237
641.000000	99.515951
640.000000	99.508072
639.000000	99.498145
638.000000	99.496938
637.000000	99.502095
636.000000	99.505935
635.000000	99.505357
634.000000	99.499759
633.000000	99.488961
632.000000	99.477793
631.000000	99.476116
630.000000	99.487390
629.000000	99.501817
628.000000	99.508022
627.000000	99.505898
626.000000	99.501627
625.000000	99.499200
624.000000	99.497869
623.000000	99.493821
622.000000	99.483167
621.000000	99.465583
620.000000	99.445646
619.000000	99.429089
618.000000	99.419035
617.000000	99.416530
616.000000	99.420150
615.000000	99.423246
614.000000	99.418056
613.000000	99.407046
612.000000	99.405045
611.000000	99.421852
610.000000	99.446494
609.000000	99.457845
608.000000	99.449063
607.000000	99.432800
606.000000	99.421680
605.000000	99.417406
604.000000	99.416891
603.000000	99.418251
602.000000	99.420874
601.000000	99.426332
600.000000	99.439031
599.000000	99.459968
598.000000	99.480210
597.000000	99.487595
596.000000	99.478851
595.000000	99.459543
594.000000	99.435154
593.000000	99.410682
592.000000	99.398282
591.000000	99.411068
590.000000	99.443795
589.000000	99.471365
588.000000	99.472347
587.000000	99.445912
586.000000	99.404576
585.000000	99.360526
584.000000	99.324696
583.000000	99.311062
582.000000	99.328287
581.000000	99.367010
580.000000	99.404080
579.000000	99.422595
578.000000	99.423316
577.000000	99.417494
576.000000	99.415169
575.000000	99.419607
574.000000	99.427263
573.000000	99.431607
572.000000	99.428253
571.000000	99.416554
570.000000	99.398686
569.000000	99.378390
568.000000	99.361257
567.000000	99.352370
566.000000	99.350278
565.000000	99.345773
564.000000	99.329212
563.000000	99.299378
562.000000	99.265122
561.000000	99.240650
560.000000	99.238070
559.000000	99.258877
558.000000	99.289063
557.000000	99.307061
556.000000	99.300136
555.000000	99.273656
554.000000	99.246132
553.000000	99.235875
552.000000	99.250203
551.000000	99.280961
550.000000	99.308782
549.000000	99.318406
548.000000	99.311017
547.000000	99.297229
546.000000	99.281390
545.000000	99.260524
544.000000	99.238883
543.000000	99.231770
542.000000	99.248412
541.000000	99.277136
540.000000	99.294184
539.000000	99.283528
538.000000	99.245370
537.000000	99.192537
536.000000	99.145309
535.000000	99.125787
534.000000	99.144979
533.000000	99.191325
532.000000	99.235133
531.000000	99.249423
530.000000	99.230056
529.000000	99.195697
528.000000	99.167897
527.000000	99.156463
526.000000	99.160840
525.000000	99.176634
524.000000	99.196053
523.000000	99.205792
522.000000	99.196820
521.000000	99.180508
520.000000	99.182892
519.000000	99.212681
518.000000	99.243807
517.000000	99.247436
516.000000	99.232307
515.000000	99.228228
514.000000	99.243892
513.000000	99.266207
512.000000	99.290410
511.000000	99.327277
510.000000	99.379271
509.000000	99.428302
508.000000	99.451955
507.000000	99.441926
506.000000	99.403794
505.000000	99.349197
504.000000	99.294699
503.000000	99.259847
502.000000	99.253951
501.000000	99.266487
500.000000	99.283036
499.000000	99.302920
498.000000	99.330111
497.000000	99.358036
496.000000	99.373782
495.000000	99.373405
494.000000	99.366546
493.000000	99.364750
492.000000	99.367775
491.000000	99.364061
490.000000	99.346799
489.000000	99.330890
488.000000	99.341037
487.000000	99.377241
486.000000	99.402997
485.000000	99.385470
484.000000	99.346776
483.000000	99.345245
482.000000	99.396395
481.000000	99.446272
480.000000	99.434236
479.000000	99.357638
478.000000	99.268670
477.000000	99.222406
476.000000	99.233879
475.000000	99.276596
474.000000	99.307898
473.000000	99.304928
472.000000	99.289112
471.000000	99.296790
470.000000	99.323252
469.000000	99.333460
468.000000	99.313302
467.000000	99.284928
466.000000	99.275612
465.000000	99.293502
464.000000	99.338669
463.000000	99.400170
462.000000	99.433707
461.000000	99.390719
460.000000	99.292441
459.000000	99.239484
458.000000	99.317398
457.000000	99.478565
456.000000	99.600920
455.000000	99.656524
454.000000	99.702571
453.000000	99.774218
452.000000	99.849433
451.000000	99.885610
450.000000	99.869369
