PE IR       SUBTECH     SPECTRUM    ASCII       PEDS        4.00        
   -1
AG10-F007_1.ASC
23/09/08
10:39:27.00
23/09/08
11:14:38.00
uco
Sample 007 By uco Date Friday, September 08 2023
450.000000
#HDR
-1
-1
#GR
cm-1
%T
1.0
0.0
4000.000000
-1.000000
3551
8
99.705907
87.330729
#DATA
4000.000000	99.610550
3999.000000	99.612331
3998.000000	99.612725
3997.000000	99.611659
3996.000000	99.609753
3995.000000	99.609026
3994.000000	99.610839
3993.000000	99.614330
3992.000000	99.617017
3991.000000	99.616954
3990.000000	99.614302
3989.000000	99.610820
3988.000000	99.608118
3987.000000	99.606459
3986.000000	99.605075
3985.000000	99.603330
3984.000000	99.601440
3983.000000	99.600119
3982.000000	99.599632
3981.000000	99.599291
3980.000000	99.598041
3979.000000	99.595640
3978.000000	99.593128
3977.000000	99.592047
3976.000000	99.593213
3975.000000	99.596151
3974.000000	99.599678
3973.000000	99.602810
3972.000000	99.605010
3971.000000	99.605884
3970.000000	99.604936
3969.000000	99.601953
3968.000000	99.597607
3967.000000	99.593633
3966.000000	99.592166
3965.000000	99.594354
3964.000000	99.599112
3963.000000	99.603377
3962.000000	99.604256
3961.000000	99.601271
3960.000000	99.596412
3959.000000	99.592090
3958.000000	99.589163
3957.000000	99.587053
3956.000000	99.585064
3955.000000	99.583205
3954.000000	99.582140
3953.000000	99.582472
3952.000000	99.584295
3951.000000	99.587083
3950.000000	99.589811
3949.000000	99.591494
3948.000000	99.592112
3947.000000	99.593138
3946.000000	99.596595
3945.000000	99.602469
3944.000000	99.607477
3943.000000	99.607518
3942.000000	99.601350
3941.000000	99.591560
3940.000000	99.582278
3939.000000	99.576748
3938.000000	99.576233
3937.000000	99.580244
3936.000000	99.586532
3935.000000	99.591199
3934.000000	99.590645
3933.000000	99.584623
3932.000000	99.577218
3931.000000	99.573395
3930.000000	99.574587
3929.000000	99.578702
3928.000000	99.582903
3927.000000	99.585039
3926.000000	99.584325
3925.000000	99.582586
3924.000000	99.583293
3923.000000	99.587300
3922.000000	99.591255
3921.000000	99.591027
3920.000000	99.585999
3919.000000	99.579768
3918.000000	99.576616
3917.000000	99.577489
3916.000000	99.579380
3915.000000	99.578564
3914.000000	99.573240
3913.000000	99.564798
3912.000000	99.557095
3911.000000	99.554674
3910.000000	99.559420
3909.000000	99.569519
3908.000000	99.580620
3907.000000	99.587414
3906.000000	99.585345
3905.000000	99.574127
3904.000000	99.561273
3903.000000	99.557047
3902.000000	99.563986
3901.000000	99.574867
3900.000000	99.580953
3899.000000	99.579827
3898.000000	99.575344
3897.000000	99.571869
3896.000000	99.570484
3895.000000	99.570260
3894.000000	99.569413
3893.000000	99.566717
3892.000000	99.562676
3891.000000	99.560058
3890.000000	99.560812
3889.000000	99.565390
3888.000000	99.571932
3887.000000	99.575201
3886.000000	99.572880
3885.000000	99.570505
3884.000000	99.573861
3883.000000	99.581779
3882.000000	99.587472
3881.000000	99.585748
3880.000000	99.578912
3879.000000	99.572851
3878.000000	99.571005
3877.000000	99.573565
3876.000000	99.577754
3875.000000	99.580706
3874.000000	99.583355
3873.000000	99.588443
3872.000000	99.594372
3871.000000	99.595198
3870.000000	99.589922
3869.000000	99.586041
3868.000000	99.589001
3867.000000	99.595940
3866.000000	99.598885
3865.000000	99.593635
3864.000000	99.584763
3863.000000	99.578535
3862.000000	99.574974
3861.000000	99.571522
3860.000000	99.567106
3859.000000	99.562434
3858.000000	99.559513
3857.000000	99.561035
3856.000000	99.567248
3855.000000	99.570886
3854.000000	99.565959
3853.000000	99.564374
3852.000000	99.571423
3851.000000	99.577554
3850.000000	99.578024
3849.000000	99.574789
3848.000000	99.571936
3847.000000	99.572914
3846.000000	99.578033
3845.000000	99.585154
3844.000000	99.590929
3843.000000	99.592728
3842.000000	99.589864
3841.000000	99.583665
3840.000000	99.575535
3839.000000	99.568401
3838.000000	99.566651
3837.000000	99.571577
3836.000000	99.580074
3835.000000	99.588481
3834.000000	99.594962
3833.000000	99.598790
3832.000000	99.599973
3831.000000	99.599413
3830.000000	99.598497
3829.000000	99.598215
3828.000000	99.597909
3827.000000	99.595937
3826.000000	99.591997
3825.000000	99.588857
3824.000000	99.589300
3823.000000	99.591468
3822.000000	99.589857
3821.000000	99.585158
3820.000000	99.582313
3819.000000	99.581600
3818.000000	99.580802
3817.000000	99.576166
3816.000000	99.568929
3815.000000	99.565648
3814.000000	99.568157
3813.000000	99.572446
3812.000000	99.575057
3811.000000	99.577101
3810.000000	99.581728
3809.000000	99.588204
3808.000000	99.590696
3807.000000	99.586993
3806.000000	99.582765
3805.000000	99.584182
3804.000000	99.590724
3803.000000	99.595083
3802.000000	99.591413
3801.000000	99.585511
3800.000000	99.584417
3799.000000	99.587177
3798.000000	99.588581
3797.000000	99.584498
3796.000000	99.576643
3795.000000	99.570530
3794.000000	99.569343
3793.000000	99.571429
3792.000000	99.573565
3791.000000	99.574329
3790.000000	99.574540
3789.000000	99.575625
3788.000000	99.578343
3787.000000	99.582422
3786.000000	99.587085
3785.000000	99.591795
3784.000000	99.596271
3783.000000	99.599811
3782.000000	99.600480
3781.000000	99.596027
3780.000000	99.587019
3779.000000	99.578830
3778.000000	99.575761
3777.000000	99.576486
3776.000000	99.576486
3775.000000	99.572965
3774.000000	99.566756
3773.000000	99.560424
3772.000000	99.555087
3771.000000	99.551473
3770.000000	99.553384
3769.000000	99.564283
3768.000000	99.581077
3767.000000	99.595720
3766.000000	99.601521
3765.000000	99.597699
3764.000000	99.589137
3763.000000	99.581600
3762.000000	99.576937
3761.000000	99.573924
3760.000000	99.572062
3759.000000	99.572538
3758.000000	99.574438
3757.000000	99.576404
3756.000000	99.580507
3755.000000	99.589971
3754.000000	99.603626
3753.000000	99.614267
3752.000000	99.614091
3751.000000	99.602913
3750.000000	99.587705
3749.000000	99.575029
3748.000000	99.570070
3747.000000	99.574841
3746.000000	99.582750
3745.000000	99.584850
3744.000000	99.585903
3743.000000	99.593109
3742.000000	99.603505
3741.000000	99.611756
3740.000000	99.616059
3739.000000	99.618191
3738.000000	99.618364
3737.000000	99.613084
3736.000000	99.605059
3735.000000	99.604824
3734.000000	99.614296
3733.000000	99.622465
3732.000000	99.620910
3731.000000	99.611774
3730.000000	99.602121
3729.000000	99.596343
3728.000000	99.593945
3727.000000	99.592360
3726.000000	99.590629
3725.000000	99.588443
3724.000000	99.585052
3723.000000	99.581388
3722.000000	99.580515
3721.000000	99.584685
3720.000000	99.592239
3719.000000	99.598924
3718.000000	99.601155
3717.000000	99.599286
3716.000000	99.597688
3715.000000	99.600116
3714.000000	99.605263
3713.000000	99.607649
3712.000000	99.604350
3711.000000	99.599663
3710.000000	99.598946
3709.000000	99.602936
3708.000000	99.608829
3707.000000	99.613261
3706.000000	99.614967
3705.000000	99.615253
3704.000000	99.615366
3703.000000	99.614572
3702.000000	99.611829
3701.000000	99.608289
3700.000000	99.606525
3699.000000	99.607885
3698.000000	99.610663
3697.000000	99.611297
3696.000000	99.608020
3695.000000	99.601622
3694.000000	99.593848
3693.000000	99.587427
3692.000000	99.586220
3691.000000	99.592792
3690.000000	99.604128
3689.000000	99.612356
3688.000000	99.611711
3687.000000	99.605007
3686.000000	99.600350
3685.000000	99.601699
3684.000000	99.606917
3683.000000	99.611890
3682.000000	99.613294
3681.000000	99.608481
3680.000000	99.597514
3679.000000	99.584992
3678.000000	99.576473
3677.000000	99.572842
3676.000000	99.574907
3675.000000	99.586379
3674.000000	99.600421
3673.000000	99.609046
3672.000000	99.610816
3671.000000	99.606053
3670.000000	99.600690
3669.000000	99.601817
3668.000000	99.606154
3667.000000	99.608295
3666.000000	99.607952
3665.000000	99.607063
3664.000000	99.607084
3663.000000	99.608048
3662.000000	99.608881
3661.000000	99.608900
3660.000000	99.609326
3659.000000	99.611514
3658.000000	99.614442
3657.000000	99.614918
3656.000000	99.611859
3655.000000	99.606725
3654.000000	99.601502
3653.000000	99.597114
3652.000000	99.591862
3651.000000	99.584620
3650.000000	99.581725
3649.000000	99.591444
3648.000000	99.607127
3647.000000	99.614853
3646.000000	99.611059
3645.000000	99.601049
3644.000000	99.590176
3643.000000	99.581200
3642.000000	99.575061
3641.000000	99.571418
3640.000000	99.568586
3639.000000	99.564698
3638.000000	99.560410
3637.000000	99.558689
3636.000000	99.561046
3635.000000	99.564961
3634.000000	99.566978
3633.000000	99.567568
3632.000000	99.570251
3631.000000	99.575699
3630.000000	99.580002
3629.000000	99.584935
3628.000000	99.594580
3627.000000	99.602312
3626.000000	99.602981
3625.000000	99.598854
3624.000000	99.595340
3623.000000	99.597313
3622.000000	99.605291
3621.000000	99.613753
3620.000000	99.615621
3619.000000	99.609177
3618.000000	99.597875
3617.000000	99.585753
3616.000000	99.576050
3615.000000	99.569531
3614.000000	99.564203
3613.000000	99.557747
3612.000000	99.549961
3611.000000	99.543290
3610.000000	99.540853
3609.000000	99.544431
3608.000000	99.553087
3607.000000	99.562194
3606.000000	99.566741
3605.000000	99.565793
3604.000000	99.562285
3603.000000	99.559252
3602.000000	99.557472
3601.000000	99.555413
3600.000000	99.551041
3599.000000	99.542906
3598.000000	99.530800
3597.000000	99.516171
3596.000000	99.502870
3595.000000	99.496263
3594.000000	99.500526
3593.000000	99.515145
3592.000000	99.534777
3591.000000	99.552674
3590.000000	99.562472
3589.000000	99.560185
3588.000000	99.549189
3587.000000	99.539312
3586.000000	99.534793
3585.000000	99.532205
3584.000000	99.528593
3583.000000	99.523669
3582.000000	99.518103
3581.000000	99.512433
3580.000000	99.507142
3579.000000	99.502556
3578.000000	99.498391
3577.000000	99.493782
3576.000000	99.488024
3575.000000	99.481683
3574.000000	99.476691
3573.000000	99.475519
3572.000000	99.479836
3571.000000	99.489616
3570.000000	99.502268
3569.000000	99.512339
3568.000000	99.515114
3567.000000	99.511325
3566.000000	99.504354
3565.000000	99.495525
3564.000000	99.486225
3563.000000	99.478525
3562.000000	99.473630
3561.000000	99.471781
3560.000000	99.472915
3559.000000	99.476684
3558.000000	99.481849
3557.000000	99.485952
3556.000000	99.485819
3555.000000	99.478965
3554.000000	99.465617
3553.000000	99.450386
3552.000000	99.440351
3551.000000	99.439068
3550.000000	99.443243
3549.000000	99.446165
3548.000000	99.443593
3547.000000	99.437288
3546.000000	99.432988
3545.000000	99.434280
3544.000000	99.439498
3543.000000	99.444871
3542.000000	99.448036
3541.000000	99.448695
3540.000000	99.447447
3539.000000	99.444608
3538.000000	99.439977
3537.000000	99.433464
3536.000000	99.426038
3535.000000	99.419239
3534.000000	99.414422
3533.000000	99.412436
3532.000000	99.413719
3531.000000	99.417779
3530.000000	99.422736
3529.000000	99.426287
3528.000000	99.427655
3527.000000	99.427970
3526.000000	99.428432
3525.000000	99.428866
3524.000000	99.428107
3523.000000	99.425054
3522.000000	99.419221
3521.000000	99.411210
3520.000000	99.402909
3519.000000	99.396283
3518.000000	99.391814
3517.000000	99.388366
3516.000000	99.385084
3515.000000	99.382760
3514.000000	99.382900
3513.000000	99.385546
3512.000000	99.388692
3511.000000	99.389905
3510.000000	99.388539
3509.000000	99.386049
3508.000000	99.384268
3507.000000	99.383544
3506.000000	99.382648
3505.000000	99.380334
3504.000000	99.377477
3503.000000	99.376860
3502.000000	99.379804
3501.000000	99.383914
3500.000000	99.385153
3499.000000	99.381485
3498.000000	99.374227
3497.000000	99.366704
3496.000000	99.361381
3495.000000	99.358103
3494.000000	99.355143
3493.000000	99.351772
3492.000000	99.349081
3491.000000	99.348196
3490.000000	99.348549
3489.000000	99.348597
3488.000000	99.347926
3487.000000	99.347615
3486.000000	99.348253
3485.000000	99.348484
3484.000000	99.346236
3483.000000	99.341217
3482.000000	99.335892
3481.000000	99.333446
3480.000000	99.334709
3479.000000	99.337296
3478.000000	99.337802
3477.000000	99.334545
3476.000000	99.328255
3475.000000	99.320612
3474.000000	99.312813
3473.000000	99.306019
3472.000000	99.302300
3471.000000	99.303626
3470.000000	99.309532
3469.000000	99.316564
3468.000000	99.320513
3467.000000	99.319411
3466.000000	99.314716
3465.000000	99.310124
3464.000000	99.309195
3463.000000	99.313117
3462.000000	99.320092
3461.000000	99.327007
3460.000000	99.331929
3459.000000	99.334763
3458.000000	99.335790
3457.000000	99.334564
3456.000000	99.330779
3455.000000	99.325261
3454.000000	99.319400
3453.000000	99.313810
3452.000000	99.308262
3451.000000	99.302570
3450.000000	99.296963
3449.000000	99.292026
3448.000000	99.288964
3447.000000	99.289230
3446.000000	99.292543
3445.000000	99.295965
3444.000000	99.296172
3443.000000	99.292488
3442.000000	99.287256
3441.000000	99.283238
3440.000000	99.281135
3439.000000	99.279611
3438.000000	99.277173
3437.000000	99.273742
3436.000000	99.270816
3435.000000	99.270066
3434.000000	99.271604
3433.000000	99.273760
3432.000000	99.274907
3431.000000	99.274928
3430.000000	99.274292
3429.000000	99.272601
3428.000000	99.269271
3427.000000	99.265297
3426.000000	99.262704
3425.000000	99.261943
3424.000000	99.260991
3423.000000	99.257675
3422.000000	99.252208
3421.000000	99.246852
3420.000000	99.243447
3419.000000	99.241777
3418.000000	99.240206
3417.000000	99.237345
3416.000000	99.233177
3415.000000	99.228960
3414.000000	99.225948
3413.000000	99.224074
3412.000000	99.222245
3411.000000	99.220038
3410.000000	99.218685
3409.000000	99.220068
3408.000000	99.224878
3407.000000	99.231931
3406.000000	99.238918
3405.000000	99.243571
3404.000000	99.244615
3403.000000	99.242331
3402.000000	99.238459
3401.000000	99.234985
3400.000000	99.232536
3399.000000	99.230068
3398.000000	99.226405
3397.000000	99.221900
3396.000000	99.218160
3395.000000	99.216416
3394.000000	99.216712
3393.000000	99.218553
3392.000000	99.221452
3391.000000	99.224521
3390.000000	99.226239
3389.000000	99.225265
3388.000000	99.221298
3387.000000	99.214919
3386.000000	99.207093
3385.000000	99.199178
3384.000000	99.192795
3383.000000	99.188768
3382.000000	99.186391
3381.000000	99.184388
3380.000000	99.182356
3379.000000	99.180481
3378.000000	99.178100
3377.000000	99.173889
3376.000000	99.167933
3375.000000	99.162726
3374.000000	99.161162
3373.000000	99.163685
3372.000000	99.167779
3371.000000	99.170072
3370.000000	99.168668
3369.000000	99.163978
3368.000000	99.158174
3367.000000	99.153859
3366.000000	99.152395
3365.000000	99.152752
3364.000000	99.152223
3363.000000	99.148918
3362.000000	99.143739
3361.000000	99.139504
3360.000000	99.137771
3359.000000	99.136904
3358.000000	99.133947
3357.000000	99.128290
3356.000000	99.122521
3355.000000	99.119308
3354.000000	99.118359
3353.000000	99.117416
3352.000000	99.115597
3351.000000	99.114315
3350.000000	99.114773
3349.000000	99.115870
3348.000000	99.115318
3347.000000	99.112197
3346.000000	99.107699
3345.000000	99.103614
3344.000000	99.100636
3343.000000	99.098040
3342.000000	99.094534
3341.000000	99.089369
3340.000000	99.082990
3339.000000	99.076911
3338.000000	99.072888
3337.000000	99.071881
3336.000000	99.073257
3335.000000	99.074800
3334.000000	99.073943
3333.000000	99.069727
3332.000000	99.063701
3331.000000	99.058622
3330.000000	99.056125
3329.000000	99.055753
3328.000000	99.056008
3327.000000	99.055847
3326.000000	99.055279
3325.000000	99.055065
3324.000000	99.056038
3323.000000	99.058237
3322.000000	99.060560
3321.000000	99.061692
3320.000000	99.061453
3319.000000	99.060790
3318.000000	99.060373
3317.000000	99.059736
3316.000000	99.057993
3315.000000	99.054889
3314.000000	99.050740
3313.000000	99.045712
3312.000000	99.039614
3311.000000	99.032257
3310.000000	99.023991
3309.000000	99.016173
3308.000000	99.010965
3307.000000	99.009866
3306.000000	99.012057
3305.000000	99.014685
3304.000000	99.015130
3303.000000	99.012712
3302.000000	99.008231
3301.000000	99.002631
3300.000000	98.996758
3299.000000	98.991765
3298.000000	98.988777
3297.000000	98.988165
3296.000000	98.989597
3295.000000	98.992612
3294.000000	98.996638
3293.000000	99.000694
3292.000000	99.003799
3291.000000	99.005755
3290.000000	99.007012
3289.000000	99.007608
3288.000000	99.006660
3287.000000	99.003210
3286.000000	98.997504
3285.000000	98.991377
3284.000000	98.987271
3283.000000	98.986521
3282.000000	98.988393
3281.000000	98.990937
3280.000000	98.992773
3279.000000	98.993688
3278.000000	98.993676
3277.000000	98.992168
3276.000000	98.988785
3275.000000	98.984410
3274.000000	98.980667
3273.000000	98.978379
3272.000000	98.976972
3271.000000	98.975340
3270.000000	98.972902
3269.000000	98.969914
3268.000000	98.967194
3267.000000	98.965608
3266.000000	98.965636
3265.000000	98.967541
3264.000000	98.971849
3263.000000	98.979046
3262.000000	98.988296
3261.000000	98.996826
3260.000000	99.001371
3259.000000	99.000573
3258.000000	98.995889
3257.000000	98.990322
3256.000000	98.986619
3255.000000	98.986248
3254.000000	98.989170
3253.000000	98.994087
3252.000000	98.999177
3251.000000	99.002972
3250.000000	99.004827
3249.000000	99.004951
3248.000000	99.004285
3247.000000	99.004088
3246.000000	99.005011
3245.000000	99.006317
3244.000000	99.006293
3243.000000	99.003687
3242.000000	98.998905
3241.000000	98.994209
3240.000000	98.992913
3239.000000	98.997658
3238.000000	99.008243
3237.000000	99.020768
3236.000000	99.029730
3235.000000	99.031893
3234.000000	99.028270
3233.000000	99.022511
3232.000000	99.017971
3231.000000	99.016468
3230.000000	99.018764
3229.000000	99.024612
3228.000000	99.031953
3227.000000	99.037205
3226.000000	99.037620
3225.000000	99.033498
3224.000000	99.027768
3223.000000	99.023378
3222.000000	99.021370
3221.000000	99.021357
3220.000000	99.022853
3219.000000	99.025483
3218.000000	99.028221
3217.000000	99.029465
3216.000000	99.028356
3215.000000	99.025743
3214.000000	99.023451
3213.000000	99.022659
3212.000000	99.023278
3211.000000	99.024694
3210.000000	99.026616
3209.000000	99.029108
3208.000000	99.032119
3207.000000	99.035075
3206.000000	99.036813
3205.000000	99.036142
3204.000000	99.032971
3203.000000	99.028964
3202.000000	99.026507
3201.000000	99.026753
3200.000000	99.028871
3199.000000	99.031286
3198.000000	99.033122
3197.000000	99.034121
3196.000000	99.033851
3195.000000	99.031960
3194.000000	99.029144
3193.000000	99.026949
3192.000000	99.026184
3191.000000	99.025904
3190.000000	99.024473
3189.000000	99.021604
3188.000000	99.019059
3187.000000	99.019212
3186.000000	99.022836
3185.000000	99.028228
3184.000000	99.032752
3183.000000	99.035421
3182.000000	99.037727
3181.000000	99.041462
3180.000000	99.045989
3179.000000	99.048505
3178.000000	99.047316
3177.000000	99.044196
3176.000000	99.042839
3175.000000	99.045275
3174.000000	99.050314
3173.000000	99.055109
3172.000000	99.057544
3171.000000	99.057341
3170.000000	99.055678
3169.000000	99.054257
3168.000000	99.054330
3167.000000	99.056172
3166.000000	99.059342
3165.000000	99.063225
3164.000000	99.067159
3163.000000	99.070360
3162.000000	99.072433
3161.000000	99.074034
3160.000000	99.076254
3159.000000	99.078720
3158.000000	99.078804
3157.000000	99.073837
3156.000000	99.064434
3155.000000	99.055019
3154.000000	99.050481
3153.000000	99.052381
3152.000000	99.058527
3151.000000	99.065745
3150.000000	99.072232
3149.000000	99.077377
3148.000000	99.080417
3147.000000	99.080382
3146.000000	99.077355
3145.000000	99.073106
3144.000000	99.070242
3143.000000	99.070718
3142.000000	99.074939
3141.000000	99.081628
3140.000000	99.088487
3139.000000	99.093656
3138.000000	99.097116
3137.000000	99.100300
3136.000000	99.103891
3135.000000	99.106457
3134.000000	99.106046
3133.000000	99.102940
3132.000000	99.100021
3131.000000	99.100274
3130.000000	99.104483
3129.000000	99.111061
3128.000000	99.117138
3127.000000	99.119810
3126.000000	99.117751
3125.000000	99.112640
3124.000000	99.108476
3123.000000	99.108277
3122.000000	99.111194
3121.000000	99.113347
3120.000000	99.111735
3119.000000	99.107010
3118.000000	99.102605
3117.000000	99.101570
3116.000000	99.104066
3115.000000	99.107384
3114.000000	99.108305
3113.000000	99.105759
3112.000000	99.101391
3111.000000	99.097689
3110.000000	99.095898
3109.000000	99.096003
3108.000000	99.098092
3107.000000	99.102552
3106.000000	99.108581
3105.000000	99.113558
3104.000000	99.114840
3103.000000	99.112069
3102.000000	99.107224
3101.000000	99.102654
3100.000000	99.099431
3099.000000	99.097338
3098.000000	99.095798
3097.000000	99.094672
3096.000000	99.094483
3095.000000	99.095970
3094.000000	99.099229
3093.000000	99.103281
3092.000000	99.106673
3091.000000	99.108415
3090.000000	99.108319
3089.000000	99.106648
3088.000000	99.103825
3087.000000	99.100508
3086.000000	99.097583
3085.000000	99.095808
3084.000000	99.095335
3083.000000	99.095422
3082.000000	99.094710
3081.000000	99.092313
3080.000000	99.089142
3079.000000	99.087887
3078.000000	99.090869
3077.000000	99.097562
3076.000000	99.104592
3075.000000	99.108463
3074.000000	99.108207
3073.000000	99.105388
3072.000000	99.102127
3071.000000	99.099582
3070.000000	99.097849
3069.000000	99.096371
3068.000000	99.094099
3067.000000	99.089943
3066.000000	99.083931
3065.000000	99.078056
3064.000000	99.075469
3063.000000	99.078335
3062.000000	99.086133
3061.000000	99.095696
3060.000000	99.102924
3059.000000	99.105192
3058.000000	99.103190
3057.000000	99.100560
3056.000000	99.100958
3055.000000	99.104911
3054.000000	99.109709
3053.000000	99.112468
3052.000000	99.112709
3051.000000	99.111882
3050.000000	99.111219
3049.000000	99.110897
3048.000000	99.110842
3047.000000	99.111360
3046.000000	99.112737
3045.000000	99.114708
3044.000000	99.116474
3043.000000	99.117026
3042.000000	99.115658
3041.000000	99.112684
3040.000000	99.109706
3039.000000	99.108666
3038.000000	99.110339
3037.000000	99.113775
3036.000000	99.117097
3035.000000	99.118669
3034.000000	99.117862
3033.000000	99.115268
3032.000000	99.112303
3031.000000	99.110259
3030.000000	99.109709
3029.000000	99.110906
3028.000000	99.114159
3027.000000	99.119051
3026.000000	99.123570
3025.000000	99.125182
3024.000000	99.123205
3023.000000	99.119511
3022.000000	99.116565
3021.000000	99.115413
3020.000000	99.115742
3019.000000	99.116771
3018.000000	99.117215
3017.000000	99.115140
3016.000000	99.109314
3015.000000	99.100947
3014.000000	99.093463
3013.000000	99.090070
3012.000000	99.091440
3011.000000	99.095210
3010.000000	99.097350
3009.000000	99.094615
3008.000000	99.086782
3007.000000	99.077020
3006.000000	99.069537
3005.000000	99.066284
3004.000000	99.065693
3003.000000	99.064520
3002.000000	99.060801
3001.000000	99.055201
3000.000000	99.049913
2999.000000	99.046470
2998.000000	99.044398
2997.000000	99.041928
2996.000000	99.037933
2995.000000	99.032835
2994.000000	99.027300
2993.000000	99.020456
2992.000000	99.010238
2991.000000	98.995587
2990.000000	98.977720
2989.000000	98.959034
2988.000000	98.941415
2987.000000	98.925787
2986.000000	98.912292
2985.000000	98.899828
2984.000000	98.885753
2983.000000	98.867496
2982.000000	98.845100
2981.000000	98.821634
2980.000000	98.800525
2979.000000	98.782587
2978.000000	98.765637
2977.000000	98.746429
2976.000000	98.722684
2975.000000	98.694109
2974.000000	98.662341
2973.000000	98.629678
2972.000000	98.597117
2971.000000	98.563444
2970.000000	98.526768
2969.000000	98.486943
2968.000000	98.446213
2967.000000	98.407489
2966.000000	98.372219
2965.000000	98.339629
2964.000000	98.307428
2963.000000	98.273442
2962.000000	98.237341
2961.000000	98.201106
2960.000000	98.167422
2959.000000	98.137486
2958.000000	98.110619
2957.000000	98.085634
2956.000000	98.062044
2955.000000	98.040164
2954.000000	98.021020
2953.000000	98.006286
2952.000000	97.997244
2951.000000	97.993304
2950.000000	97.991868
2949.000000	97.989837
2948.000000	97.984686
2947.000000	97.974172
2946.000000	97.956143
2945.000000	97.929339
2944.000000	97.894130
2943.000000	97.851911
2942.000000	97.804047
2941.000000	97.751051
2940.000000	97.692007
2939.000000	97.624855
2938.000000	97.548429
2937.000000	97.464724
2936.000000	97.377649
2935.000000	97.288853
2934.000000	97.196075
2933.000000	97.096650
2932.000000	96.991592
2931.000000	96.884667
2930.000000	96.778598
2929.000000	96.673926
2928.000000	96.571334
2927.000000	96.473425
2926.000000	96.384045
2925.000000	96.307348
2924.000000	96.247134
2923.000000	96.205631
2922.000000	96.182400
2921.000000	96.175872
2920.000000	96.186802
2919.000000	96.218863
2918.000000	96.275390
2917.000000	96.356187
2916.000000	96.458122
2915.000000	96.577610
2914.000000	96.710860
2913.000000	96.852035
2912.000000	96.992296
2911.000000	97.121941
2910.000000	97.233876
2909.000000	97.326256
2908.000000	97.402845
2907.000000	97.470386
2906.000000	97.534293
2905.000000	97.595511
2904.000000	97.651283
2903.000000	97.698592
2902.000000	97.737197
2901.000000	97.769579
2900.000000	97.799515
2899.000000	97.830808
2898.000000	97.866179
2897.000000	97.906268
2896.000000	97.949003
2895.000000	97.990289
2894.000000	98.026072
2893.000000	98.054556
2892.000000	98.077162
2891.000000	98.097540
2890.000000	98.119277
2889.000000	98.143900
2888.000000	98.170359
2887.000000	98.196017
2886.000000	98.218311
2885.000000	98.235988
2884.000000	98.249396
2883.000000	98.259783
2882.000000	98.268194
2881.000000	98.274780
2880.000000	98.278780
2879.000000	98.279010
2878.000000	98.274583
2877.000000	98.265638
2876.000000	98.253539
2875.000000	98.240101
2874.000000	98.226453
2873.000000	98.212815
2872.000000	98.199547
2871.000000	98.187940
2870.000000	98.179181
2869.000000	98.172336
2868.000000	98.164011
2867.000000	98.150605
2866.000000	98.130798
2865.000000	98.105415
2864.000000	98.074949
2863.000000	98.037980
2862.000000	97.992059
2861.000000	97.935435
2860.000000	97.867313
2859.000000	97.787086
2858.000000	97.694669
2857.000000	97.592418
2856.000000	97.486445
2855.000000	97.385399
2854.000000	97.297917
2853.000000	97.230727
2852.000000	97.188917
2851.000000	97.177815
2850.000000	97.203488
2849.000000	97.270052
2848.000000	97.375068
2847.000000	97.507882
2846.000000	97.653592
2845.000000	97.799415
2844.000000	97.937418
2843.000000	98.063229
2842.000000	98.174403
2841.000000	98.270428
2840.000000	98.352865
2839.000000	98.423671
2838.000000	98.483913
2837.000000	98.534717
2836.000000	98.578402
2835.000000	98.617323
2834.000000	98.651968
2833.000000	98.681437
2832.000000	98.705731
2831.000000	98.726404
2830.000000	98.744822
2829.000000	98.761070
2828.000000	98.774898
2827.000000	98.786818
2826.000000	98.797676
2825.000000	98.807716
2824.000000	98.816727
2823.000000	98.824922
2822.000000	98.833380
2821.000000	98.843517
2820.000000	98.855815
2819.000000	98.868766
2818.000000	98.879559
2817.000000	98.886573
2816.000000	98.891119
2815.000000	98.895963
2814.000000	98.902210
2813.000000	98.908504
2812.000000	98.913224
2811.000000	98.916327
2810.000000	98.918672
2809.000000	98.920605
2808.000000	98.922076
2807.000000	98.923539
2806.000000	98.925914
2805.000000	98.929872
2804.000000	98.935610
2803.000000	98.942992
2802.000000	98.951323
2801.000000	98.959242
2800.000000	98.965406
2799.000000	98.969319
2798.000000	98.971319
2797.000000	98.972039
2796.000000	98.972191
2795.000000	98.972548
2794.000000	98.973714
2793.000000	98.975993
2792.000000	98.979635
2791.000000	98.984791
2790.000000	98.990881
2789.000000	98.996395
2788.000000	98.999962
2787.000000	99.001562
2786.000000	99.002273
2785.000000	99.002889
2784.000000	99.003236
2783.000000	99.002820
2782.000000	99.001647
2781.000000	99.000212
2780.000000	98.999004
2779.000000	98.998336
2778.000000	98.998516
2777.000000	98.999899
2776.000000	99.002661
2775.000000	99.006594
2774.000000	99.011190
2773.000000	99.015933
2772.000000	99.020505
2771.000000	99.024728
2770.000000	99.028499
2769.000000	99.031916
2768.000000	99.035292
2767.000000	99.038727
2766.000000	99.041710
2765.000000	99.043491
2764.000000	99.044044
2763.000000	99.044478
2762.000000	99.046242
2761.000000	99.049813
2760.000000	99.054124
2759.000000	99.057279
2758.000000	99.057972
2757.000000	99.056434
2756.000000	99.054157
2755.000000	99.052766
2754.000000	99.053091
2753.000000	99.054980
2752.000000	99.057508
2751.000000	99.059374
2750.000000	99.059652
2749.000000	99.058578
2748.000000	99.057423
2747.000000	99.057301
2746.000000	99.058200
2745.000000	99.059255
2744.000000	99.059659
2743.000000	99.059211
2742.000000	99.058438
2741.000000	99.058403
2740.000000	99.059740
2739.000000	99.061462
2738.000000	99.061420
2737.000000	99.058847
2736.000000	99.055982
2735.000000	99.056149
2734.000000	99.060251
2733.000000	99.066002
2732.000000	99.070604
2731.000000	99.073155
2730.000000	99.074192
2729.000000	99.073997
2728.000000	99.072333
2727.000000	99.069583
2726.000000	99.067345
2725.000000	99.067558
2724.000000	99.070966
2723.000000	99.076349
2722.000000	99.081256
2721.000000	99.083695
2720.000000	99.083337
2719.000000	99.081282
2718.000000	99.079103
2717.000000	99.078172
2716.000000	99.079099
2715.000000	99.081065
2714.000000	99.082189
2713.000000	99.081513
2712.000000	99.080428
2711.000000	99.081162
2710.000000	99.083897
2709.000000	99.086414
2708.000000	99.086798
2707.000000	99.085534
2706.000000	99.084542
2705.000000	99.084982
2704.000000	99.086628
2703.000000	99.088801
2702.000000	99.091266
2701.000000	99.094390
2700.000000	99.098589
2699.000000	99.103319
2698.000000	99.106616
2697.000000	99.106362
2696.000000	99.102433
2695.000000	99.097237
2694.000000	99.093813
2693.000000	99.093694
2692.000000	99.096380
2691.000000	99.099982
2690.000000	99.102119
2689.000000	99.101234
2688.000000	99.097922
2687.000000	99.094591
2686.000000	99.093167
2685.000000	99.093403
2684.000000	99.093787
2683.000000	99.093530
2682.000000	99.092974
2681.000000	99.092531
2680.000000	99.092154
2679.000000	99.091866
2678.000000	99.092083
2677.000000	99.093194
2676.000000	99.095156
2675.000000	99.097593
2674.000000	99.100048
2673.000000	99.102197
2672.000000	99.104063
2671.000000	99.105924
2670.000000	99.107740
2669.000000	99.108803
2668.000000	99.108328
2667.000000	99.106364
2666.000000	99.103746
2665.000000	99.101056
2664.000000	99.097947
2663.000000	99.093749
2662.000000	99.088749
2661.000000	99.084575
2660.000000	99.082992
2659.000000	99.084194
2658.000000	99.086545
2657.000000	99.088236
2656.000000	99.089015
2655.000000	99.089958
2654.000000	99.091876
2653.000000	99.094607
2652.000000	99.097614
2651.000000	99.100299
2650.000000	99.101635
2649.000000	99.100719
2648.000000	99.098490
2647.000000	99.097948
2646.000000	99.101414
2645.000000	99.107766
2644.000000	99.113494
2643.000000	99.116467
2642.000000	99.117678
2641.000000	99.119205
2640.000000	99.121702
2639.000000	99.124583
2638.000000	99.127751
2637.000000	99.131824
2636.000000	99.136761
2635.000000	99.141316
2634.000000	99.144307
2633.000000	99.145881
2632.000000	99.147173
2631.000000	99.149103
2630.000000	99.151839
2629.000000	99.154962
2628.000000	99.157556
2627.000000	99.158485
2626.000000	99.157381
2625.000000	99.155338
2624.000000	99.153982
2623.000000	99.153910
2622.000000	99.154893
2621.000000	99.157615
2620.000000	99.163854
2619.000000	99.173937
2618.000000	99.184678
2617.000000	99.190985
2616.000000	99.189810
2615.000000	99.182569
2614.000000	99.174315
2613.000000	99.170551
2612.000000	99.173412
2611.000000	99.179694
2610.000000	99.183238
2609.000000	99.180463
2608.000000	99.173329
2607.000000	99.166270
2606.000000	99.161402
2605.000000	99.158388
2604.000000	99.157907
2603.000000	99.162418
2602.000000	99.172554
2601.000000	99.184619
2600.000000	99.193277
2599.000000	99.196118
2598.000000	99.194883
2597.000000	99.192933
2596.000000	99.192483
2595.000000	99.193924
2594.000000	99.196504
2593.000000	99.198825
2592.000000	99.198891
2591.000000	99.194890
2590.000000	99.187223
2589.000000	99.179798
2588.000000	99.177858
2587.000000	99.183413
2586.000000	99.193434
2585.000000	99.203177
2584.000000	99.210522
2583.000000	99.216343
2582.000000	99.221837
2581.000000	99.226936
2580.000000	99.230581
2579.000000	99.231250
2578.000000	99.228101
2577.000000	99.223129
2576.000000	99.221165
2575.000000	99.225457
2574.000000	99.233451
2573.000000	99.238878
2572.000000	99.237810
2571.000000	99.231236
2570.000000	99.222709
2569.000000	99.216163
2568.000000	99.215628
2567.000000	99.223464
2566.000000	99.237373
2565.000000	99.251158
2564.000000	99.259672
2563.000000	99.261803
2562.000000	99.258668
2561.000000	99.251636
2560.000000	99.243087
2559.000000	99.236366
2558.000000	99.232868
2557.000000	99.230679
2556.000000	99.227845
2555.000000	99.225691
2554.000000	99.227212
2553.000000	99.233081
2552.000000	99.240848
2551.000000	99.247410
2550.000000	99.250960
2549.000000	99.250934
2548.000000	99.247308
2547.000000	99.240212
2546.000000	99.230300
2545.000000	99.220113
2544.000000	99.214489
2543.000000	99.217488
2542.000000	99.228020
2541.000000	99.239934
2540.000000	99.247494
2539.000000	99.249552
2538.000000	99.247664
2537.000000	99.242220
2536.000000	99.232602
2535.000000	99.220211
2534.000000	99.208822
2533.000000	99.201528
2532.000000	99.198523
2531.000000	99.198046
2530.000000	99.198465
2529.000000	99.198894
2528.000000	99.198487
2527.000000	99.196131
2526.000000	99.191344
2525.000000	99.185309
2524.000000	99.180310
2523.000000	99.177701
2522.000000	99.176884
2521.000000	99.176546
2520.000000	99.175734
2519.000000	99.172709
2518.000000	99.164285
2517.000000	99.148907
2516.000000	99.130603
2515.000000	99.117544
2514.000000	99.115468
2513.000000	99.123157
2512.000000	99.134275
2511.000000	99.142391
2510.000000	99.144056
2509.000000	99.139261
2508.000000	99.130722
2507.000000	99.122492
2506.000000	99.118388
2505.000000	99.120889
2504.000000	99.130133
2503.000000	99.142864
2502.000000	99.153675
2501.000000	99.159639
2500.000000	99.163301
2499.000000	99.168802
2498.000000	99.175035
2497.000000	99.175609
2496.000000	99.166658
2495.000000	99.152332
2494.000000	99.141449
2493.000000	99.140378
2492.000000	99.149983
2491.000000	99.166886
2490.000000	99.185522
2489.000000	99.200768
2488.000000	99.210945
2487.000000	99.217799
2486.000000	99.222539
2485.000000	99.223450
2484.000000	99.219181
2483.000000	99.213073
2482.000000	99.211710
2481.000000	99.219168
2480.000000	99.233731
2479.000000	99.249637
2478.000000	99.260645
2477.000000	99.262896
2476.000000	99.256952
2475.000000	99.247935
2474.000000	99.242431
2473.000000	99.244024
2472.000000	99.251414
2471.000000	99.260198
2470.000000	99.266122
2469.000000	99.267520
2468.000000	99.265980
2467.000000	99.264869
2466.000000	99.266395
2465.000000	99.269674
2464.000000	99.272006
2463.000000	99.272126
2462.000000	99.271862
2461.000000	99.274199
2460.000000	99.279392
2459.000000	99.283387
2458.000000	99.281132
2457.000000	99.272138
2456.000000	99.262127
2455.000000	99.258088
2454.000000	99.261728
2453.000000	99.268475
2452.000000	99.272336
2451.000000	99.270654
2450.000000	99.265022
2449.000000	99.259580
2448.000000	99.258595
2447.000000	99.263593
2446.000000	99.271952
2445.000000	99.279460
2444.000000	99.284718
2443.000000	99.289665
2442.000000	99.295446
2441.000000	99.299757
2440.000000	99.299555
2439.000000	99.295053
2438.000000	99.289594
2437.000000	99.286480
2436.000000	99.286906
2435.000000	99.289977
2434.000000	99.293336
2433.000000	99.294448
2432.000000	99.292868
2431.000000	99.291176
2430.000000	99.292534
2429.000000	99.297295
2428.000000	99.302871
2427.000000	99.306919
2426.000000	99.309614
2425.000000	99.312406
2424.000000	99.315468
2423.000000	99.317181
2422.000000	99.315889
2421.000000	99.311472
2420.000000	99.305261
2419.000000	99.299189
2418.000000	99.295172
2417.000000	99.294263
2416.000000	99.295523
2415.000000	99.296433
2414.000000	99.295504
2413.000000	99.293895
2412.000000	99.293127
2411.000000	99.292064
2410.000000	99.288658
2409.000000	99.284632
2408.000000	99.285351
2407.000000	99.293410
2406.000000	99.304523
2405.000000	99.311695
2404.000000	99.311986
2403.000000	99.307746
2402.000000	99.303124
2401.000000	99.301516
2400.000000	99.304675
2399.000000	99.311258
2398.000000	99.316848
2397.000000	99.317883
2396.000000	99.315463
2395.000000	99.313488
2394.000000	99.313515
2393.000000	99.313675
2392.000000	99.312214
2391.000000	99.310062
2390.000000	99.309437
2389.000000	99.311441
2388.000000	99.315395
2387.000000	99.318771
2386.000000	99.318738
2385.000000	99.314851
2384.000000	99.310328
2383.000000	99.309771
2382.000000	99.314786
2381.000000	99.323634
2380.000000	99.333412
2379.000000	99.341014
2378.000000	99.343213
2377.000000	99.337896
2376.000000	99.325822
2375.000000	99.310158
2374.000000	99.295945
2373.000000	99.289781
2372.000000	99.296642
2371.000000	99.313743
2370.000000	99.331349
2369.000000	99.342665
2368.000000	99.347397
2367.000000	99.345829
2366.000000	99.336536
2365.000000	99.323456
2364.000000	99.316560
2363.000000	99.317610
2362.000000	99.316795
2361.000000	99.309845
2360.000000	99.304367
2359.000000	99.310261
2358.000000	99.326389
2357.000000	99.342088
2356.000000	99.346597
2355.000000	99.333009
2354.000000	99.311078
2353.000000	99.301323
2352.000000	99.310709
2351.000000	99.324013
2350.000000	99.323553
2349.000000	99.309136
2348.000000	99.293470
2347.000000	99.291654
2346.000000	99.303745
2345.000000	99.309632
2344.000000	99.294704
2343.000000	99.268226
2342.000000	99.253378
2341.000000	99.259358
2340.000000	99.274113
2339.000000	99.283023
2338.000000	99.284908
2337.000000	99.285744
2336.000000	99.287502
2335.000000	99.289976
2334.000000	99.298328
2333.000000	99.317171
2332.000000	99.338946
2331.000000	99.349034
2330.000000	99.338491
2329.000000	99.313296
2328.000000	99.282921
2327.000000	99.254993
2326.000000	99.234777
2325.000000	99.225805
2324.000000	99.230922
2323.000000	99.246855
2322.000000	99.264389
2321.000000	99.269826
2320.000000	99.256488
2319.000000	99.231256
2318.000000	99.206994
2317.000000	99.192069
2316.000000	99.187274
2315.000000	99.193000
2314.000000	99.209099
2313.000000	99.230940
2312.000000	99.248861
2311.000000	99.256841
2310.000000	99.257361
2309.000000	99.257417
2308.000000	99.261392
2307.000000	99.268264
2306.000000	99.273979
2305.000000	99.274398
2304.000000	99.269289
2303.000000	99.262471
2302.000000	99.259027
2301.000000	99.261625
2300.000000	99.269830
2299.000000	99.281168
2298.000000	99.290027
2297.000000	99.289764
2296.000000	99.277444
2295.000000	99.258425
2294.000000	99.242560
2293.000000	99.236727
2292.000000	99.241274
2291.000000	99.251911
2290.000000	99.262876
2289.000000	99.268643
2288.000000	99.266901
2287.000000	99.260141
2286.000000	99.253831
2285.000000	99.251864
2284.000000	99.254906
2283.000000	99.260910
2282.000000	99.266649
2281.000000	99.269735
2280.000000	99.271803
2279.000000	99.278133
2278.000000	99.292049
2277.000000	99.310236
2276.000000	99.324654
2275.000000	99.328850
2274.000000	99.321466
2273.000000	99.306326
2272.000000	99.290638
2271.000000	99.281713
2270.000000	99.282895
2269.000000	99.292500
2268.000000	99.306487
2267.000000	99.320219
2266.000000	99.327920
2265.000000	99.324872
2264.000000	99.312993
2263.000000	99.302148
2262.000000	99.302835
2261.000000	99.317418
2260.000000	99.338172
2259.000000	99.352011
2258.000000	99.349234
2257.000000	99.331938
2256.000000	99.314224
2255.000000	99.308483
2254.000000	99.310755
2253.000000	99.305808
2252.000000	99.287593
2251.000000	99.267500
2250.000000	99.259915
2249.000000	99.267302
2248.000000	99.283535
2247.000000	99.304280
2246.000000	99.327175
2245.000000	99.347153
2244.000000	99.359633
2243.000000	99.366354
2242.000000	99.372133
2241.000000	99.377696
2240.000000	99.380092
2239.000000	99.377763
2238.000000	99.371153
2237.000000	99.361039
2236.000000	99.350269
2235.000000	99.344451
2234.000000	99.347282
2233.000000	99.357239
2232.000000	99.370657
2231.000000	99.384150
2230.000000	99.392266
2229.000000	99.389240
2228.000000	99.377304
2227.000000	99.367270
2226.000000	99.366096
2225.000000	99.369294
2224.000000	99.370223
2223.000000	99.370447
2222.000000	99.374721
2221.000000	99.381140
2220.000000	99.383097
2219.000000	99.377260
2218.000000	99.364316
2217.000000	99.347023
2216.000000	99.333089
2215.000000	99.334017
2214.000000	99.353797
2213.000000	99.382311
2212.000000	99.405360
2211.000000	99.416950
2210.000000	99.416714
2209.000000	99.403065
2208.000000	99.377695
2207.000000	99.350899
2206.000000	99.332985
2205.000000	99.323397
2204.000000	99.315378
2203.000000	99.307782
2202.000000	99.305546
2201.000000	99.312273
2200.000000	99.328643
2199.000000	99.352933
2198.000000	99.375794
2197.000000	99.380655
2196.000000	99.359903
2195.000000	99.327225
2194.000000	99.305229
2193.000000	99.304069
2192.000000	99.318488
2191.000000	99.339574
2190.000000	99.358321
2189.000000	99.362617
2188.000000	99.345245
2187.000000	99.315116
2186.000000	99.290110
2185.000000	99.279059
2184.000000	99.279138
2183.000000	99.288845
2182.000000	99.311449
2181.000000	99.343888
2180.000000	99.374623
2179.000000	99.396853
2178.000000	99.414994
2177.000000	99.435042
2176.000000	99.455642
2175.000000	99.471355
2174.000000	99.478990
2173.000000	99.477602
2172.000000	99.465415
2171.000000	99.439167
2170.000000	99.396903
2169.000000	99.343627
2168.000000	99.293458
2167.000000	99.260496
2166.000000	99.246509
2165.000000	99.242380
2164.000000	99.243432
2163.000000	99.256841
2162.000000	99.291004
2161.000000	99.347156
2160.000000	99.425571
2159.000000	99.525630
2158.000000	99.626312
2157.000000	99.685251
2156.000000	99.678159
2155.000000	99.623905
2154.000000	99.562158
2153.000000	99.522119
2152.000000	99.513753
2151.000000	99.532697
2150.000000	99.563670
2149.000000	99.585637
2148.000000	99.585840
2147.000000	99.569319
2146.000000	99.550698
2145.000000	99.539973
2144.000000	99.538351
2143.000000	99.541274
2142.000000	99.540690
2141.000000	99.530185
2140.000000	99.514142
2139.000000	99.507529
2138.000000	99.520634
2137.000000	99.546271
2136.000000	99.565398
2135.000000	99.564133
2134.000000	99.543352
2133.000000	99.514861
2132.000000	99.490752
2131.000000	99.473734
2130.000000	99.456881
2129.000000	99.435048
2128.000000	99.414957
2127.000000	99.408773
2126.000000	99.417947
2125.000000	99.430131
2124.000000	99.434181
2123.000000	99.431268
2122.000000	99.427771
2121.000000	99.424160
2120.000000	99.417201
2119.000000	99.408249
2118.000000	99.401990
2117.000000	99.399135
2116.000000	99.396065
2115.000000	99.390924
2114.000000	99.385376
2113.000000	99.381168
2112.000000	99.379065
2111.000000	99.380441
2110.000000	99.385818
2109.000000	99.391651
2108.000000	99.392139
2107.000000	99.385561
2106.000000	99.377278
2105.000000	99.375736
2104.000000	99.385158
2103.000000	99.400991
2102.000000	99.412958
2101.000000	99.414909
2100.000000	99.411234
2099.000000	99.410348
2098.000000	99.413189
2097.000000	99.413702
2096.000000	99.410671
2095.000000	99.410897
2094.000000	99.417465
2093.000000	99.422865
2092.000000	99.419706
2091.000000	99.412443
2090.000000	99.411573
2089.000000	99.418904
2088.000000	99.424390
2087.000000	99.417758
2086.000000	99.399298
2085.000000	99.378729
2084.000000	99.365396
2083.000000	99.359799
2082.000000	99.355512
2081.000000	99.349762
2080.000000	99.348843
2079.000000	99.359076
2078.000000	99.375498
2077.000000	99.387384
2076.000000	99.393818
2075.000000	99.403660
2074.000000	99.417875
2073.000000	99.423232
2072.000000	99.410081
2071.000000	99.386787
2070.000000	99.369133
2069.000000	99.362869
2068.000000	99.364070
2067.000000	99.369778
2066.000000	99.378884
2065.000000	99.387094
2064.000000	99.390995
2063.000000	99.395343
2062.000000	99.408555
2061.000000	99.432121
2060.000000	99.458232
2059.000000	99.474515
2058.000000	99.468695
2057.000000	99.436790
2056.000000	99.393887
2055.000000	99.368752
2054.000000	99.376776
2053.000000	99.401508
2052.000000	99.411917
2051.000000	99.394327
2050.000000	99.360232
2049.000000	99.329428
2048.000000	99.315791
2047.000000	99.326917
2046.000000	99.364254
2045.000000	99.415361
2044.000000	99.454493
2043.000000	99.461543
2042.000000	99.440326
2041.000000	99.416406
2040.000000	99.414820
2039.000000	99.437498
2038.000000	99.463619
2037.000000	99.472747
2036.000000	99.467560
2035.000000	99.469439
2034.000000	99.490601
2033.000000	99.519506
2032.000000	99.536651
2031.000000	99.535733
2030.000000	99.525236
2029.000000	99.520708
2028.000000	99.539310
2027.000000	99.588314
2026.000000	99.651148
2025.000000	99.692739
2024.000000	99.687894
2023.000000	99.641222
2022.000000	99.578843
2021.000000	99.531048
2020.000000	99.518906
2019.000000	99.540835
2018.000000	99.568979
2017.000000	99.572341
2016.000000	99.552115
2015.000000	99.539519
2014.000000	99.553360
2013.000000	99.576339
2012.000000	99.577757
2011.000000	99.548692
2010.000000	99.508492
2009.000000	99.485554
2008.000000	99.495113
2007.000000	99.526329
2006.000000	99.549570
2005.000000	99.544860
2004.000000	99.524192
2003.000000	99.516389
2002.000000	99.533299
2001.000000	99.559902
2000.000000	99.573314
1999.000000	99.561808
1998.000000	99.528379
1997.000000	99.490752
1996.000000	99.475559
1995.000000	99.495207
1994.000000	99.529215
1993.000000	99.541887
1992.000000	99.523616
1991.000000	99.498161
1990.000000	99.482369
1989.000000	99.465489
1988.000000	99.437548
1987.000000	99.411175
1986.000000	99.401142
1985.000000	99.400895
1984.000000	99.395619
1983.000000	99.385622
1982.000000	99.381407
1981.000000	99.385689
1980.000000	99.396934
1979.000000	99.423893
1978.000000	99.478045
1977.000000	99.549855
1976.000000	99.606571
1975.000000	99.618649
1974.000000	99.583091
1973.000000	99.527644
1972.000000	99.493737
1971.000000	99.501686
1970.000000	99.532609
1969.000000	99.554568
1968.000000	99.562239
1967.000000	99.575891
1966.000000	99.604080
1965.000000	99.632390
1964.000000	99.649525
1963.000000	99.656227
1962.000000	99.647258
1961.000000	99.613092
1960.000000	99.565059
1959.000000	99.531862
1958.000000	99.522872
1957.000000	99.519074
1956.000000	99.507825
1955.000000	99.503347
1954.000000	99.521619
1953.000000	99.554227
1952.000000	99.579581
1951.000000	99.585922
1950.000000	99.573311
1949.000000	99.547200
1948.000000	99.522022
1947.000000	99.517711
1946.000000	99.539254
1945.000000	99.569040
1944.000000	99.588086
1943.000000	99.594254
1942.000000	99.590543
1941.000000	99.571401
1940.000000	99.537703
1939.000000	99.509600
1938.000000	99.508048
1937.000000	99.530702
1936.000000	99.556470
1935.000000	99.571620
1934.000000	99.579082
1933.000000	99.584452
1932.000000	99.585529
1931.000000	99.577011
1930.000000	99.558358
1929.000000	99.534950
1928.000000	99.517834
1927.000000	99.518761
1926.000000	99.539390
1925.000000	99.566637
1924.000000	99.582610
1923.000000	99.582067
1922.000000	99.575264
1921.000000	99.572807
1920.000000	99.575828
1919.000000	99.580129
1918.000000	99.581841
1917.000000	99.577934
1916.000000	99.566386
1915.000000	99.549069
1914.000000	99.531969
1913.000000	99.522449
1912.000000	99.523857
1911.000000	99.531077
1910.000000	99.534203
1909.000000	99.528852
1908.000000	99.522233
1907.000000	99.523143
1906.000000	99.529532
1905.000000	99.532651
1904.000000	99.530866
1903.000000	99.533206
1902.000000	99.545691
1901.000000	99.561005
1900.000000	99.568097
1899.000000	99.564970
1898.000000	99.556382
1897.000000	99.545603
1896.000000	99.534262
1895.000000	99.527333
1894.000000	99.530350
1893.000000	99.541817
1892.000000	99.553797
1891.000000	99.558290
1890.000000	99.551983
1889.000000	99.540067
1888.000000	99.533795
1887.000000	99.539722
1886.000000	99.552211
1885.000000	99.558623
1884.000000	99.553453
1883.000000	99.544563
1882.000000	99.541940
1881.000000	99.545353
1880.000000	99.548536
1879.000000	99.549602
1878.000000	99.551839
1877.000000	99.558424
1876.000000	99.569519
1875.000000	99.581782
1874.000000	99.588570
1873.000000	99.583805
1872.000000	99.569096
1871.000000	99.553951
1870.000000	99.546866
1869.000000	99.548241
1868.000000	99.553122
1867.000000	99.559738
1866.000000	99.569721
1865.000000	99.581335
1864.000000	99.590127
1863.000000	99.593820
1862.000000	99.591750
1861.000000	99.582258
1860.000000	99.565499
1859.000000	99.547544
1858.000000	99.537324
1857.000000	99.539391
1856.000000	99.551724
1855.000000	99.568921
1854.000000	99.585242
1853.000000	99.595755
1852.000000	99.600061
1851.000000	99.602183
1850.000000	99.603371
1849.000000	99.601018
1848.000000	99.595255
1847.000000	99.591828
1846.000000	99.594673
1845.000000	99.599444
1844.000000	99.598969
1843.000000	99.593584
1842.000000	99.588769
1841.000000	99.586190
1840.000000	99.584666
1839.000000	99.583717
1838.000000	99.583958
1837.000000	99.586593
1836.000000	99.593146
1835.000000	99.604226
1834.000000	99.616450
1833.000000	99.623960
1832.000000	99.624166
1831.000000	99.617208
1830.000000	99.603740
1829.000000	99.588150
1828.000000	99.577296
1827.000000	99.574462
1826.000000	99.576058
1825.000000	99.576672
1824.000000	99.576904
1823.000000	99.580695
1822.000000	99.587484
1821.000000	99.592484
1820.000000	99.594191
1819.000000	99.596338
1818.000000	99.602303
1817.000000	99.610869
1816.000000	99.618121
1815.000000	99.622424
1814.000000	99.623681
1813.000000	99.621564
1812.000000	99.617016
1811.000000	99.611742
1810.000000	99.606528
1809.000000	99.600258
1808.000000	99.591534
1807.000000	99.580190
1806.000000	99.565154
1805.000000	99.544185
1804.000000	99.517214
1803.000000	99.487736
1802.000000	99.457944
1801.000000	99.427275
1800.000000	99.397085
1799.000000	99.371764
1798.000000	99.354926
1797.000000	99.344907
1796.000000	99.336115
1795.000000	99.324605
1794.000000	99.310082
1793.000000	99.298516
1792.000000	99.303037
1791.000000	99.329049
1790.000000	99.365264
1789.000000	99.397806
1788.000000	99.422451
1787.000000	99.443532
1786.000000	99.466566
1785.000000	99.490130
1784.000000	99.506708
1783.000000	99.512935
1782.000000	99.510917
1781.000000	99.505137
1780.000000	99.503259
1779.000000	99.510387
1778.000000	99.524200
1777.000000	99.537465
1776.000000	99.546675
1775.000000	99.555008
1774.000000	99.563974
1773.000000	99.568065
1772.000000	99.565785
1771.000000	99.564549
1770.000000	99.567090
1769.000000	99.567582
1768.000000	99.560278
1767.000000	99.547270
1766.000000	99.535146
1765.000000	99.526427
1764.000000	99.518854
1763.000000	99.509155
1762.000000	99.496016
1761.000000	99.482836
1760.000000	99.474694
1759.000000	99.471857
1758.000000	99.467808
1757.000000	99.452982
1756.000000	99.428537
1755.000000	99.404442
1754.000000	99.383140
1753.000000	99.356890
1752.000000	99.319778
1751.000000	99.278233
1750.000000	99.243256
1749.000000	99.214216
1748.000000	99.184693
1747.000000	99.154609
1746.000000	99.123148
1745.000000	99.086423
1744.000000	99.045607
1743.000000	99.007572
1742.000000	98.974757
1741.000000	98.940990
1740.000000	98.902427
1739.000000	98.868070
1738.000000	98.845720
1737.000000	98.832422
1736.000000	98.824646
1735.000000	98.828554
1734.000000	98.855097
1733.000000	98.894959
1732.000000	98.931549
1731.000000	98.967791
1730.000000	99.008392
1729.000000	99.047642
1728.000000	99.081404
1727.000000	99.112160
1726.000000	99.142165
1725.000000	99.169286
1724.000000	99.193252
1723.000000	99.216689
1722.000000	99.240416
1721.000000	99.259645
1720.000000	99.269979
1719.000000	99.269073
1718.000000	99.259268
1717.000000	99.251616
1716.000000	99.250666
1715.000000	99.252097
1714.000000	99.253142
1713.000000	99.251508
1712.000000	99.248162
1711.000000	99.248553
1710.000000	99.255534
1709.000000	99.263980
1708.000000	99.267445
1707.000000	99.265404
1706.000000	99.262200
1705.000000	99.261597
1704.000000	99.260643
1703.000000	99.256752
1702.000000	99.249632
1701.000000	99.235829
1700.000000	99.217565
1699.000000	99.205304
1698.000000	99.200561
1697.000000	99.193210
1696.000000	99.177112
1695.000000	99.159730
1694.000000	99.149403
1693.000000	99.142143
1692.000000	99.130642
1691.000000	99.111423
1690.000000	99.085177
1689.000000	99.053614
1688.000000	99.021531
1687.000000	98.994231
1686.000000	98.970408
1685.000000	98.937113
1684.000000	98.893128
1683.000000	98.860354
1682.000000	98.840326
1681.000000	98.818305
1680.000000	98.791781
1679.000000	98.766104
1678.000000	98.744273
1677.000000	98.719185
1676.000000	98.687193
1675.000000	98.659214
1674.000000	98.645118
1673.000000	98.636603
1672.000000	98.623591
1671.000000	98.605857
1670.000000	98.591378
1669.000000	98.585803
1668.000000	98.586270
1667.000000	98.588089
1666.000000	98.586085
1665.000000	98.575767
1664.000000	98.556908
1663.000000	98.536682
1662.000000	98.522140
1661.000000	98.508407
1660.000000	98.491015
1659.000000	98.472172
1658.000000	98.455275
1657.000000	98.438152
1656.000000	98.423045
1655.000000	98.414476
1654.000000	98.414096
1653.000000	98.415458
1652.000000	98.408717
1651.000000	98.400594
1650.000000	98.395706
1649.000000	98.387749
1648.000000	98.372109
1647.000000	98.364731
1646.000000	98.379342
1645.000000	98.402349
1644.000000	98.418835
1643.000000	98.430890
1642.000000	98.441033
1641.000000	98.449434
1640.000000	98.455847
1639.000000	98.461309
1638.000000	98.467738
1637.000000	98.476213
1636.000000	98.491444
1635.000000	98.515024
1634.000000	98.535583
1633.000000	98.548718
1632.000000	98.558818
1631.000000	98.569328
1630.000000	98.581548
1629.000000	98.593170
1628.000000	98.604212
1627.000000	98.617902
1626.000000	98.634138
1625.000000	98.650604
1624.000000	98.670574
1623.000000	98.699382
1622.000000	98.729723
1621.000000	98.747246
1620.000000	98.752139
1619.000000	98.755098
1618.000000	98.764339
1617.000000	98.781523
1616.000000	98.804772
1615.000000	98.831397
1614.000000	98.855725
1613.000000	98.872185
1612.000000	98.881089
1611.000000	98.889838
1610.000000	98.902541
1609.000000	98.914530
1608.000000	98.922736
1607.000000	98.932117
1606.000000	98.945470
1605.000000	98.958182
1604.000000	98.967647
1603.000000	98.975528
1602.000000	98.980928
1601.000000	98.979864
1600.000000	98.972972
1599.000000	98.965789
1598.000000	98.959994
1597.000000	98.952854
1596.000000	98.944831
1595.000000	98.939926
1594.000000	98.936994
1593.000000	98.929203
1592.000000	98.915113
1591.000000	98.900927
1590.000000	98.889600
1589.000000	98.876570
1588.000000	98.858919
1587.000000	98.839042
1586.000000	98.816800
1585.000000	98.786803
1584.000000	98.749277
1583.000000	98.713289
1582.000000	98.683558
1581.000000	98.655748
1580.000000	98.627170
1579.000000	98.602525
1578.000000	98.585720
1577.000000	98.576127
1576.000000	98.577513
1575.000000	98.594968
1574.000000	98.618721
1573.000000	98.636295
1572.000000	98.647887
1571.000000	98.661313
1570.000000	98.682423
1569.000000	98.703411
1568.000000	98.716290
1567.000000	98.724495
1566.000000	98.730443
1565.000000	98.729212
1564.000000	98.720291
1563.000000	98.710784
1562.000000	98.704050
1561.000000	98.698649
1560.000000	98.681669
1559.000000	98.648140
1558.000000	98.621041
1557.000000	98.597721
1556.000000	98.572859
1555.000000	98.555186
1554.000000	98.536549
1553.000000	98.512027
1552.000000	98.476617
1551.000000	98.431135
1550.000000	98.374685
1549.000000	98.310927
1548.000000	98.244164
1547.000000	98.173358
1546.000000	98.089017
1545.000000	97.984314
1544.000000	97.871177
1543.000000	97.768686
1542.000000	97.678338
1541.000000	97.589527
1540.000000	97.519136
1539.000000	97.492398
1538.000000	97.487360
1537.000000	97.478333
1536.000000	97.464008
1535.000000	97.448125
1534.000000	97.433000
1533.000000	97.414732
1532.000000	97.391022
1531.000000	97.361133
1530.000000	97.324122
1529.000000	97.276867
1528.000000	97.219512
1527.000000	97.156610
1526.000000	97.089485
1525.000000	97.016753
1524.000000	96.941529
1523.000000	96.866419
1522.000000	96.788327
1521.000000	96.712024
1520.000000	96.649140
1519.000000	96.597109
1518.000000	96.537865
1517.000000	96.458169
1516.000000	96.368826
1515.000000	96.286667
1514.000000	96.208010
1513.000000	96.123439
1512.000000	96.036172
1511.000000	95.955969
1510.000000	95.879658
1509.000000	95.791608
1508.000000	95.678551
1507.000000	95.561612
1506.000000	95.476663
1505.000000	95.411210
1504.000000	95.347935
1503.000000	95.283676
1502.000000	95.207984
1501.000000	95.117824
1500.000000	95.020416
1499.000000	94.927591
1498.000000	94.835784
1497.000000	94.737331
1496.000000	94.642401
1495.000000	94.563818
1494.000000	94.493164
1493.000000	94.414797
1492.000000	94.325089
1491.000000	94.231034
1490.000000	94.139811
1489.000000	94.053632
1488.000000	93.972750
1487.000000	93.896441
1486.000000	93.820540
1485.000000	93.738282
1484.000000	93.650534
1483.000000	93.563376
1482.000000	93.476935
1481.000000	93.388077
1480.000000	93.297677
1479.000000	93.207941
1478.000000	93.114074
1477.000000	93.009826
1476.000000	92.897584
1475.000000	92.784459
1474.000000	92.667171
1473.000000	92.541410
1472.000000	92.424320
1471.000000	92.327623
1470.000000	92.237102
1469.000000	92.140685
1468.000000	92.042318
1467.000000	91.951622
1466.000000	91.871895
1465.000000	91.799939
1464.000000	91.737037
1463.000000	91.682587
1462.000000	91.628019
1461.000000	91.565008
1460.000000	91.490808
1459.000000	91.405750
1458.000000	91.309197
1457.000000	91.220407
1456.000000	91.165230
1455.000000	91.128962
1454.000000	91.082825
1453.000000	91.021427
1452.000000	90.956890
1451.000000	90.900406
1450.000000	90.845987
1449.000000	90.784628
1448.000000	90.721442
1447.000000	90.666685
1446.000000	90.614560
1445.000000	90.553706
1444.000000	90.487457
1443.000000	90.425440
1442.000000	90.368474
1441.000000	90.309676
1440.000000	90.246532
1439.000000	90.181706
1438.000000	90.116878
1437.000000	90.057444
1436.000000	90.013442
1435.000000	89.978718
1434.000000	89.932590
1433.000000	89.866776
1432.000000	89.789729
1431.000000	89.714342
1430.000000	89.643317
1429.000000	89.572799
1428.000000	89.503679
1427.000000	89.436209
1426.000000	89.362342
1425.000000	89.276028
1424.000000	89.189052
1423.000000	89.113758
1422.000000	89.038985
1421.000000	88.946285
1420.000000	88.838621
1419.000000	88.742760
1418.000000	88.671018
1417.000000	88.604850
1416.000000	88.531397
1415.000000	88.451710
1414.000000	88.363831
1413.000000	88.267366
1412.000000	88.173185
1411.000000	88.093243
1410.000000	88.022453
1409.000000	87.949828
1408.000000	87.878824
1407.000000	87.820912
1406.000000	87.777118
1405.000000	87.741186
1404.000000	87.715076
1403.000000	87.698359
1402.000000	87.677242
1401.000000	87.641374
1400.000000	87.600322
1399.000000	87.570384
1398.000000	87.545867
1397.000000	87.509231
1396.000000	87.463707
1395.000000	87.427971
1394.000000	87.404229
1393.000000	87.380738
1392.000000	87.358703
1391.000000	87.345420
1390.000000	87.337453
1389.000000	87.330729
1388.000000	87.338832
1387.000000	87.379412
1386.000000	87.441296
1385.000000	87.500269
1384.000000	87.557069
1383.000000	87.626828
1382.000000	87.711950
1381.000000	87.805078
1380.000000	87.907273
1379.000000	88.023735
1378.000000	88.146536
1377.000000	88.264847
1376.000000	88.387072
1375.000000	88.533269
1374.000000	88.703924
1373.000000	88.876868
1372.000000	89.039373
1371.000000	89.197557
1370.000000	89.357566
1369.000000	89.519404
1368.000000	89.682436
1367.000000	89.842300
1366.000000	89.992371
1365.000000	90.137895
1364.000000	90.300030
1363.000000	90.494142
1362.000000	90.705412
1361.000000	90.906384
1360.000000	91.090939
1359.000000	91.267083
1358.000000	91.437082
1357.000000	91.601289
1356.000000	91.765127
1355.000000	91.930017
1354.000000	92.087256
1353.000000	92.231564
1352.000000	92.369523
1351.000000	92.507268
1350.000000	92.640839
1349.000000	92.765070
1348.000000	92.883505
1347.000000	93.000492
1346.000000	93.113065
1345.000000	93.217446
1344.000000	93.315152
1343.000000	93.407422
1342.000000	93.493046
1341.000000	93.575572
1340.000000	93.663411
1339.000000	93.755660
1338.000000	93.839407
1337.000000	93.910239
1336.000000	93.978441
1335.000000	94.050906
1334.000000	94.123146
1333.000000	94.191246
1332.000000	94.259473
1331.000000	94.331281
1330.000000	94.402887
1329.000000	94.471275
1328.000000	94.539314
1327.000000	94.607915
1326.000000	94.671985
1325.000000	94.729092
1324.000000	94.784414
1323.000000	94.841398
1322.000000	94.896171
1321.000000	94.945825
1320.000000	94.994290
1319.000000	95.045045
1318.000000	95.095209
1317.000000	95.142315
1316.000000	95.189302
1315.000000	95.238295
1314.000000	95.286902
1313.000000	95.334358
1312.000000	95.383972
1311.000000	95.436006
1310.000000	95.485220
1309.000000	95.528986
1308.000000	95.571090
1307.000000	95.615085
1306.000000	95.659856
1305.000000	95.703824
1304.000000	95.747862
1303.000000	95.790970
1302.000000	95.829582
1301.000000	95.863744
1300.000000	95.898725
1299.000000	95.938345
1298.000000	95.981399
1297.000000	96.025224
1296.000000	96.067331
1295.000000	96.103442
1294.000000	96.130386
1293.000000	96.151525
1292.000000	96.173246
1291.000000	96.195797
1290.000000	96.213649
1289.000000	96.225371
1288.000000	96.236134
1287.000000	96.249547
1286.000000	96.263815
1285.000000	96.277477
1284.000000	96.292499
1283.000000	96.309617
1282.000000	96.326214
1281.000000	96.340508
1280.000000	96.353706
1279.000000	96.367460
1278.000000	96.383328
1277.000000	96.404245
1276.000000	96.431257
1275.000000	96.459359
1274.000000	96.481873
1273.000000	96.498720
1272.000000	96.515136
1271.000000	96.532797
1270.000000	96.548092
1269.000000	96.558933
1268.000000	96.566957
1267.000000	96.572930
1266.000000	96.576171
1265.000000	96.578877
1264.000000	96.585245
1263.000000	96.595716
1262.000000	96.606906
1261.000000	96.616917
1260.000000	96.625765
1259.000000	96.631902
1258.000000	96.634187
1257.000000	96.636065
1256.000000	96.641504
1255.000000	96.648012
1254.000000	96.649634
1253.000000	96.645774
1252.000000	96.640788
1251.000000	96.636115
1250.000000	96.629560
1249.000000	96.621773
1248.000000	96.616649
1247.000000	96.614738
1246.000000	96.612414
1245.000000	96.608136
1244.000000	96.603745
1243.000000	96.599391
1242.000000	96.593106
1241.000000	96.585709
1240.000000	96.580197
1239.000000	96.576000
1238.000000	96.569672
1237.000000	96.561640
1236.000000	96.556288
1235.000000	96.555092
1234.000000	96.555795
1233.000000	96.558775
1232.000000	96.567734
1231.000000	96.582606
1230.000000	96.598120
1229.000000	96.611503
1228.000000	96.625924
1227.000000	96.644698
1226.000000	96.667339
1225.000000	96.692720
1224.000000	96.720748
1223.000000	96.748994
1222.000000	96.773073
1221.000000	96.792523
1220.000000	96.812037
1219.000000	96.835357
1218.000000	96.861777
1217.000000	96.889457
1216.000000	96.917457
1215.000000	96.943500
1214.000000	96.964467
1213.000000	96.980710
1212.000000	96.995726
1211.000000	97.010405
1210.000000	97.021467
1209.000000	97.026036
1208.000000	97.024267
1207.000000	97.017352
1206.000000	97.007111
1205.000000	96.997578
1204.000000	96.992546
1203.000000	96.991377
1202.000000	96.990949
1201.000000	96.991414
1200.000000	96.995553
1199.000000	97.002659
1198.000000	97.008137
1197.000000	97.010038
1196.000000	97.011462
1195.000000	97.015524
1194.000000	97.022099
1193.000000	97.030038
1192.000000	97.038412
1191.000000	97.044786
1190.000000	97.046383
1189.000000	97.043897
1188.000000	97.040700
1187.000000	97.037776
1186.000000	97.032670
1185.000000	97.023762
1184.000000	97.012133
1183.000000	96.999437
1182.000000	96.987542
1181.000000	96.979836
1180.000000	96.978673
1179.000000	96.981213
1178.000000	96.981669
1177.000000	96.977803
1176.000000	96.971669
1175.000000	96.964717
1174.000000	96.956461
1173.000000	96.947789
1172.000000	96.941541
1171.000000	96.939418
1170.000000	96.941243
1169.000000	96.946879
1168.000000	96.955680
1167.000000	96.964946
1166.000000	96.972955
1165.000000	96.982360
1164.000000	96.996218
1163.000000	97.011768
1162.000000	97.023280
1161.000000	97.030646
1160.000000	97.039752
1159.000000	97.054169
1158.000000	97.071406
1157.000000	97.087805
1156.000000	97.102704
1155.000000	97.117307
1154.000000	97.133650
1153.000000	97.154816
1152.000000	97.182005
1151.000000	97.211776
1150.000000	97.240223
1149.000000	97.268827
1148.000000	97.301228
1147.000000	97.335446
1146.000000	97.365636
1145.000000	97.391302
1144.000000	97.418404
1143.000000	97.450524
1142.000000	97.484447
1141.000000	97.515461
1140.000000	97.542052
1139.000000	97.564397
1138.000000	97.582778
1137.000000	97.598718
1136.000000	97.614043
1135.000000	97.628642
1134.000000	97.642366
1133.000000	97.657704
1132.000000	97.676325
1131.000000	97.693966
1130.000000	97.703927
1129.000000	97.705433
1128.000000	97.703792
1127.000000	97.703127
1126.000000	97.703857
1125.000000	97.706395
1124.000000	97.711708
1123.000000	97.718040
1122.000000	97.722291
1121.000000	97.724933
1120.000000	97.728871
1119.000000	97.733549
1118.000000	97.734990
1117.000000	97.731819
1116.000000	97.726668
1115.000000	97.721786
1114.000000	97.717680
1113.000000	97.715613
1112.000000	97.716724
1111.000000	97.719112
1110.000000	97.720363
1109.000000	97.722132
1108.000000	97.727445
1107.000000	97.734513
1106.000000	97.739230
1105.000000	97.742760
1104.000000	97.749920
1103.000000	97.759972
1102.000000	97.765532
1101.000000	97.761941
1100.000000	97.751710
1099.000000	97.738751
1098.000000	97.724364
1097.000000	97.709284
1096.000000	97.695065
1095.000000	97.682024
1094.000000	97.670227
1093.000000	97.662253
1092.000000	97.659589
1091.000000	97.656511
1090.000000	97.643798
1089.000000	97.619814
1088.000000	97.592124
1087.000000	97.567229
1086.000000	97.544935
1085.000000	97.524456
1084.000000	97.509523
1083.000000	97.503323
1082.000000	97.502693
1081.000000	97.501191
1080.000000	97.495891
1079.000000	97.489082
1078.000000	97.485678
1077.000000	97.490279
1076.000000	97.503760
1075.000000	97.521939
1074.000000	97.540203
1073.000000	97.559047
1072.000000	97.581196
1071.000000	97.603832
1070.000000	97.619273
1069.000000	97.624366
1068.000000	97.624065
1067.000000	97.624363
1066.000000	97.626478
1065.000000	97.629609
1064.000000	97.634639
1063.000000	97.642238
1062.000000	97.650527
1061.000000	97.657122
1060.000000	97.661351
1059.000000	97.663342
1058.000000	97.663552
1057.000000	97.664114
1056.000000	97.667902
1055.000000	97.675306
1054.000000	97.684251
1053.000000	97.693783
1052.000000	97.705113
1051.000000	97.718617
1050.000000	97.732593
1049.000000	97.745538
1048.000000	97.757142
1047.000000	97.767052
1046.000000	97.775022
1045.000000	97.781629
1044.000000	97.786297
1043.000000	97.786100
1042.000000	97.779532
1041.000000	97.770423
1040.000000	97.764669
1039.000000	97.763955
1038.000000	97.765720
1037.000000	97.767712
1036.000000	97.768779
1035.000000	97.766586
1034.000000	97.759664
1033.000000	97.751638
1032.000000	97.749070
1031.000000	97.754438
1030.000000	97.764567
1029.000000	97.775860
1028.000000	97.787402
1027.000000	97.798811
1026.000000	97.808678
1025.000000	97.815835
1024.000000	97.819948
1023.000000	97.821540
1022.000000	97.823791
1021.000000	97.832236
1020.000000	97.848776
1019.000000	97.867202
1018.000000	97.878648
1017.000000	97.880682
1016.000000	97.877390
1015.000000	97.872828
1014.000000	97.869435
1013.000000	97.871019
1012.000000	97.880908
1011.000000	97.896845
1010.000000	97.913024
1009.000000	97.928001
1008.000000	97.945755
1007.000000	97.968000
1006.000000	97.990575
1005.000000	98.009102
1004.000000	98.024405
1003.000000	98.040243
1002.000000	98.058508
1001.000000	98.078463
1000.000000	98.098792
999.000000	98.119421
998.000000	98.142091
997.000000	98.168383
996.000000	98.195857
995.000000	98.218057
994.000000	98.231222
993.000000	98.239709
992.000000	98.251712
991.000000	98.271022
990.000000	98.295323
989.000000	98.320412
988.000000	98.342801
987.000000	98.360675
986.000000	98.376663
985.000000	98.397413
984.000000	98.425148
983.000000	98.451321
982.000000	98.464613
981.000000	98.464739
980.000000	98.463056
979.000000	98.468913
978.000000	98.480414
977.000000	98.489493
976.000000	98.491709
975.000000	98.489969
974.000000	98.491285
973.000000	98.500325
972.000000	98.513962
971.000000	98.522924
970.000000	98.521880
969.000000	98.516599
968.000000	98.517892
967.000000	98.530147
966.000000	98.549550
965.000000	98.571738
964.000000	98.595756
963.000000	98.620933
962.000000	98.645162
961.000000	98.667224
960.000000	98.687331
959.000000	98.705706
958.000000	98.724032
957.000000	98.746628
956.000000	98.775479
955.000000	98.805252
954.000000	98.828503
953.000000	98.845000
952.000000	98.860724
951.000000	98.878209
950.000000	98.893955
949.000000	98.905661
948.000000	98.916009
947.000000	98.928052
946.000000	98.941478
945.000000	98.954609
944.000000	98.966040
943.000000	98.973981
942.000000	98.978366
941.000000	98.983560
940.000000	98.994064
939.000000	99.007600
938.000000	99.017710
937.000000	99.023945
936.000000	99.033562
935.000000	99.051454
934.000000	99.073718
933.000000	99.093353
932.000000	99.107824
931.000000	99.118340
930.000000	99.126113
929.000000	99.132541
928.000000	99.140221
927.000000	99.151020
926.000000	99.164536
925.000000	99.179354
924.000000	99.193770
923.000000	99.205029
922.000000	99.210848
921.000000	99.212632
920.000000	99.215161
919.000000	99.222861
918.000000	99.237992
917.000000	99.261001
916.000000	99.288952
915.000000	99.314366
914.000000	99.330227
913.000000	99.336933
912.000000	99.340851
911.000000	99.346234
910.000000	99.352042
909.000000	99.356388
908.000000	99.360281
907.000000	99.366648
906.000000	99.378824
905.000000	99.399244
904.000000	99.425832
903.000000	99.451104
902.000000	99.469527
901.000000	99.484369
900.000000	99.502231
899.000000	99.522474
898.000000	99.538987
897.000000	99.551006
896.000000	99.564199
895.000000	99.580754
894.000000	99.596672
893.000000	99.610717
892.000000	99.627564
891.000000	99.649385
890.000000	99.671089
889.000000	99.685661
888.000000	99.685840
887.000000	99.655808
886.000000	99.570853
885.000000	99.409566
884.000000	99.158633
883.000000	98.802777
882.000000	98.315527
881.000000	97.670194
880.000000	96.854379
879.000000	95.871796
878.000000	94.740101
877.000000	93.487337
876.000000	92.143358
875.000000	90.735731
874.000000	89.340890
873.000000	88.177236
872.000000	87.622932
871.000000	88.022675
870.000000	89.389836
869.000000	91.322952
868.000000	93.252738
867.000000	94.788119
866.000000	95.854755
865.000000	96.573595
864.000000	97.079064
863.000000	97.449622
862.000000	97.731215
861.000000	97.958205
860.000000	98.147071
859.000000	98.296896
858.000000	98.409294
857.000000	98.495982
856.000000	98.568672
855.000000	98.633267
854.000000	98.693225
853.000000	98.747396
852.000000	98.781401
851.000000	98.774863
850.000000	98.726994
849.000000	98.670514
848.000000	98.652406
847.000000	98.698076
846.000000	98.794018
845.000000	98.902824
844.000000	98.991815
843.000000	99.049962
842.000000	99.084277
841.000000	99.106105
840.000000	99.123084
839.000000	99.140222
838.000000	99.161580
837.000000	99.187627
836.000000	99.214590
835.000000	99.240127
834.000000	99.267137
833.000000	99.298416
832.000000	99.330005
831.000000	99.354682
830.000000	99.370664
829.000000	99.381849
828.000000	99.390369
827.000000	99.394894
826.000000	99.396705
825.000000	99.400865
824.000000	99.409191
823.000000	99.417493
822.000000	99.422651
821.000000	99.428085
820.000000	99.439199
819.000000	99.456511
818.000000	99.475223
817.000000	99.489012
816.000000	99.493326
815.000000	99.488450
814.000000	99.481075
813.000000	99.479906
812.000000	99.487538
811.000000	99.498060
810.000000	99.503838
809.000000	99.503211
808.000000	99.500958
807.000000	99.503112
806.000000	99.511970
805.000000	99.524275
804.000000	99.533918
803.000000	99.537767
802.000000	99.538144
801.000000	99.537904
800.000000	99.534928
799.000000	99.525262
798.000000	99.510841
797.000000	99.499372
796.000000	99.495915
795.000000	99.498409
794.000000	99.501773
793.000000	99.502366
792.000000	99.498060
791.000000	99.489042
790.000000	99.480646
789.000000	99.480926
788.000000	99.492140
787.000000	99.506971
786.000000	99.515816
785.000000	99.516148
784.000000	99.512453
783.000000	99.508753
782.000000	99.504226
781.000000	99.496644
780.000000	99.488218
779.000000	99.485646
778.000000	99.492540
777.000000	99.502547
776.000000	99.503784
775.000000	99.492482
774.000000	99.479386
773.000000	99.479185
772.000000	99.494955
771.000000	99.515713
770.000000	99.527407
769.000000	99.523417
768.000000	99.507251
767.000000	99.490193
766.000000	99.484676
765.000000	99.494089
764.000000	99.509225
763.000000	99.519090
762.000000	99.523923
761.000000	99.532316
760.000000	99.547303
759.000000	99.562682
758.000000	99.573562
757.000000	99.582585
756.000000	99.593255
755.000000	99.604005
754.000000	99.612212
753.000000	99.618543
752.000000	99.623744
751.000000	99.625656
750.000000	99.623033
749.000000	99.618887
748.000000	99.616797
747.000000	99.616278
746.000000	99.614252
745.000000	99.608940
744.000000	99.600924
743.000000	99.593162
742.000000	99.590561
741.000000	99.595697
740.000000	99.604428
739.000000	99.609779
738.000000	99.610149
737.000000	99.608758
736.000000	99.605369
735.000000	99.595708
734.000000	99.580855
733.000000	99.569269
732.000000	99.565258
731.000000	99.561448
730.000000	99.547670
729.000000	99.522531
728.000000	99.493773
727.000000	99.470077
726.000000	99.452933
725.000000	99.435377
724.000000	99.406707
723.000000	99.359135
722.000000	99.290878
721.000000	99.203495
720.000000	99.096240
719.000000	98.959659
718.000000	98.770006
717.000000	98.490798
716.000000	98.095978
715.000000	97.615754
714.000000	97.163655
713.000000	96.893109
712.000000	96.899316
711.000000	97.152620
710.000000	97.528585
709.000000	97.898479
708.000000	98.194459
707.000000	98.411077
706.000000	98.567312
705.000000	98.679753
704.000000	98.762116
703.000000	98.828703
702.000000	98.889883
701.000000	98.946870
700.000000	98.994653
699.000000	99.032936
698.000000	99.066968
697.000000	99.097871
696.000000	99.120613
695.000000	99.132705
694.000000	99.142958
693.000000	99.162926
692.000000	99.190914
691.000000	99.217252
690.000000	99.238626
689.000000	99.258688
688.000000	99.277147
687.000000	99.288523
686.000000	99.296509
685.000000	99.312251
684.000000	99.333580
683.000000	99.343730
682.000000	99.334398
681.000000	99.315965
680.000000	99.300333
679.000000	99.290141
678.000000	99.287872
677.000000	99.293513
676.000000	99.299425
675.000000	99.298305
674.000000	99.296169
673.000000	99.308396
672.000000	99.343137
671.000000	99.402929
670.000000	99.491058
669.000000	99.603498
668.000000	99.673845
667.000000	99.618899
666.000000	99.506461
665.000000	99.403182
664.000000	99.322100
663.000000	99.270771
662.000000	99.245966
661.000000	99.238810
660.000000	99.241356
659.000000	99.250959
658.000000	99.262804
657.000000	99.264721
656.000000	99.254885
655.000000	99.248250
654.000000	99.254582
653.000000	99.266008
652.000000	99.274805
651.000000	99.283323
650.000000	99.292795
649.000000	99.297938
648.000000	99.299964
647.000000	99.307003
646.000000	99.315241
645.000000	99.310753
644.000000	99.291290
643.000000	99.268924
642.000000	99.252371
641.000000	99.238919
640.000000	99.228175
639.000000	99.228879
638.000000	99.242601
637.000000	99.257047
636.000000	99.265010
635.000000	99.273285
634.000000	99.286111
633.000000	99.293831
632.000000	99.285745
631.000000	99.264628
630.000000	99.241356
629.000000	99.223334
628.000000	99.216118
627.000000	99.225652
626.000000	99.246840
625.000000	99.260888
624.000000	99.251457
623.000000	99.218741
622.000000	99.176111
621.000000	99.139566
620.000000	99.122201
619.000000	99.128687
618.000000	99.148646
617.000000	99.162442
616.000000	99.159607
615.000000	99.147142
614.000000	99.137316
613.000000	99.135490
612.000000	99.143096
611.000000	99.160739
610.000000	99.181639
609.000000	99.192063
608.000000	99.186756
607.000000	99.176575
606.000000	99.172223
605.000000	99.172266
604.000000	99.172696
603.000000	99.177867
602.000000	99.193333
601.000000	99.214750
600.000000	99.234160
599.000000	99.251223
598.000000	99.266814
597.000000	99.271192
596.000000	99.252891
595.000000	99.217921
594.000000	99.187332
593.000000	99.174145
592.000000	99.173700
591.000000	99.178442
590.000000	99.189660
589.000000	99.209140
588.000000	99.229454
587.000000	99.238924
586.000000	99.230358
585.000000	99.202049
584.000000	99.156872
583.000000	99.106747
582.000000	99.073414
581.000000	99.075928
580.000000	99.113911
579.000000	99.164479
578.000000	99.197822
577.000000	99.198286
576.000000	99.173360
575.000000	99.144356
574.000000	99.125545
573.000000	99.114637
572.000000	99.106147
571.000000	99.103979
570.000000	99.114399
569.000000	99.131327
568.000000	99.138969
567.000000	99.128021
566.000000	99.101373
565.000000	99.065358
564.000000	99.024857
563.000000	98.987751
562.000000	98.964319
561.000000	98.959376
560.000000	98.969547
559.000000	98.987683
558.000000	99.004567
557.000000	99.009602
556.000000	98.998214
555.000000	98.979770
554.000000	98.970532
553.000000	98.976288
552.000000	98.988415
551.000000	98.996334
550.000000	98.997740
549.000000	98.996413
548.000000	98.997079
547.000000	99.004516
546.000000	99.021210
545.000000	99.042237
544.000000	99.058300
543.000000	99.065425
542.000000	99.066581
541.000000	99.062568
540.000000	99.046887
539.000000	99.014144
538.000000	98.969784
537.000000	98.927395
536.000000	98.898898
535.000000	98.890931
534.000000	98.905832
533.000000	98.939929
532.000000	98.978998
531.000000	99.001026
530.000000	98.990936
529.000000	98.954569
528.000000	98.913174
527.000000	98.886122
526.000000	98.879982
525.000000	98.890521
524.000000	98.910256
523.000000	98.927502
522.000000	98.927051
521.000000	98.907333
520.000000	98.894339
519.000000	98.922207
518.000000	98.993207
517.000000	99.073660
516.000000	99.137206
515.000000	99.184483
514.000000	99.216453
513.000000	99.219849
512.000000	99.192793
511.000000	99.162998
510.000000	99.157524
509.000000	99.167942
508.000000	99.167587
507.000000	99.155185
506.000000	99.153734
505.000000	99.168147
504.000000	99.176782
503.000000	99.167524
502.000000	99.157226
501.000000	99.162751
500.000000	99.172594
499.000000	99.167403
498.000000	99.147652
497.000000	99.127643
496.000000	99.114721
495.000000	99.107477
494.000000	99.110477
493.000000	99.133443
492.000000	99.171683
491.000000	99.202164
490.000000	99.208662
489.000000	99.203994
488.000000	99.214674
487.000000	99.246532
486.000000	99.274497
485.000000	99.273207
484.000000	99.254893
483.000000	99.257743
482.000000	99.292594
481.000000	99.323517
480.000000	99.309926
479.000000	99.251134
478.000000	99.183368
477.000000	99.145748
476.000000	99.156271
475.000000	99.212486
474.000000	99.294883
473.000000	99.365524
472.000000	99.386662
471.000000	99.356547
470.000000	99.305625
469.000000	99.259117
468.000000	99.221946
467.000000	99.189254
466.000000	99.158601
465.000000	99.139848
464.000000	99.155306
463.000000	99.211810
462.000000	99.269304
461.000000	99.272712
460.000000	99.229418
459.000000	99.222865
458.000000	99.328933
457.000000	99.504897
456.000000	99.637189
455.000000	99.690426
454.000000	99.705907
453.000000	99.701408
452.000000	99.653093
451.000000	99.605908
450.000000	99.551937
