PE IR       SUBTECH     SPECTRUM    ASCII       PEDS        4.00        
   -1
AG10-C004_1.ASC
23/09/08
10:25:51.00
23/09/08
11:14:38.00
uco
Sample 004 By uco Date Friday, September 08 2023
450.000000
#HDR
-1
-1
#GR
cm-1
%T
1.0
0.0
4000.000000
-1.000000
3551
8
99.403891
93.462224
#DATA
4000.000000	99.350764
3999.000000	99.354266
3998.000000	99.360055
3997.000000	99.364652
3996.000000	99.365527
3995.000000	99.362839
3994.000000	99.358834
3993.000000	99.355663
3992.000000	99.353855
3991.000000	99.352575
3990.000000	99.350798
3989.000000	99.348217
3988.000000	99.345352
3987.000000	99.343104
3986.000000	99.342050
3985.000000	99.341954
3984.000000	99.342039
3983.000000	99.341909
3982.000000	99.342132
3981.000000	99.343689
3980.000000	99.346699
3979.000000	99.349762
3978.000000	99.350873
3977.000000	99.349122
3976.000000	99.345398
3975.000000	99.341378
3974.000000	99.338042
3973.000000	99.335373
3972.000000	99.333379
3971.000000	99.332786
3970.000000	99.334271
3969.000000	99.337289
3968.000000	99.340218
3967.000000	99.341919
3966.000000	99.342642
3965.000000	99.343039
3964.000000	99.342750
3963.000000	99.340678
3962.000000	99.336751
3961.000000	99.332545
3960.000000	99.329785
3959.000000	99.328752
3958.000000	99.328474
3957.000000	99.327995
3956.000000	99.326843
3955.000000	99.324782
3954.000000	99.321582
3953.000000	99.317358
3952.000000	99.313054
3951.000000	99.310320
3950.000000	99.310403
3949.000000	99.312872
3948.000000	99.315954
3947.000000	99.318234
3946.000000	99.319677
3945.000000	99.320803
3944.000000	99.322072
3943.000000	99.323758
3942.000000	99.324999
3941.000000	99.323638
3940.000000	99.318551
3939.000000	99.311759
3938.000000	99.307659
3937.000000	99.309807
3936.000000	99.317073
3935.000000	99.323959
3934.000000	99.325245
3933.000000	99.320617
3932.000000	99.314415
3931.000000	99.310598
3930.000000	99.309462
3929.000000	99.309017
3928.000000	99.307239
3927.000000	99.302664
3926.000000	99.295949
3925.000000	99.291714
3924.000000	99.294899
3923.000000	99.304544
3922.000000	99.314269
3921.000000	99.318510
3920.000000	99.317016
3919.000000	99.313504
3918.000000	99.311621
3917.000000	99.312340
3916.000000	99.313858
3915.000000	99.313130
3914.000000	99.308470
3913.000000	99.301295
3912.000000	99.295578
3911.000000	99.295078
3910.000000	99.300494
3909.000000	99.310074
3908.000000	99.320682
3907.000000	99.328189
3906.000000	99.327975
3905.000000	99.319462
3904.000000	99.309466
3903.000000	99.306164
3902.000000	99.310123
3901.000000	99.314654
3900.000000	99.314529
3899.000000	99.310515
3898.000000	99.305789
3897.000000	99.301554
3896.000000	99.298150
3895.000000	99.296672
3894.000000	99.297386
3893.000000	99.297922
3892.000000	99.296340
3891.000000	99.295632
3890.000000	99.300464
3889.000000	99.312063
3888.000000	99.324034
3887.000000	99.326796
3886.000000	99.321682
3885.000000	99.320446
3884.000000	99.328046
3883.000000	99.337062
3882.000000	99.336374
3881.000000	99.324091
3880.000000	99.310744
3879.000000	99.306155
3878.000000	99.309906
3877.000000	99.314015
3876.000000	99.309925
3875.000000	99.298935
3874.000000	99.293676
3873.000000	99.302880
3872.000000	99.318430
3871.000000	99.324584
3870.000000	99.320243
3869.000000	99.318671
3868.000000	99.326365
3867.000000	99.335629
3866.000000	99.335832
3865.000000	99.326608
3864.000000	99.316434
3863.000000	99.310007
3862.000000	99.305784
3861.000000	99.301510
3860.000000	99.295835
3859.000000	99.289192
3858.000000	99.285490
3857.000000	99.291144
3856.000000	99.304965
3855.000000	99.312432
3854.000000	99.309825
3853.000000	99.311536
3852.000000	99.318801
3851.000000	99.322834
3850.000000	99.320872
3849.000000	99.315879
3848.000000	99.312631
3847.000000	99.313131
3846.000000	99.315729
3845.000000	99.316987
3844.000000	99.314452
3843.000000	99.309101
3842.000000	99.304245
3841.000000	99.302043
3840.000000	99.302207
3839.000000	99.304411
3838.000000	99.308603
3837.000000	99.314168
3836.000000	99.320454
3835.000000	99.327354
3834.000000	99.333950
3833.000000	99.338400
3832.000000	99.340723
3831.000000	99.342831
3830.000000	99.345777
3829.000000	99.347265
3828.000000	99.342737
3827.000000	99.331656
3826.000000	99.321071
3825.000000	99.319237
3824.000000	99.325341
3823.000000	99.326984
3822.000000	99.316143
3821.000000	99.304675
3820.000000	99.305032
3819.000000	99.313916
3818.000000	99.318860
3817.000000	99.310498
3816.000000	99.297736
3815.000000	99.296411
3814.000000	99.305858
3813.000000	99.313997
3812.000000	99.315072
3811.000000	99.314409
3810.000000	99.318718
3809.000000	99.324041
3808.000000	99.319989
3807.000000	99.307063
3806.000000	99.297846
3805.000000	99.301377
3804.000000	99.313875
3803.000000	99.322225
3802.000000	99.322117
3801.000000	99.323967
3800.000000	99.332033
3799.000000	99.339370
3798.000000	99.337522
3797.000000	99.325268
3796.000000	99.310993
3795.000000	99.303136
3794.000000	99.302446
3793.000000	99.304820
3792.000000	99.307322
3791.000000	99.308915
3790.000000	99.308799
3789.000000	99.306471
3788.000000	99.302951
3787.000000	99.300126
3786.000000	99.299634
3785.000000	99.302886
3784.000000	99.310931
3783.000000	99.322279
3782.000000	99.331551
3781.000000	99.332120
3780.000000	99.323039
3779.000000	99.311802
3778.000000	99.306334
3777.000000	99.307344
3776.000000	99.310241
3775.000000	99.312430
3774.000000	99.315766
3773.000000	99.321422
3772.000000	99.325592
3771.000000	99.324773
3770.000000	99.322672
3769.000000	99.325230
3768.000000	99.332039
3767.000000	99.337279
3766.000000	99.337172
3765.000000	99.334458
3764.000000	99.334105
3763.000000	99.336218
3762.000000	99.336001
3761.000000	99.330552
3760.000000	99.322501
3759.000000	99.314609
3758.000000	99.305813
3757.000000	99.297003
3756.000000	99.292769
3755.000000	99.295660
3754.000000	99.302276
3753.000000	99.307160
3752.000000	99.308562
3751.000000	99.307478
3750.000000	99.303981
3749.000000	99.300809
3748.000000	99.305358
3747.000000	99.319410
3746.000000	99.329428
3745.000000	99.328590
3744.000000	99.332852
3743.000000	99.347704
3742.000000	99.361062
3741.000000	99.365464
3740.000000	99.364613
3739.000000	99.365556
3738.000000	99.366293
3737.000000	99.359095
3736.000000	99.346422
3735.000000	99.339514
3734.000000	99.340294
3733.000000	99.340043
3732.000000	99.334870
3731.000000	99.330125
3730.000000	99.331473
3729.000000	99.337550
3728.000000	99.341900
3727.000000	99.341587
3726.000000	99.339865
3725.000000	99.338969
3724.000000	99.337431
3723.000000	99.334578
3722.000000	99.333028
3721.000000	99.335298
3720.000000	99.339999
3719.000000	99.342453
3718.000000	99.339434
3717.000000	99.333395
3716.000000	99.329851
3715.000000	99.331470
3714.000000	99.335905
3713.000000	99.339421
3712.000000	99.341831
3711.000000	99.345185
3710.000000	99.349931
3709.000000	99.354907
3708.000000	99.358374
3707.000000	99.359578
3706.000000	99.359337
3705.000000	99.358662
3704.000000	99.357078
3703.000000	99.353769
3702.000000	99.350140
3701.000000	99.349115
3700.000000	99.351732
3699.000000	99.355574
3698.000000	99.356610
3697.000000	99.353683
3696.000000	99.349503
3695.000000	99.345503
3694.000000	99.339928
3693.000000	99.332053
3692.000000	99.325787
3691.000000	99.326624
3690.000000	99.335305
3689.000000	99.346660
3688.000000	99.355000
3687.000000	99.359610
3686.000000	99.362312
3685.000000	99.363414
3684.000000	99.362923
3683.000000	99.361792
3682.000000	99.358604
3681.000000	99.350333
3680.000000	99.339628
3679.000000	99.335291
3678.000000	99.340156
3677.000000	99.343827
3676.000000	99.341670
3675.000000	99.341564
3674.000000	99.345025
3673.000000	99.347684
3672.000000	99.343342
3671.000000	99.329681
3670.000000	99.319309
3669.000000	99.323131
3668.000000	99.334054
3667.000000	99.341762
3666.000000	99.343387
3665.000000	99.340706
3664.000000	99.335738
3663.000000	99.328744
3662.000000	99.319805
3661.000000	99.312073
3660.000000	99.310587
3659.000000	99.316460
3658.000000	99.323119
3657.000000	99.322685
3656.000000	99.316087
3655.000000	99.310568
3654.000000	99.311223
3653.000000	99.316716
3652.000000	99.321434
3651.000000	99.323453
3650.000000	99.327417
3649.000000	99.332681
3648.000000	99.331078
3647.000000	99.321208
3646.000000	99.309207
3645.000000	99.298976
3644.000000	99.289305
3643.000000	99.278033
3642.000000	99.265777
3641.000000	99.254887
3640.000000	99.245971
3639.000000	99.238967
3638.000000	99.235950
3637.000000	99.238708
3636.000000	99.243891
3635.000000	99.244907
3634.000000	99.240493
3633.000000	99.236929
3632.000000	99.239545
3631.000000	99.242608
3630.000000	99.236647
3629.000000	99.228884
3628.000000	99.230826
3627.000000	99.238041
3626.000000	99.242343
3625.000000	99.241833
3624.000000	99.239705
3623.000000	99.239738
3622.000000	99.241068
3621.000000	99.239113
3620.000000	99.232295
3619.000000	99.224097
3618.000000	99.217291
3617.000000	99.212326
3616.000000	99.209458
3615.000000	99.208094
3614.000000	99.206903
3613.000000	99.204225
3612.000000	99.198058
3611.000000	99.187556
3610.000000	99.174530
3609.000000	99.163805
3608.000000	99.159483
3607.000000	99.159175
3606.000000	99.156681
3605.000000	99.149453
3604.000000	99.139626
3603.000000	99.130278
3602.000000	99.122434
3601.000000	99.115730
3600.000000	99.109665
3599.000000	99.103395
3598.000000	99.096179
3597.000000	99.088335
3596.000000	99.081130
3595.000000	99.075865
3594.000000	99.073504
3593.000000	99.074280
3592.000000	99.077948
3591.000000	99.082794
3590.000000	99.084632
3589.000000	99.080349
3588.000000	99.073316
3587.000000	99.068934
3586.000000	99.065887
3585.000000	99.059745
3584.000000	99.049548
3583.000000	99.037434
3582.000000	99.026119
3581.000000	99.017571
3580.000000	99.012423
3579.000000	99.009181
3578.000000	99.004870
3577.000000	98.997459
3576.000000	98.988013
3575.000000	98.979665
3574.000000	98.974579
3573.000000	98.972458
3572.000000	98.972257
3571.000000	98.973598
3570.000000	98.975141
3569.000000	98.973830
3568.000000	98.968482
3567.000000	98.961106
3566.000000	98.952636
3565.000000	98.942333
3564.000000	98.930855
3563.000000	98.919959
3562.000000	98.911152
3561.000000	98.905119
3560.000000	98.901539
3559.000000	98.899162
3558.000000	98.896362
3557.000000	98.892007
3556.000000	98.885730
3555.000000	98.877413
3554.000000	98.867100
3553.000000	98.856091
3552.000000	98.847034
3551.000000	98.841587
3550.000000	98.838423
3549.000000	98.834300
3548.000000	98.827223
3547.000000	98.818445
3546.000000	98.810981
3545.000000	98.806188
3544.000000	98.802555
3543.000000	98.797409
3542.000000	98.789087
3541.000000	98.778326
3540.000000	98.767924
3539.000000	98.760648
3538.000000	98.756799
3537.000000	98.754040
3536.000000	98.749613
3535.000000	98.742791
3534.000000	98.735485
3533.000000	98.730778
3532.000000	98.730786
3531.000000	98.734776
3530.000000	98.738953
3529.000000	98.738933
3528.000000	98.733236
3527.000000	98.723914
3526.000000	98.713834
3525.000000	98.704260
3524.000000	98.694946
3523.000000	98.685330
3522.000000	98.675370
3521.000000	98.665996
3520.000000	98.658614
3519.000000	98.653599
3518.000000	98.649369
3517.000000	98.643499
3516.000000	98.634996
3515.000000	98.625002
3514.000000	98.615254
3513.000000	98.606537
3512.000000	98.599134
3511.000000	98.594019
3510.000000	98.592438
3509.000000	98.594045
3508.000000	98.596303
3507.000000	98.595982
3506.000000	98.591036
3505.000000	98.581756
3504.000000	98.571093
3503.000000	98.562685
3502.000000	98.557382
3501.000000	98.552437
3500.000000	98.544707
3499.000000	98.534103
3498.000000	98.523860
3497.000000	98.517703
3496.000000	98.516161
3495.000000	98.515746
3494.000000	98.512227
3493.000000	98.504711
3492.000000	98.496035
3491.000000	98.489389
3490.000000	98.485298
3489.000000	98.482256
3488.000000	98.479510
3487.000000	98.477667
3486.000000	98.476393
3485.000000	98.473302
3484.000000	98.466418
3483.000000	98.457262
3482.000000	98.450158
3481.000000	98.447608
3480.000000	98.447258
3479.000000	98.444298
3478.000000	98.436443
3477.000000	98.425875
3476.000000	98.416652
3475.000000	98.410638
3474.000000	98.406251
3473.000000	98.401117
3472.000000	98.394948
3471.000000	98.389193
3470.000000	98.384484
3469.000000	98.379677
3468.000000	98.373726
3467.000000	98.367678
3466.000000	98.363877
3465.000000	98.363431
3464.000000	98.365155
3463.000000	98.366959
3462.000000	98.367602
3461.000000	98.366875
3460.000000	98.364652
3459.000000	98.360533
3458.000000	98.354389
3457.000000	98.346784
3456.000000	98.338572
3455.000000	98.330261
3454.000000	98.322149
3453.000000	98.315026
3452.000000	98.310077
3451.000000	98.307374
3450.000000	98.304942
3449.000000	98.300388
3448.000000	98.293694
3447.000000	98.287328
3446.000000	98.282790
3445.000000	98.278437
3444.000000	98.271727
3443.000000	98.262618
3442.000000	98.253708
3441.000000	98.247248
3440.000000	98.242887
3439.000000	98.238520
3438.000000	98.232585
3437.000000	98.225407
3436.000000	98.218939
3435.000000	98.215290
3434.000000	98.214892
3433.000000	98.215717
3432.000000	98.214707
3431.000000	98.210201
3430.000000	98.203166
3429.000000	98.196319
3428.000000	98.192203
3427.000000	98.191730
3426.000000	98.193759
3425.000000	98.195650
3424.000000	98.194622
3423.000000	98.189510
3422.000000	98.181820
3421.000000	98.174678
3420.000000	98.169758
3419.000000	98.165156
3418.000000	98.157285
3417.000000	98.145191
3416.000000	98.132279
3415.000000	98.123174
3414.000000	98.119124
3413.000000	98.117308
3412.000000	98.114500
3411.000000	98.110220
3410.000000	98.106050
3409.000000	98.103228
3408.000000	98.101943
3407.000000	98.102233
3406.000000	98.104090
3405.000000	98.106468
3404.000000	98.107222
3403.000000	98.104823
3402.000000	98.099850
3401.000000	98.094181
3400.000000	98.088986
3399.000000	98.084230
3398.000000	98.080016
3397.000000	98.077135
3396.000000	98.075630
3395.000000	98.073905
3394.000000	98.070499
3393.000000	98.066390
3392.000000	98.064126
3391.000000	98.064377
3390.000000	98.064535
3389.000000	98.061217
3388.000000	98.053260
3387.000000	98.042070
3386.000000	98.030196
3385.000000	98.020134
3384.000000	98.013410
3383.000000	98.009546
3382.000000	98.006329
3381.000000	98.001907
3380.000000	97.996316
3379.000000	97.990322
3378.000000	97.983506
3377.000000	97.974715
3376.000000	97.964248
3375.000000	97.954432
3374.000000	97.947696
3373.000000	97.944607
3372.000000	97.943622
3371.000000	97.941883
3370.000000	97.936278
3369.000000	97.925087
3368.000000	97.909734
3367.000000	97.894511
3366.000000	97.883527
3365.000000	97.877388
3364.000000	97.872787
3363.000000	97.865229
3362.000000	97.852377
3361.000000	97.835441
3360.000000	97.817749
3359.000000	97.801807
3358.000000	97.787624
3357.000000	97.773785
3356.000000	97.759659
3355.000000	97.745987
3354.000000	97.733614
3353.000000	97.722555
3352.000000	97.712469
3351.000000	97.703143
3350.000000	97.693960
3349.000000	97.683634
3348.000000	97.671287
3347.000000	97.657598
3346.000000	97.644257
3345.000000	97.632267
3344.000000	97.621129
3343.000000	97.609634
3342.000000	97.597001
3341.000000	97.583133
3340.000000	97.568264
3339.000000	97.552823
3338.000000	97.537610
3337.000000	97.523717
3336.000000	97.511877
3335.000000	97.501817
3334.000000	97.492426
3333.000000	97.482753
3332.000000	97.472769
3331.000000	97.463148
3330.000000	97.454441
3329.000000	97.446561
3328.000000	97.438738
3327.000000	97.429650
3326.000000	97.417938
3325.000000	97.403384
3324.000000	97.387875
3323.000000	97.374657
3322.000000	97.366014
3321.000000	97.361552
3320.000000	97.358785
3319.000000	97.355218
3318.000000	97.349706
3317.000000	97.342201
3316.000000	97.333108
3315.000000	97.323444
3314.000000	97.315112
3313.000000	97.309791
3312.000000	97.306982
3311.000000	97.303838
3310.000000	97.297902
3309.000000	97.290103
3308.000000	97.284228
3307.000000	97.282994
3306.000000	97.285068
3305.000000	97.286152
3304.000000	97.282532
3303.000000	97.273590
3302.000000	97.261708
3301.000000	97.250384
3300.000000	97.242124
3299.000000	97.237414
3298.000000	97.235469
3297.000000	97.235810
3296.000000	97.238766
3295.000000	97.244298
3294.000000	97.250924
3293.000000	97.256332
3292.000000	97.258731
3291.000000	97.257425
3290.000000	97.252814
3289.000000	97.246517
3288.000000	97.240965
3287.000000	97.237819
3286.000000	97.236864
3285.000000	97.237073
3284.000000	97.238282
3283.000000	97.240836
3282.000000	97.244000
3281.000000	97.246240
3280.000000	97.247432
3279.000000	97.249255
3278.000000	97.252557
3277.000000	97.255301
3276.000000	97.254476
3275.000000	97.249909
3274.000000	97.245106
3273.000000	97.244261
3272.000000	97.248941
3271.000000	97.257393
3270.000000	97.266131
3269.000000	97.272006
3268.000000	97.273742
3267.000000	97.272451
3266.000000	97.270805
3265.000000	97.271368
3264.000000	97.275318
3263.000000	97.282351
3262.000000	97.291204
3261.000000	97.300079
3260.000000	97.307142
3259.000000	97.311578
3258.000000	97.314362
3257.000000	97.317487
3256.000000	97.321994
3255.000000	97.326876
3254.000000	97.330324
3253.000000	97.332012
3252.000000	97.333725
3251.000000	97.337771
3250.000000	97.345059
3249.000000	97.354612
3248.000000	97.364284
3247.000000	97.371638
3246.000000	97.374882
3245.000000	97.373968
3244.000000	97.370856
3243.000000	97.368090
3242.000000	97.366970
3241.000000	97.367406
3240.000000	97.369587
3239.000000	97.374999
3238.000000	97.385055
3237.000000	97.398817
3236.000000	97.412689
3235.000000	97.422777
3234.000000	97.427429
3233.000000	97.427619
3232.000000	97.425648
3231.000000	97.423955
3230.000000	97.424645
3229.000000	97.428889
3228.000000	97.436039
3227.000000	97.443650
3226.000000	97.449098
3225.000000	97.451509
3224.000000	97.452218
3223.000000	97.453484
3222.000000	97.456695
3221.000000	97.461439
3220.000000	97.465777
3219.000000	97.467477
3218.000000	97.465545
3217.000000	97.461082
3216.000000	97.457100
3215.000000	97.457305
3214.000000	97.463817
3213.000000	97.474971
3212.000000	97.485407
3211.000000	97.489576
3210.000000	97.486246
3209.000000	97.479550
3208.000000	97.475362
3207.000000	97.476586
3206.000000	97.481981
3205.000000	97.488726
3204.000000	97.495151
3203.000000	97.501248
3202.000000	97.507426
3201.000000	97.513298
3200.000000	97.517675
3199.000000	97.519789
3198.000000	97.520456
3197.000000	97.521643
3196.000000	97.524639
3195.000000	97.529066
3194.000000	97.533985
3193.000000	97.539236
3192.000000	97.545098
3191.000000	97.551194
3190.000000	97.556672
3189.000000	97.561224
3188.000000	97.565088
3187.000000	97.568398
3186.000000	97.571619
3185.000000	97.576405
3184.000000	97.584660
3183.000000	97.596263
3182.000000	97.608525
3181.000000	97.618359
3180.000000	97.624439
3179.000000	97.627379
3178.000000	97.628996
3177.000000	97.631751
3176.000000	97.637668
3175.000000	97.646642
3174.000000	97.656292
3173.000000	97.664235
3172.000000	97.670228
3171.000000	97.675674
3170.000000	97.681672
3169.000000	97.688434
3168.000000	97.696082
3167.000000	97.704827
3166.000000	97.714158
3165.000000	97.722636
3164.000000	97.728993
3163.000000	97.733335
3162.000000	97.737222
3161.000000	97.742598
3160.000000	97.750338
3159.000000	97.759354
3158.000000	97.767263
3157.000000	97.772457
3156.000000	97.775653
3155.000000	97.779270
3154.000000	97.785289
3153.000000	97.793739
3152.000000	97.802924
3151.000000	97.810863
3150.000000	97.816657
3149.000000	97.820710
3148.000000	97.823589
3147.000000	97.825004
3146.000000	97.824617
3145.000000	97.823944
3144.000000	97.826363
3143.000000	97.834195
3142.000000	97.846164
3141.000000	97.858580
3140.000000	97.868882
3139.000000	97.877292
3138.000000	97.885290
3137.000000	97.893356
3136.000000	97.900392
3135.000000	97.904702
3134.000000	97.905421
3133.000000	97.903636
3132.000000	97.902400
3131.000000	97.904968
3130.000000	97.912267
3129.000000	97.921912
3128.000000	97.930011
3127.000000	97.934293
3126.000000	97.935651
3125.000000	97.936645
3124.000000	97.938626
3123.000000	97.940623
3122.000000	97.941166
3121.000000	97.940601
3120.000000	97.940608
3119.000000	97.941557
3118.000000	97.941716
3117.000000	97.939862
3116.000000	97.937706
3115.000000	97.938452
3114.000000	97.943119
3113.000000	97.949253
3112.000000	97.953179
3111.000000	97.952781
3110.000000	97.948550
3109.000000	97.943063
3108.000000	97.939403
3107.000000	97.938752
3106.000000	97.938937
3105.000000	97.936307
3104.000000	97.929689
3103.000000	97.921828
3102.000000	97.916493
3101.000000	97.914855
3100.000000	97.915048
3099.000000	97.914459
3098.000000	97.911615
3097.000000	97.906555
3096.000000	97.900602
3095.000000	97.895704
3094.000000	97.893051
3093.000000	97.892109
3092.000000	97.891438
3091.000000	97.890292
3090.000000	97.888733
3089.000000	97.886289
3088.000000	97.881613
3087.000000	97.874257
3086.000000	97.866199
3085.000000	97.860597
3084.000000	97.858897
3083.000000	97.859827
3082.000000	97.861444
3081.000000	97.863429
3080.000000	97.866791
3079.000000	97.871754
3078.000000	97.876862
3077.000000	97.880160
3076.000000	97.880505
3075.000000	97.877633
3074.000000	97.871893
3073.000000	97.864644
3072.000000	97.858530
3071.000000	97.856375
3070.000000	97.859347
3069.000000	97.865989
3068.000000	97.872849
3067.000000	97.876328
3066.000000	97.875000
3065.000000	97.871090
3064.000000	97.869274
3063.000000	97.873126
3062.000000	97.882318
3061.000000	97.893174
3060.000000	97.901717
3059.000000	97.906245
3058.000000	97.908015
3057.000000	97.910241
3056.000000	97.915977
3055.000000	97.925887
3054.000000	97.937680
3053.000000	97.948060
3052.000000	97.955374
3051.000000	97.960417
3050.000000	97.965235
3049.000000	97.971550
3048.000000	97.979929
3047.000000	97.989699
3046.000000	97.999511
3045.000000	98.008222
3044.000000	98.015352
3043.000000	98.020893
3042.000000	98.025202
3041.000000	98.029252
3040.000000	98.034305
3039.000000	98.040811
3038.000000	98.048071
3037.000000	98.055406
3036.000000	98.062998
3035.000000	98.070927
3034.000000	98.078149
3033.000000	98.083468
3032.000000	98.087219
3031.000000	98.090969
3030.000000	98.095824
3029.000000	98.102071
3028.000000	98.110101
3027.000000	98.120115
3026.000000	98.130692
3025.000000	98.139046
3024.000000	98.143502
3023.000000	98.145128
3022.000000	98.146752
3021.000000	98.151137
3020.000000	98.159923
3019.000000	98.172669
3018.000000	98.186122
3017.000000	98.195661
3016.000000	98.198790
3015.000000	98.197084
3014.000000	98.194375
3013.000000	98.193630
3012.000000	98.195800
3011.000000	98.200366
3010.000000	98.205888
3009.000000	98.210627
3008.000000	98.213747
3007.000000	98.215783
3006.000000	98.217357
3005.000000	98.217954
3004.000000	98.216810
3003.000000	98.214753
3002.000000	98.214100
3001.000000	98.216476
3000.000000	98.221088
2999.000000	98.225176
2998.000000	98.226147
2997.000000	98.223749
2996.000000	98.220542
2995.000000	98.219744
2994.000000	98.221814
2993.000000	98.223443
2992.000000	98.220474
2991.000000	98.211714
2990.000000	98.199597
2989.000000	98.187702
2988.000000	98.178490
2987.000000	98.172912
2986.000000	98.170770
2985.000000	98.170773
2984.000000	98.170769
2983.000000	98.168641
2982.000000	98.163263
2981.000000	98.154997
2980.000000	98.145606
2979.000000	98.137349
2978.000000	98.131376
2977.000000	98.126976
2976.000000	98.122812
2975.000000	98.118690
2974.000000	98.115389
2973.000000	98.112831
2972.000000	98.109467
2971.000000	98.103822
2970.000000	98.096021
2969.000000	98.087550
2968.000000	98.080273
2967.000000	98.075877
2966.000000	98.074962
2965.000000	98.075595
2964.000000	98.073553
2963.000000	98.065499
2962.000000	98.052096
2961.000000	98.037164
2960.000000	98.023852
2959.000000	98.012449
2958.000000	98.001893
2957.000000	97.992029
2956.000000	97.983747
2955.000000	97.977797
2954.000000	97.974416
2953.000000	97.973823
2952.000000	97.976113
2951.000000	97.980503
2950.000000	97.985054
2949.000000	97.987449
2948.000000	97.986233
2947.000000	97.981674
2946.000000	97.975558
2945.000000	97.969614
2944.000000	97.963712
2943.000000	97.955892
2942.000000	97.944710
2941.000000	97.931443
2940.000000	97.919389
2939.000000	97.910873
2938.000000	97.905123
2937.000000	97.899063
2936.000000	97.889892
2935.000000	97.877077
2934.000000	97.862393
2933.000000	97.848149
2932.000000	97.835029
2931.000000	97.821503
2930.000000	97.805342
2929.000000	97.785463
2928.000000	97.762161
2927.000000	97.736231
2926.000000	97.708791
2925.000000	97.681768
2924.000000	97.657299
2923.000000	97.636008
2922.000000	97.616481
2921.000000	97.597037
2920.000000	97.577922
2919.000000	97.561581
2918.000000	97.551349
2917.000000	97.550187
2916.000000	97.559908
2915.000000	97.580796
2914.000000	97.611609
2913.000000	97.650019
2912.000000	97.692849
2911.000000	97.736134
2910.000000	97.775966
2909.000000	97.810297
2908.000000	97.839929
2907.000000	97.867101
2906.000000	97.893038
2905.000000	97.917120
2904.000000	97.938202
2903.000000	97.956074
2902.000000	97.971144
2901.000000	97.983436
2900.000000	97.992818
2899.000000	98.000290
2898.000000	98.008452
2897.000000	98.019873
2896.000000	98.034750
2895.000000	98.050395
2894.000000	98.063312
2893.000000	98.071763
2892.000000	98.076393
2891.000000	98.078982
2890.000000	98.081150
2889.000000	98.084008
2888.000000	98.087989
2887.000000	98.092531
2886.000000	98.096413
2885.000000	98.098921
2884.000000	98.100602
2883.000000	98.102579
2882.000000	98.105324
2881.000000	98.108340
2880.000000	98.110860
2879.000000	98.112627
2878.000000	98.114037
2877.000000	98.115617
2876.000000	98.117293
2875.000000	98.118323
2874.000000	98.118212
2873.000000	98.117585
2872.000000	98.117761
2871.000000	98.119558
2870.000000	98.122978
2869.000000	98.127820
2868.000000	98.133698
2867.000000	98.139329
2866.000000	98.142823
2865.000000	98.143371
2864.000000	98.142007
2863.000000	98.140205
2862.000000	98.138371
2861.000000	98.136216
2860.000000	98.133543
2859.000000	98.129352
2858.000000	98.120856
2857.000000	98.105050
2856.000000	98.081540
2855.000000	98.052804
2854.000000	98.021638
2853.000000	97.989450
2852.000000	97.957616
2851.000000	97.929633
2850.000000	97.910959
2849.000000	97.906681
2848.000000	97.919025
2847.000000	97.946338
2846.000000	97.983931
2845.000000	98.026126
2844.000000	98.068130
2843.000000	98.106835
2842.000000	98.140735
2841.000000	98.169743
2840.000000	98.194925
2839.000000	98.217522
2838.000000	98.237870
2837.000000	98.255395
2836.000000	98.269616
2835.000000	98.280928
2834.000000	98.290502
2833.000000	98.299720
2832.000000	98.309550
2831.000000	98.319952
2830.000000	98.329813
2829.000000	98.337806
2828.000000	98.343353
2827.000000	98.346733
2826.000000	98.348697
2825.000000	98.350369
2824.000000	98.353126
2823.000000	98.357771
2822.000000	98.363871
2821.000000	98.370433
2820.000000	98.377044
2819.000000	98.383743
2818.000000	98.390065
2817.000000	98.395139
2816.000000	98.398745
2815.000000	98.401397
2814.000000	98.403234
2813.000000	98.403827
2812.000000	98.403398
2811.000000	98.403282
2810.000000	98.404520
2809.000000	98.406596
2808.000000	98.408275
2807.000000	98.409202
2806.000000	98.410060
2805.000000	98.411541
2804.000000	98.413857
2803.000000	98.416994
2802.000000	98.420696
2801.000000	98.424165
2800.000000	98.426443
2799.000000	98.427367
2798.000000	98.427920
2797.000000	98.429424
2796.000000	98.432399
2795.000000	98.436129
2794.000000	98.439280
2793.000000	98.441072
2792.000000	98.441976
2791.000000	98.443162
2790.000000	98.445225
2789.000000	98.447767
2788.000000	98.450383
2787.000000	98.453555
2786.000000	98.457967
2785.000000	98.463057
2784.000000	98.466997
2783.000000	98.468482
2782.000000	98.468187
2781.000000	98.467977
2780.000000	98.468768
2779.000000	98.469726
2778.000000	98.469721
2777.000000	98.469096
2776.000000	98.469432
2775.000000	98.471673
2774.000000	98.475125
2773.000000	98.478545
2772.000000	98.481704
2771.000000	98.485368
2770.000000	98.490036
2769.000000	98.495277
2768.000000	98.500327
2767.000000	98.504845
2766.000000	98.509015
2765.000000	98.513279
2764.000000	98.518101
2763.000000	98.523578
2762.000000	98.528961
2761.000000	98.532800
2760.000000	98.533982
2759.000000	98.532809
2758.000000	98.530908
2757.000000	98.529851
2756.000000	98.529872
2755.000000	98.530208
2754.000000	98.530705
2753.000000	98.532490
2752.000000	98.536388
2751.000000	98.541042
2750.000000	98.543721
2749.000000	98.543243
2748.000000	98.541240
2747.000000	98.540043
2746.000000	98.540211
2745.000000	98.540932
2744.000000	98.542003
2743.000000	98.544193
2742.000000	98.547824
2741.000000	98.552011
2740.000000	98.555331
2739.000000	98.556477
2738.000000	98.554591
2737.000000	98.550225
2736.000000	98.546177
2735.000000	98.546124
2734.000000	98.551458
2733.000000	98.559798
2732.000000	98.567104
2731.000000	98.571039
2730.000000	98.572131
2729.000000	98.572293
2728.000000	98.572794
2727.000000	98.573585
2726.000000	98.574118
2725.000000	98.574524
2724.000000	98.575794
2723.000000	98.578767
2722.000000	98.583254
2721.000000	98.588370
2720.000000	98.593263
2719.000000	98.597021
2718.000000	98.598516
2717.000000	98.597466
2716.000000	98.595531
2715.000000	98.595206
2714.000000	98.597322
2713.000000	98.600470
2712.000000	98.602979
2711.000000	98.604443
2710.000000	98.605057
2709.000000	98.604821
2708.000000	98.604263
2707.000000	98.604919
2706.000000	98.607820
2705.000000	98.611820
2704.000000	98.614489
2703.000000	98.614619
2702.000000	98.613328
2701.000000	98.612946
2700.000000	98.615355
2699.000000	98.620855
2698.000000	98.627617
2697.000000	98.632352
2696.000000	98.632662
2695.000000	98.629266
2694.000000	98.625445
2693.000000	98.624116
2692.000000	98.625739
2691.000000	98.628825
2690.000000	98.631628
2689.000000	98.633030
2688.000000	98.632693
2687.000000	98.631293
2686.000000	98.630432
2685.000000	98.631537
2684.000000	98.634474
2683.000000	98.637491
2682.000000	98.638776
2681.000000	98.638067
2680.000000	98.636742
2679.000000	98.636394
2678.000000	98.637350
2677.000000	98.638533
2676.000000	98.638751
2675.000000	98.638128
2674.000000	98.638271
2673.000000	98.640883
2672.000000	98.646003
2671.000000	98.651523
2670.000000	98.654634
2669.000000	98.653984
2668.000000	98.650615
2667.000000	98.646888
2666.000000	98.644535
2665.000000	98.643597
2664.000000	98.642935
2663.000000	98.641504
2662.000000	98.639240
2661.000000	98.636881
2660.000000	98.635013
2659.000000	98.633418
2658.000000	98.631607
2657.000000	98.630019
2656.000000	98.630272
2655.000000	98.633810
2654.000000	98.640402
2653.000000	98.648281
2652.000000	98.655566
2651.000000	98.661214
2650.000000	98.664836
2649.000000	98.666326
2648.000000	98.666054
2647.000000	98.665057
2646.000000	98.664552
2645.000000	98.665104
2644.000000	98.666288
2643.000000	98.667176
2642.000000	98.667329
2641.000000	98.667469
2640.000000	98.669046
2639.000000	98.672925
2638.000000	98.678539
2637.000000	98.684372
2636.000000	98.688970
2635.000000	98.691337
2634.000000	98.691003
2633.000000	98.688618
2632.000000	98.686400
2631.000000	98.687038
2630.000000	98.691530
2629.000000	98.698331
2628.000000	98.704867
2627.000000	98.709713
2626.000000	98.713296
2625.000000	98.716921
2624.000000	98.721431
2623.000000	98.726679
2622.000000	98.732020
2621.000000	98.737133
2620.000000	98.742038
2619.000000	98.746181
2618.000000	98.747916
2617.000000	98.745774
2616.000000	98.740612
2615.000000	98.736230
2614.000000	98.737319
2613.000000	98.746048
2612.000000	98.759777
2611.000000	98.771962
2610.000000	98.776434
2609.000000	98.772129
2608.000000	98.763868
2607.000000	98.757925
2606.000000	98.756964
2605.000000	98.759689
2604.000000	98.764397
2603.000000	98.770992
2602.000000	98.779143
2601.000000	98.786298
2600.000000	98.789405
2599.000000	98.788438
2598.000000	98.787090
2597.000000	98.789467
2596.000000	98.796377
2595.000000	98.804965
2594.000000	98.811483
2593.000000	98.813942
2592.000000	98.812351
2591.000000	98.807612
2590.000000	98.801293
2589.000000	98.796158
2588.000000	98.795365
2587.000000	98.800160
2586.000000	98.808763
2585.000000	98.818088
2584.000000	98.826291
2583.000000	98.833547
2582.000000	98.840987
2581.000000	98.849079
2580.000000	98.856073
2579.000000	98.857900
2578.000000	98.851451
2577.000000	98.839262
2576.000000	98.829511
2575.000000	98.829092
2574.000000	98.836837
2573.000000	98.845000
2572.000000	98.846932
2571.000000	98.842134
2570.000000	98.834920
2569.000000	98.830687
2568.000000	98.833242
2567.000000	98.842874
2566.000000	98.855646
2565.000000	98.866018
2564.000000	98.871217
2563.000000	98.872200
2562.000000	98.870573
2561.000000	98.866807
2560.000000	98.862124
2559.000000	98.859538
2558.000000	98.860745
2557.000000	98.863138
2556.000000	98.862264
2555.000000	98.857204
2554.000000	98.851951
2553.000000	98.851111
2552.000000	98.855277
2551.000000	98.860923
2550.000000	98.864087
2549.000000	98.863546
2548.000000	98.860543
2547.000000	98.856206
2546.000000	98.850257
2545.000000	98.842827
2544.000000	98.836719
2543.000000	98.836207
2542.000000	98.842880
2541.000000	98.853189
2540.000000	98.860717
2539.000000	98.861070
2538.000000	98.854893
2537.000000	98.846919
2536.000000	98.842215
2535.000000	98.842732
2534.000000	98.847039
2533.000000	98.852993
2532.000000	98.859849
2531.000000	98.867316
2530.000000	98.873664
2529.000000	98.876482
2528.000000	98.875306
2527.000000	98.872030
2526.000000	98.868374
2525.000000	98.864326
2524.000000	98.859802
2523.000000	98.856626
2522.000000	98.857384
2521.000000	98.862180
2520.000000	98.867205
2519.000000	98.867079
2518.000000	98.859101
2517.000000	98.845933
2516.000000	98.834275
2515.000000	98.830540
2514.000000	98.837160
2513.000000	98.851833
2512.000000	98.868870
2511.000000	98.881193
2510.000000	98.883174
2509.000000	98.874035
2508.000000	98.858842
2507.000000	98.845110
2506.000000	98.838020
2505.000000	98.838810
2504.000000	98.845997
2503.000000	98.856368
2502.000000	98.865506
2501.000000	98.869827
2500.000000	98.868934
2499.000000	98.865018
2498.000000	98.860045
2497.000000	98.854960
2496.000000	98.851391
2495.000000	98.851808
2494.000000	98.857055
2493.000000	98.865061
2492.000000	98.872813
2491.000000	98.878606
2490.000000	98.882065
2489.000000	98.883542
2488.000000	98.884260
2487.000000	98.885368
2486.000000	98.885618
2485.000000	98.881429
2484.000000	98.871186
2483.000000	98.859023
2482.000000	98.852760
2481.000000	98.857880
2480.000000	98.873479
2479.000000	98.893042
2478.000000	98.908201
2477.000000	98.913256
2476.000000	98.908879
2475.000000	98.902054
2474.000000	98.900626
2473.000000	98.906463
2472.000000	98.914440
2471.000000	98.918529
2470.000000	98.918022
2469.000000	98.916987
2468.000000	98.918668
2467.000000	98.922321
2466.000000	98.925379
2465.000000	98.926527
2464.000000	98.925690
2463.000000	98.922846
2462.000000	98.918947
2461.000000	98.916970
2460.000000	98.919324
2459.000000	98.923893
2458.000000	98.925050
2457.000000	98.919793
2456.000000	98.911630
2455.000000	98.907348
2454.000000	98.910650
2453.000000	98.919224
2452.000000	98.926509
2451.000000	98.926029
2450.000000	98.916612
2449.000000	98.904895
2448.000000	98.900685
2447.000000	98.907587
2446.000000	98.919140
2445.000000	98.925718
2444.000000	98.923687
2443.000000	98.916170
2442.000000	98.907661
2441.000000	98.901738
2440.000000	98.902342
2439.000000	98.911777
2438.000000	98.926257
2437.000000	98.937331
2436.000000	98.940034
2435.000000	98.937507
2434.000000	98.936217
2433.000000	98.938890
2432.000000	98.943604
2431.000000	98.947597
2430.000000	98.949526
2429.000000	98.949167
2428.000000	98.946929
2427.000000	98.943445
2426.000000	98.938870
2425.000000	98.933451
2424.000000	98.929213
2423.000000	98.929109
2422.000000	98.932942
2421.000000	98.936007
2420.000000	98.934295
2419.000000	98.930049
2418.000000	98.929302
2417.000000	98.933815
2416.000000	98.938529
2415.000000	98.938257
2414.000000	98.934287
2413.000000	98.931923
2412.000000	98.932868
2411.000000	98.933438
2410.000000	98.930885
2409.000000	98.928487
2408.000000	98.932098
2407.000000	98.942742
2406.000000	98.954931
2405.000000	98.962154
2404.000000	98.962364
2403.000000	98.958426
2402.000000	98.955213
2401.000000	98.956477
2400.000000	98.962047
2399.000000	98.966803
2398.000000	98.964420
2397.000000	98.953876
2396.000000	98.941178
2395.000000	98.933204
2394.000000	98.930999
2393.000000	98.930835
2392.000000	98.930535
2391.000000	98.932121
2390.000000	98.938242
2389.000000	98.948132
2388.000000	98.957864
2387.000000	98.963123
2386.000000	98.961532
2385.000000	98.953675
2384.000000	98.942999
2383.000000	98.934285
2382.000000	98.930775
2381.000000	98.932606
2380.000000	98.937290
2379.000000	98.941553
2378.000000	98.943476
2377.000000	98.943615
2376.000000	98.944199
2375.000000	98.946728
2374.000000	98.950586
2373.000000	98.953607
2372.000000	98.953163
2371.000000	98.947048
2370.000000	98.935294
2369.000000	98.921287
2368.000000	98.908389
2367.000000	98.896532
2366.000000	98.885660
2365.000000	98.881476
2364.000000	98.890908
2363.000000	98.909530
2362.000000	98.922356
2361.000000	98.920924
2360.000000	98.911333
2359.000000	98.905596
2358.000000	98.908656
2357.000000	98.915591
2356.000000	98.919041
2355.000000	98.912798
2354.000000	98.899475
2353.000000	98.889713
2352.000000	98.890767
2351.000000	98.897505
2350.000000	98.899621
2349.000000	98.894514
2348.000000	98.887673
2347.000000	98.886005
2346.000000	98.889076
2345.000000	98.887936
2344.000000	98.878624
2343.000000	98.867626
2342.000000	98.865095
2341.000000	98.872084
2340.000000	98.880171
2339.000000	98.882413
2338.000000	98.879528
2337.000000	98.876903
2336.000000	98.878268
2335.000000	98.885222
2334.000000	98.896656
2333.000000	98.909514
2332.000000	98.917451
2331.000000	98.917423
2330.000000	98.910007
2329.000000	98.900806
2328.000000	98.891058
2327.000000	98.878458
2326.000000	98.860035
2325.000000	98.838508
2324.000000	98.822841
2323.000000	98.821541
2322.000000	98.834769
2321.000000	98.853012
2320.000000	98.864427
2319.000000	98.864442
2318.000000	98.854603
2317.000000	98.840753
2316.000000	98.828658
2315.000000	98.825131
2314.000000	98.832627
2313.000000	98.848549
2312.000000	98.865182
2311.000000	98.876472
2310.000000	98.879426
2309.000000	98.875688
2308.000000	98.869611
2307.000000	98.867483
2306.000000	98.873038
2305.000000	98.885179
2304.000000	98.898686
2303.000000	98.909187
2302.000000	98.915276
2301.000000	98.918657
2300.000000	98.920852
2299.000000	98.922715
2298.000000	98.923192
2297.000000	98.921320
2296.000000	98.915951
2295.000000	98.907115
2294.000000	98.896090
2293.000000	98.886787
2292.000000	98.883999
2291.000000	98.889423
2290.000000	98.898909
2289.000000	98.905245
2288.000000	98.904038
2287.000000	98.895957
2286.000000	98.884770
2285.000000	98.874482
2284.000000	98.868462
2283.000000	98.868109
2282.000000	98.872610
2281.000000	98.880877
2280.000000	98.893682
2279.000000	98.911018
2278.000000	98.927973
2277.000000	98.936822
2276.000000	98.934690
2275.000000	98.927306
2274.000000	98.923774
2273.000000	98.929338
2272.000000	98.942427
2271.000000	98.956189
2270.000000	98.962662
2269.000000	98.959115
2268.000000	98.951873
2267.000000	98.951215
2266.000000	98.960602
2265.000000	98.972926
2264.000000	98.978707
2263.000000	98.976508
2262.000000	98.973740
2261.000000	98.978018
2260.000000	98.988789
2259.000000	98.997099
2258.000000	98.994730
2257.000000	98.983724
2256.000000	98.974940
2255.000000	98.975422
2254.000000	98.980045
2253.000000	98.979021
2252.000000	98.970323
2251.000000	98.960370
2250.000000	98.955270
2249.000000	98.957473
2248.000000	98.968737
2247.000000	98.988960
2246.000000	99.011641
2245.000000	99.026649
2244.000000	99.029057
2243.000000	99.021081
2242.000000	99.006170
2241.000000	98.987655
2240.000000	98.972972
2239.000000	98.971098
2238.000000	98.982894
2237.000000	98.999329
2236.000000	99.011260
2235.000000	99.016450
2234.000000	99.016424
2233.000000	99.013030
2232.000000	99.009550
2231.000000	99.008402
2230.000000	99.005904
2229.000000	98.996402
2228.000000	98.983807
2227.000000	98.981659
2226.000000	98.998458
2225.000000	99.029146
2224.000000	99.063103
2223.000000	99.092499
2222.000000	99.109377
2221.000000	99.104513
2220.000000	99.077082
2219.000000	99.039449
2218.000000	99.006422
2217.000000	98.985784
2216.000000	98.982794
2215.000000	99.004209
2214.000000	99.048205
2213.000000	99.096199
2212.000000	99.125382
2211.000000	99.128097
2210.000000	99.111498
2209.000000	99.082781
2208.000000	99.045233
2207.000000	99.006785
2206.000000	98.981188
2205.000000	98.975924
2204.000000	98.984116
2203.000000	98.992117
2202.000000	98.993022
2201.000000	98.991155
2200.000000	98.995423
2199.000000	99.009331
2198.000000	99.026385
2197.000000	99.034615
2196.000000	99.026926
2195.000000	99.008120
2194.000000	98.992724
2193.000000	98.995705
2192.000000	99.021267
2191.000000	99.056644
2190.000000	99.078505
2189.000000	99.070483
2188.000000	99.036054
2187.000000	98.991713
2186.000000	98.950298
2185.000000	98.917355
2184.000000	98.899848
2183.000000	98.906717
2182.000000	98.936417
2181.000000	98.971919
2180.000000	98.995185
2179.000000	99.004091
2178.000000	99.011069
2177.000000	99.028870
2176.000000	99.059326
2175.000000	99.091639
2174.000000	99.109042
2173.000000	99.100611
2172.000000	99.069620
2171.000000	99.030485
2170.000000	98.999919
2169.000000	98.991259
2168.000000	99.008074
2167.000000	99.035012
2166.000000	99.041733
2165.000000	99.009569
2164.000000	98.956476
2163.000000	98.923176
2162.000000	98.934324
2161.000000	98.985874
2160.000000	99.065730
2159.000000	99.165667
2158.000000	99.265294
2157.000000	99.330463
2156.000000	99.345685
2155.000000	99.328312
2154.000000	99.304811
2153.000000	99.289266
2152.000000	99.283968
2151.000000	99.283694
2150.000000	99.274973
2149.000000	99.243710
2148.000000	99.193490
2147.000000	99.149323
2146.000000	99.136932
2145.000000	99.160607
2144.000000	99.202072
2143.000000	99.235464
2142.000000	99.241938
2141.000000	99.219006
2140.000000	99.182486
2139.000000	99.154474
2138.000000	99.144805
2137.000000	99.146459
2136.000000	99.147995
2135.000000	99.145805
2134.000000	99.143282
2133.000000	99.144977
2132.000000	99.154378
2131.000000	99.171378
2130.000000	99.188253
2129.000000	99.192355
2128.000000	99.176775
2127.000000	99.146341
2126.000000	99.112230
2125.000000	99.084241
2124.000000	99.068808
2123.000000	99.068207
2122.000000	99.076936
2121.000000	99.081456
2120.000000	99.069300
2119.000000	99.039859
2118.000000	99.005069
2117.000000	98.980242
2116.000000	98.973653
2115.000000	98.981997
2114.000000	98.993984
2113.000000	99.000134
2112.000000	99.001515
2111.000000	99.007687
2110.000000	99.024279
2109.000000	99.044772
2108.000000	99.056555
2107.000000	99.053947
2106.000000	99.042765
2105.000000	99.033691
2104.000000	99.033807
2103.000000	99.043431
2102.000000	99.057683
2101.000000	99.069930
2100.000000	99.075679
2099.000000	99.074972
2098.000000	99.071384
2097.000000	99.068940
2096.000000	99.070085
2095.000000	99.075054
2094.000000	99.081027
2093.000000	99.081778
2092.000000	99.071721
2091.000000	99.053724
2090.000000	99.041559
2089.000000	99.048711
2088.000000	99.071288
2087.000000	99.087263
2086.000000	99.078849
2085.000000	99.052411
2084.000000	99.029217
2083.000000	99.018194
2082.000000	99.008803
2081.000000	98.993282
2080.000000	98.983288
2079.000000	98.995942
2078.000000	99.030678
2077.000000	99.069573
2076.000000	99.095911
2075.000000	99.103297
2074.000000	99.091115
2073.000000	99.063350
2072.000000	99.032063
2071.000000	99.011685
2070.000000	99.008062
2069.000000	99.017850
2068.000000	99.035852
2067.000000	99.055699
2066.000000	99.066131
2065.000000	99.057871
2064.000000	99.036481
2063.000000	99.019475
2062.000000	99.019459
2061.000000	99.036596
2060.000000	99.063292
2059.000000	99.087641
2058.000000	99.095499
2057.000000	99.081832
2056.000000	99.061285
2055.000000	99.055738
2054.000000	99.068344
2053.000000	99.080093
2052.000000	99.074879
2051.000000	99.057264
2050.000000	99.042709
2049.000000	99.040986
2048.000000	99.053905
2047.000000	99.079854
2046.000000	99.112199
2045.000000	99.138635
2044.000000	99.150556
2043.000000	99.150159
2042.000000	99.144755
2041.000000	99.139933
2040.000000	99.140239
2039.000000	99.147865
2038.000000	99.156726
2037.000000	99.155378
2036.000000	99.141754
2035.000000	99.130256
2034.000000	99.138413
2033.000000	99.169031
2032.000000	99.206344
2031.000000	99.228581
2030.000000	99.226930
2029.000000	99.217016
2028.000000	99.227937
2027.000000	99.271306
2026.000000	99.325475
2025.000000	99.356970
2024.000000	99.353056
2023.000000	99.327004
2022.000000	99.300446
2021.000000	99.291768
2020.000000	99.308390
2019.000000	99.334383
2018.000000	99.336263
2017.000000	99.299332
2016.000000	99.250940
2015.000000	99.225971
2014.000000	99.224561
2013.000000	99.225805
2012.000000	99.225792
2011.000000	99.236569
2010.000000	99.256272
2009.000000	99.269779
2008.000000	99.278165
2007.000000	99.298352
2006.000000	99.327355
2005.000000	99.335551
2004.000000	99.304747
2003.000000	99.250308
2002.000000	99.200586
2001.000000	99.172468
2000.000000	99.166310
1999.000000	99.169527
1998.000000	99.165279
1997.000000	99.149774
1996.000000	99.139737
1995.000000	99.150643
1994.000000	99.173100
1993.000000	99.186232
1992.000000	99.191168
1991.000000	99.208239
1990.000000	99.238051
1989.000000	99.254829
1988.000000	99.243294
1987.000000	99.216378
1986.000000	99.189412
1985.000000	99.160417
1984.000000	99.126742
1983.000000	99.100223
1982.000000	99.091721
1981.000000	99.096731
1980.000000	99.110172
1979.000000	99.140970
1978.000000	99.193918
1977.000000	99.246138
1976.000000	99.264570
1975.000000	99.244045
1974.000000	99.211030
1973.000000	99.198085
1972.000000	99.221282
1971.000000	99.269253
1970.000000	99.307758
1969.000000	99.305936
1968.000000	99.267903
1967.000000	99.232123
1966.000000	99.232834
1965.000000	99.271565
1964.000000	99.327589
1963.000000	99.376409
1962.000000	99.393693
1961.000000	99.364254
1960.000000	99.299407
1959.000000	99.231726
1958.000000	99.186177
1957.000000	99.165640
1956.000000	99.163176
1955.000000	99.174871
1954.000000	99.197041
1953.000000	99.220797
1952.000000	99.235224
1951.000000	99.232508
1950.000000	99.210835
1949.000000	99.179214
1948.000000	99.157243
1947.000000	99.160108
1946.000000	99.183629
1945.000000	99.211257
1944.000000	99.232622
1943.000000	99.245676
1942.000000	99.245483
1941.000000	99.228075
1940.000000	99.204337
1939.000000	99.192847
1938.000000	99.199941
1937.000000	99.215862
1936.000000	99.229720
1935.000000	99.239183
1934.000000	99.243262
1933.000000	99.237581
1932.000000	99.222353
1931.000000	99.205478
1930.000000	99.193309
1929.000000	99.186768
1928.000000	99.188751
1927.000000	99.205116
1926.000000	99.234042
1925.000000	99.261680
1924.000000	99.273648
1923.000000	99.267552
1922.000000	99.251554
1921.000000	99.234813
1920.000000	99.222999
1919.000000	99.217360
1918.000000	99.211430
1917.000000	99.194495
1916.000000	99.167296
1915.000000	99.144670
1914.000000	99.139554
1913.000000	99.151491
1912.000000	99.169388
1911.000000	99.182264
1910.000000	99.186047
1909.000000	99.183846
1908.000000	99.182368
1907.000000	99.185140
1906.000000	99.188785
1905.000000	99.187895
1904.000000	99.183045
1903.000000	99.179215
1902.000000	99.176789
1901.000000	99.171463
1900.000000	99.163995
1899.000000	99.162117
1898.000000	99.170069
1897.000000	99.182295
1896.000000	99.191179
1895.000000	99.196819
1894.000000	99.204503
1893.000000	99.215970
1892.000000	99.227339
1891.000000	99.232076
1890.000000	99.224636
1889.000000	99.206782
1888.000000	99.189517
1887.000000	99.182440
1886.000000	99.184492
1885.000000	99.188319
1884.000000	99.190357
1883.000000	99.193160
1882.000000	99.198531
1881.000000	99.204166
1880.000000	99.207889
1879.000000	99.210259
1878.000000	99.212610
1877.000000	99.216546
1876.000000	99.224612
1875.000000	99.236615
1874.000000	99.246192
1873.000000	99.247171
1872.000000	99.242828
1871.000000	99.242147
1870.000000	99.246997
1869.000000	99.249117
1868.000000	99.244529
1867.000000	99.241750
1866.000000	99.246894
1865.000000	99.255317
1864.000000	99.260604
1863.000000	99.260825
1862.000000	99.254866
1861.000000	99.240915
1860.000000	99.222509
1859.000000	99.209091
1858.000000	99.206339
1857.000000	99.210929
1856.000000	99.217667
1855.000000	99.226027
1854.000000	99.236016
1853.000000	99.243533
1852.000000	99.244794
1851.000000	99.241024
1850.000000	99.236478
1849.000000	99.235359
1848.000000	99.240903
1847.000000	99.252510
1846.000000	99.263034
1845.000000	99.265152
1844.000000	99.260786
1843.000000	99.257419
1842.000000	99.257281
1841.000000	99.257047
1840.000000	99.254368
1839.000000	99.251075
1838.000000	99.249410
1837.000000	99.248279
1836.000000	99.246852
1835.000000	99.247479
1834.000000	99.251770
1833.000000	99.258237
1832.000000	99.265212
1831.000000	99.272065
1830.000000	99.277098
1829.000000	99.277285
1828.000000	99.272712
1827.000000	99.266055
1826.000000	99.257224
1825.000000	99.245862
1824.000000	99.237097
1823.000000	99.237449
1822.000000	99.245611
1821.000000	99.253958
1820.000000	99.258046
1819.000000	99.260984
1818.000000	99.267163
1817.000000	99.275734
1816.000000	99.283770
1815.000000	99.290970
1814.000000	99.296825
1813.000000	99.297410
1812.000000	99.289449
1811.000000	99.276256
1810.000000	99.264487
1809.000000	99.256342
1808.000000	99.250511
1807.000000	99.246633
1806.000000	99.244231
1805.000000	99.241088
1804.000000	99.236064
1803.000000	99.230369
1802.000000	99.224098
1801.000000	99.215730
1800.000000	99.206769
1799.000000	99.202311
1798.000000	99.204430
1797.000000	99.210060
1796.000000	99.215457
1795.000000	99.218265
1794.000000	99.216522
1793.000000	99.211968
1792.000000	99.211803
1791.000000	99.220694
1790.000000	99.234236
1789.000000	99.244711
1788.000000	99.248670
1787.000000	99.248967
1786.000000	99.250291
1785.000000	99.253111
1784.000000	99.254665
1783.000000	99.254232
1782.000000	99.253498
1781.000000	99.255607
1780.000000	99.263405
1779.000000	99.275844
1778.000000	99.288868
1777.000000	99.301720
1776.000000	99.318125
1775.000000	99.338241
1774.000000	99.353664
1773.000000	99.356753
1772.000000	99.351135
1771.000000	99.344682
1770.000000	99.338898
1769.000000	99.330408
1768.000000	99.319055
1767.000000	99.311196
1766.000000	99.311678
1765.000000	99.317941
1764.000000	99.323273
1763.000000	99.323452
1762.000000	99.318985
1761.000000	99.312799
1760.000000	99.308636
1759.000000	99.308701
1758.000000	99.310194
1757.000000	99.310652
1756.000000	99.313562
1755.000000	99.323043
1754.000000	99.335704
1753.000000	99.341690
1752.000000	99.337074
1751.000000	99.329574
1750.000000	99.325718
1749.000000	99.322605
1748.000000	99.318778
1747.000000	99.317298
1746.000000	99.318405
1745.000000	99.320344
1744.000000	99.324533
1743.000000	99.333201
1742.000000	99.341439
1741.000000	99.340184
1740.000000	99.331331
1739.000000	99.329822
1738.000000	99.343832
1737.000000	99.365335
1736.000000	99.376907
1735.000000	99.374144
1734.000000	99.371376
1733.000000	99.363381
1732.000000	99.341509
1731.000000	99.322827
1730.000000	99.319369
1729.000000	99.326160
1728.000000	99.334528
1727.000000	99.341614
1726.000000	99.346665
1725.000000	99.346438
1724.000000	99.339905
1723.000000	99.334520
1722.000000	99.339721
1721.000000	99.357151
1720.000000	99.380114
1719.000000	99.398946
1718.000000	99.403891
1717.000000	99.383304
1716.000000	99.335872
1715.000000	99.284670
1714.000000	99.248394
1713.000000	99.223090
1712.000000	99.199819
1711.000000	99.179307
1710.000000	99.164548
1709.000000	99.149940
1708.000000	99.125483
1707.000000	99.085374
1706.000000	99.036402
1705.000000	98.988839
1704.000000	98.963469
1703.000000	98.940582
1702.000000	98.919644
1701.000000	98.709667
1700.000000	98.606402
1699.000000	98.548252
1698.000000	98.488312
1697.000000	98.431656
1696.000000	98.360915
1695.000000	98.293529
1694.000000	98.232801
1693.000000	98.172385
1692.000000	98.106225
1691.000000	98.037991
1690.000000	97.967897
1689.000000	97.899071
1688.000000	97.817505
1687.000000	97.745669
1686.000000	97.641299
1685.000000	97.719045
1684.000000	97.589500
1683.000000	97.431476
1682.000000	97.331710
1681.000000	97.230129
1680.000000	97.130377
1679.000000	97.031092
1678.000000	96.939159
1677.000000	96.831369
1676.000000	96.690071
1675.000000	96.535366
1674.000000	96.403581
1673.000000	96.295389
1672.000000	96.184219
1671.000000	96.046654
1670.000000	95.878521
1669.000000	95.701544
1668.000000	95.545192
1667.000000	95.420851
1666.000000	95.316295
1665.000000	95.206144
1664.000000	95.072121
1663.000000	94.923780
1662.000000	94.787965
1661.000000	94.672678
1660.000000	94.569594
1659.000000	94.478797
1658.000000	94.411104
1657.000000	94.376087
1656.000000	94.369026
1655.000000	94.362765
1654.000000	94.322288
1653.000000	94.247951
1652.000000	94.157030
1651.000000	94.070878
1650.000000	94.015130
1649.000000	93.983889
1648.000000	93.952969
1647.000000	93.922666
1646.000000	93.906824
1645.000000	93.886446
1644.000000	93.848833
1643.000000	93.808070
1642.000000	93.775913
1641.000000	93.753535
1640.000000	93.741098
1639.000000	93.741096
1638.000000	93.746828
1637.000000	93.736865
1636.000000	93.699482
1635.000000	93.653659
1634.000000	93.616378
1633.000000	93.589995
1632.000000	93.575443
1631.000000	93.573915
1630.000000	93.586443
1629.000000	93.612738
1628.000000	93.651564
1627.000000	93.701604
1626.000000	93.761361
1625.000000	93.833650
1624.000000	93.929009
1623.000000	94.052377
1622.000000	94.183514
1621.000000	94.302082
1620.000000	94.414997
1619.000000	94.535154
1618.000000	94.667491
1617.000000	94.813088
1616.000000	94.955843
1615.000000	95.071093
1614.000000	95.164086
1613.000000	95.255585
1612.000000	95.357199
1611.000000	95.470027
1610.000000	95.586718
1609.000000	95.699128
1608.000000	95.805289
1607.000000	95.905717
1606.000000	95.998600
1605.000000	96.084516
1604.000000	96.167229
1603.000000	96.246544
1602.000000	96.317954
1601.000000	96.380859
1600.000000	96.439337
1599.000000	96.494186
1598.000000	96.542480
1597.000000	96.585167
1596.000000	96.626502
1595.000000	96.664692
1594.000000	96.692278
1593.000000	96.708074
1592.000000	96.719120
1591.000000	96.728830
1590.000000	96.732290
1589.000000	96.725645
1588.000000	96.710859
1587.000000	96.688397
1586.000000	96.654239
1585.000000	96.608043
1584.000000	96.555421
1583.000000	96.502672
1582.000000	96.442055
1581.000000	96.388457
1580.000000	96.335427
1579.000000	96.324781
1578.000000	96.153480
1577.000000	96.039545
1576.000000	95.974088
1575.000000	95.901702
1574.000000	95.840744
1573.000000	95.770046
1572.000000	95.698589
1571.000000	95.623276
1570.000000	95.545914
1569.000000	95.469270
1568.000000	95.396659
1567.000000	95.322628
1566.000000	95.240304
1565.000000	95.143121
1564.000000	95.050940
1563.000000	94.952476
1562.000000	94.885169
1561.000000	94.763391
1560.000000	94.895666
1559.000000	94.794647
1558.000000	94.601607
1557.000000	94.500307
1556.000000	94.406601
1555.000000	94.333671
1554.000000	94.256741
1553.000000	94.185810
1552.000000	94.118632
1551.000000	94.056854
1550.000000	94.002704
1549.000000	93.959065
1548.000000	93.923525
1547.000000	93.890093
1546.000000	93.856465
1545.000000	93.826492
1544.000000	93.807071
1543.000000	93.801549
1542.000000	93.803443
1541.000000	93.799797
1540.000000	93.795958
1539.000000	93.801569
1538.000000	93.801636
1537.000000	93.800319
1536.000000	93.814708
1535.000000	93.855047
1534.000000	93.933110
1533.000000	94.040385
1532.000000	94.138777
1531.000000	94.212868
1530.000000	94.277171
1529.000000	94.344658
1528.000000	94.418790
1527.000000	94.498204
1526.000000	94.578177
1525.000000	94.650861
1524.000000	94.713656
1523.000000	94.772220
1522.000000	94.836538
1521.000000	94.902230
1520.000000	94.945442
1519.000000	94.968203
1518.000000	94.993613
1517.000000	95.032705
1516.000000	95.080547
1515.000000	95.125236
1514.000000	95.162397
1513.000000	95.194754
1512.000000	95.228517
1511.000000	95.271462
1510.000000	95.327441
1509.000000	95.391217
1508.000000	95.455701
1507.000000	95.528883
1506.000000	95.598438
1505.000000	95.615318
1504.000000	95.594245
1503.000000	95.578107
1502.000000	95.580390
1501.000000	95.596475
1500.000000	95.620692
1499.000000	95.652165
1498.000000	95.685133
1497.000000	95.708131
1496.000000	95.716442
1495.000000	95.717139
1494.000000	95.716076
1493.000000	95.711205
1492.000000	95.701401
1491.000000	95.696249
1490.000000	95.703678
1489.000000	95.711581
1488.000000	95.706374
1487.000000	95.694064
1486.000000	95.680268
1485.000000	95.657669
1484.000000	95.621445
1483.000000	95.576756
1482.000000	95.529995
1481.000000	95.480606
1480.000000	95.425781
1479.000000	95.366632
1478.000000	95.304934
1477.000000	95.240509
1476.000000	95.174921
1475.000000	95.110367
1474.000000	95.040550
1473.000000	94.956540
1472.000000	94.864947
1471.000000	94.778659
1470.000000	94.698716
1469.000000	94.621111
1468.000000	94.546318
1467.000000	94.477345
1466.000000	94.412505
1465.000000	94.346804
1464.000000	94.280580
1463.000000	94.217630
1462.000000	94.159204
1461.000000	94.105697
1460.000000	94.057563
1459.000000	94.008566
1458.000000	93.946447
1457.000000	93.873078
1456.000000	93.799374
1455.000000	93.726229
1454.000000	93.656092
1453.000000	93.594407
1452.000000	93.545911
1451.000000	93.512336
1450.000000	93.488254
1449.000000	93.469680
1448.000000	93.462224
1447.000000	93.468856
1446.000000	93.477481
1445.000000	93.477704
1444.000000	93.474236
1443.000000	93.477118
1442.000000	93.487892
1441.000000	93.498885
1440.000000	93.502875
1439.000000	93.498953
1438.000000	93.497232
1437.000000	93.519342
1436.000000	93.565392
1435.000000	93.600619
1434.000000	93.607636
1433.000000	93.599923
1432.000000	93.595115
1431.000000	93.601323
1430.000000	93.612764
1429.000000	93.618663
1428.000000	93.614627
1427.000000	93.602157
1426.000000	93.584300
1425.000000	93.568312
1424.000000	93.563336
1423.000000	93.566165
1422.000000	93.561662
1421.000000	93.541669
1420.000000	93.521093
1419.000000	93.524309
1418.000000	93.545160
1417.000000	93.559320
1416.000000	93.563520
1415.000000	93.563727
1414.000000	93.560474
1413.000000	93.556367
1412.000000	93.560171
1411.000000	93.576685
1410.000000	93.597702
1409.000000	93.612233
1408.000000	93.620405
1407.000000	93.630900
1406.000000	93.649826
1405.000000	93.677596
1404.000000	93.709992
1403.000000	93.738095
1402.000000	93.755565
1401.000000	93.767700
1400.000000	93.790127
1399.000000	93.830195
1398.000000	93.873991
1397.000000	93.908871
1396.000000	93.944478
1395.000000	93.996388
1394.000000	94.059578
1393.000000	94.116237
1392.000000	94.161704
1391.000000	94.201946
1390.000000	94.240573
1389.000000	94.282038
1388.000000	94.336816
1387.000000	94.407736
1386.000000	94.477598
1385.000000	94.530981
1384.000000	94.572917
1383.000000	94.615022
1382.000000	94.659977
1381.000000	94.704228
1380.000000	94.748930
1379.000000	94.798502
1378.000000	94.850898
1377.000000	94.900634
1376.000000	94.950556
1375.000000	95.011088
1374.000000	95.084143
1373.000000	95.156513
1372.000000	95.216950
1371.000000	95.269281
1370.000000	95.324943
1369.000000	95.391960
1368.000000	95.468290
1367.000000	95.542970
1366.000000	95.607281
1365.000000	95.663915
1364.000000	95.724222
1363.000000	95.796174
1362.000000	95.874117
1361.000000	95.944978
1360.000000	96.002534
1359.000000	96.048262
1358.000000	96.085102
1357.000000	96.115912
1356.000000	96.142850
1355.000000	96.165319
1354.000000	96.180760
1353.000000	96.188485
1352.000000	96.190364
1351.000000	96.186846
1350.000000	96.175459
1349.000000	96.155004
1348.000000	96.128425
1347.000000	96.100604
1346.000000	96.075358
1345.000000	96.054662
1344.000000	96.037457
1343.000000	96.018757
1342.000000	95.993527
1341.000000	95.962983
1340.000000	95.935511
1339.000000	95.918889
1338.000000	95.913259
1337.000000	95.915758
1336.000000	95.927293
1335.000000	95.949639
1334.000000	95.980451
1333.000000	96.015609
1332.000000	96.054175
1331.000000	96.097665
1330.000000	96.145573
1329.000000	96.194343
1328.000000	96.240184
1327.000000	96.280572
1326.000000	96.313874
1325.000000	96.339825
1324.000000	96.359794
1323.000000	96.375253
1322.000000	96.386689
1321.000000	96.394489
1320.000000	96.400144
1319.000000	96.406279
1318.000000	96.415865
1317.000000	96.431227
1316.000000	96.452902
1315.000000	96.479241
1314.000000	96.507994
1313.000000	96.538753
1312.000000	96.572743
1311.000000	96.609926
1310.000000	96.647728
1309.000000	96.682786
1308.000000	96.712877
1307.000000	96.737558
1306.000000	96.758250
1305.000000	96.777532
1304.000000	96.796975
1303.000000	96.815569
1302.000000	96.831469
1301.000000	96.845092
1300.000000	96.859113
1299.000000	96.875554
1298.000000	96.893775
1297.000000	96.910845
1296.000000	96.922715
1295.000000	96.925604
1294.000000	96.918214
1293.000000	96.902235
1292.000000	96.879816
1291.000000	96.851528
1290.000000	96.817917
1289.000000	96.782340
1288.000000	96.749985
1287.000000	96.723890
1286.000000	96.703460
1285.000000	96.687257
1284.000000	96.675384
1283.000000	96.668181
1282.000000	96.664012
1281.000000	96.659732
1280.000000	96.653704
1279.000000	96.647954
1278.000000	96.647497
1277.000000	96.656944
1276.000000	96.676244
1275.000000	96.699870
1274.000000	96.721171
1273.000000	96.737667
1272.000000	96.751265
1271.000000	96.763816
1270.000000	96.774270
1269.000000	96.780206
1268.000000	96.780134
1267.000000	96.773936
1266.000000	96.763206
1265.000000	96.751322
1264.000000	96.741284
1263.000000	96.732503
1262.000000	96.720570
1261.000000	96.701383
1260.000000	96.674842
1259.000000	96.644446
1258.000000	96.614121
1257.000000	96.585124
1256.000000	96.554950
1255.000000	96.518725
1254.000000	96.473346
1253.000000	96.421302
1252.000000	96.369068
1251.000000	96.320963
1250.000000	96.275063
1249.000000	96.225610
1248.000000	96.168677
1247.000000	96.104892
1246.000000	96.038359
1245.000000	95.974327
1244.000000	95.916615
1243.000000	95.865198
1242.000000	95.816828
1241.000000	95.769419
1240.000000	95.725092
1239.000000	95.687713
1238.000000	95.658622
1237.000000	95.637591
1236.000000	95.626160
1235.000000	95.626817
1234.000000	95.639926
1233.000000	95.664114
1232.000000	95.700074
1231.000000	95.750161
1230.000000	95.814300
1229.000000	95.889553
1228.000000	95.972764
1227.000000	96.061613
1226.000000	96.153365
1225.000000	96.245451
1224.000000	96.337240
1223.000000	96.428528
1222.000000	96.516744
1221.000000	96.597794
1220.000000	96.669657
1219.000000	96.733088
1218.000000	96.788985
1217.000000	96.836104
1216.000000	96.871947
1215.000000	96.895624
1214.000000	96.908829
1213.000000	96.914505
1212.000000	96.913935
1211.000000	96.905338
1210.000000	96.886128
1209.000000	96.856026
1208.000000	96.818299
1207.000000	96.778122
1206.000000	96.740406
1205.000000	96.708991
1204.000000	96.686774
1203.000000	96.675571
1202.000000	96.676262
1201.000000	96.689848
1200.000000	96.717036
1199.000000	96.756232
1198.000000	96.802640
1197.000000	96.851286
1196.000000	96.900777
1195.000000	96.952512
1194.000000	97.007419
1193.000000	97.064491
1192.000000	97.121779
1191.000000	97.177375
1190.000000	97.229783
1189.000000	97.278457
1188.000000	97.323652
1187.000000	97.364848
1186.000000	97.399564
1185.000000	97.425268
1184.000000	97.442526
1183.000000	97.455765
1182.000000	97.470436
1181.000000	97.488863
1180.000000	97.509126
1179.000000	97.527667
1178.000000	97.542559
1177.000000	97.554257
1176.000000	97.563958
1175.000000	97.572395
1174.000000	97.579678
1173.000000	97.585248
1172.000000	97.588215
1171.000000	97.588623
1170.000000	97.588342
1169.000000	97.589375
1168.000000	97.591139
1167.000000	97.590789
1166.000000	97.586694
1165.000000	97.580487
1164.000000	97.575158
1163.000000	97.572442
1162.000000	97.572906
1161.000000	97.577599
1160.000000	97.588123
1159.000000	97.605067
1158.000000	97.626995
1157.000000	97.650804
1156.000000	97.673415
1155.000000	97.694018
1154.000000	97.714965
1153.000000	97.739312
1152.000000	97.766920
1151.000000	97.794529
1150.000000	97.820354
1149.000000	97.846602
1148.000000	97.875745
1147.000000	97.905949
1146.000000	97.932505
1145.000000	97.953147
1144.000000	97.970072
1143.000000	97.986944
1142.000000	98.005391
1141.000000	98.024124
1140.000000	98.040465
1139.000000	98.052914
1138.000000	98.062595
1137.000000	98.071845
1136.000000	98.081366
1135.000000	98.090105
1134.000000	98.097855
1133.000000	98.105661
1132.000000	98.113041
1131.000000	98.117081
1130.000000	98.115880
1129.000000	98.111272
1128.000000	98.106763
1127.000000	98.104598
1126.000000	98.105986
1125.000000	98.111762
1124.000000	98.120711
1123.000000	98.128832
1122.000000	98.132626
1121.000000	98.132240
1120.000000	98.129663
1119.000000	98.125342
1118.000000	98.118245
1117.000000	98.107790
1116.000000	98.093860
1115.000000	98.076549
1114.000000	98.058174
1113.000000	98.043801
1112.000000	98.036860
1111.000000	98.034865
1110.000000	98.031802
1109.000000	98.024266
1108.000000	98.013249
1107.000000	98.001093
1106.000000	97.989832
1105.000000	97.982148
1104.000000	97.980329
1103.000000	97.982721
1102.000000	97.983016
1101.000000	97.974976
1100.000000	97.957454
1099.000000	97.934753
1098.000000	97.912362
1097.000000	97.892046
1096.000000	97.871522
1095.000000	97.849423
1094.000000	97.829754
1093.000000	97.818113
1092.000000	97.812276
1091.000000	97.800047
1090.000000	97.769477
1089.000000	97.719986
1088.000000	97.660543
1087.000000	97.599395
1086.000000	97.539930
1085.000000	97.485058
1084.000000	97.439758
1083.000000	97.406617
1082.000000	97.382597
1081.000000	97.363404
1080.000000	97.350252
1079.000000	97.349482
1078.000000	97.365875
1077.000000	97.398195
1076.000000	97.439832
1075.000000	97.482759
1074.000000	97.521628
1073.000000	97.554957
1072.000000	97.582260
1071.000000	97.601191
1070.000000	97.609728
1069.000000	97.610045
1068.000000	97.606772
1067.000000	97.601247
1066.000000	97.591554
1065.000000	97.579122
1064.000000	97.570966
1063.000000	97.572226
1062.000000	97.579032
1061.000000	97.582666
1060.000000	97.580241
1059.000000	97.578063
1058.000000	97.583949
1057.000000	97.598410
1056.000000	97.614085
1055.000000	97.623241
1054.000000	97.625539
1053.000000	97.628459
1052.000000	97.639926
1051.000000	97.660479
1050.000000	97.683395
1049.000000	97.701721
1048.000000	97.713181
1047.000000	97.718565
1046.000000	97.718627
1045.000000	97.713851
1044.000000	97.705217
1043.000000	97.694051
1042.000000	97.681539
1041.000000	97.668735
1040.000000	97.655772
1039.000000	97.640579
1038.000000	97.620006
1037.000000	97.592738
1036.000000	97.560310
1035.000000	97.525364
1034.000000	97.490765
1033.000000	97.460818
1032.000000	97.441509
1031.000000	97.437805
1030.000000	97.450621
1029.000000	97.476663
1028.000000	97.509632
1027.000000	97.542283
1026.000000	97.570478
1025.000000	97.596393
1024.000000	97.625976
1023.000000	97.661869
1022.000000	97.700895
1021.000000	97.739098
1020.000000	97.775772
1019.000000	97.810478
1018.000000	97.838975
1017.000000	97.855575
1016.000000	97.859075
1015.000000	97.855083
1014.000000	97.853285
1013.000000	97.862783
1012.000000	97.887565
1011.000000	97.923837
1010.000000	97.962236
1009.000000	97.994778
1008.000000	98.019988
1007.000000	98.041070
1006.000000	98.061016
1005.000000	98.080987
1004.000000	98.102317
1003.000000	98.127738
1002.000000	98.159815
1001.000000	98.198790
1000.000000	98.241844
999.000000	98.284379
998.000000	98.322758
997.000000	98.356354
996.000000	98.386892
995.000000	98.416096
994.000000	98.444364
993.000000	98.471163
992.000000	98.495821
991.000000	98.518205
990.000000	98.539604
989.000000	98.562418
988.000000	98.588240
987.000000	98.616923
986.000000	98.647645
985.000000	98.679000
984.000000	98.706502
983.000000	98.722717
982.000000	98.723543
981.000000	98.713221
980.000000	98.700054
979.000000	98.687667
978.000000	98.673747
977.000000	98.656857
976.000000	98.640514
975.000000	98.629862
974.000000	98.627368
973.000000	98.632776
972.000000	98.643996
971.000000	98.656864
970.000000	98.667466
969.000000	98.676845
968.000000	98.690808
967.000000	98.712748
966.000000	98.739012
965.000000	98.763640
964.000000	98.785187
963.000000	98.805837
962.000000	98.825782
961.000000	98.842186
960.000000	98.853504
959.000000	98.862035
958.000000	98.871751
957.000000	98.885218
956.000000	98.902499
955.000000	98.921592
954.000000	98.939710
953.000000	98.955082
952.000000	98.967463
951.000000	98.976481
950.000000	98.980807
949.000000	98.980455
948.000000	98.978986
947.000000	98.981225
946.000000	98.987978
945.000000	98.994207
944.000000	98.993314
943.000000	98.983213
942.000000	98.968583
941.000000	98.957193
940.000000	98.953776
939.000000	98.957095
938.000000	98.962987
937.000000	98.970336
936.000000	98.982837
935.000000	99.003969
934.000000	99.031075
933.000000	99.056043
932.000000	99.072184
931.000000	99.079476
930.000000	99.082918
929.000000	99.086908
928.000000	99.091985
927.000000	99.096813
926.000000	99.102086
925.000000	99.111002
924.000000	99.125458
923.000000	99.142365
922.000000	99.155112
921.000000	99.159492
920.000000	99.158189
919.000000	99.159446
918.000000	99.170664
917.000000	99.192125
916.000000	99.216296
915.000000	99.233549
914.000000	99.239858
913.000000	99.239384
912.000000	99.239430
911.000000	99.243876
910.000000	99.251669
909.000000	99.260074
908.000000	99.267483
907.000000	99.273371
906.000000	99.277757
905.000000	99.281414
904.000000	99.285284
903.000000	99.289241
902.000000	99.292624
901.000000	99.296568
900.000000	99.304377
899.000000	99.318306
898.000000	99.336536
897.000000	99.354361
896.000000	99.368088
895.000000	99.376798
894.000000	99.380478
893.000000	99.378417
892.000000	99.371170
891.000000	99.363479
890.000000	99.361878
889.000000	99.366570
888.000000	99.367019
887.000000	99.347914
886.000000	99.300584
885.000000	99.227390
884.000000	99.135748
883.000000	99.030678
882.000000	98.910522
881.000000	98.765464
880.000000	98.579900
879.000000	98.343270
878.000000	98.061855
877.000000	97.755836
876.000000	97.444124
875.000000	97.141822
874.000000	96.882024
873.000000	96.730700
872.000000	96.760851
871.000000	96.994142
870.000000	97.369564
869.000000	97.779842
868.000000	98.137247
867.000000	98.407994
866.000000	98.599643
865.000000	98.733482
864.000000	98.830013
863.000000	98.905992
862.000000	98.971494
861.000000	99.027578
860.000000	99.070257
859.000000	99.097876
858.000000	99.114850
857.000000	99.127549
856.000000	99.137735
855.000000	99.142121
854.000000	99.138748
853.000000	99.131855
852.000000	99.127629
851.000000	99.126475
850.000000	99.124027
849.000000	99.120511
848.000000	99.124391
847.000000	99.143325
846.000000	99.174518
845.000000	99.207861
844.000000	99.236305
843.000000	99.259206
842.000000	99.277440
841.000000	99.290447
840.000000	99.298367
839.000000	99.302855
838.000000	99.304967
837.000000	99.305397
836.000000	99.307450
835.000000	99.316036
834.000000	99.331647
833.000000	99.348182
832.000000	99.359203
831.000000	99.364492
830.000000	99.368249
829.000000	99.372310
828.000000	99.374019
827.000000	99.370992
826.000000	99.365496
825.000000	99.362548
824.000000	99.364363
823.000000	99.367704
822.000000	99.367034
821.000000	99.360267
820.000000	99.351059
819.000000	99.345099
818.000000	99.344274
817.000000	99.344919
816.000000	99.341930
815.000000	99.334450
814.000000	99.327578
813.000000	99.328232
812.000000	99.338741
811.000000	99.354064
810.000000	99.365617
809.000000	99.368497
808.000000	99.364916
807.000000	99.360488
806.000000	99.358387
805.000000	99.357993
804.000000	99.357950
803.000000	99.358291
802.000000	99.359103
801.000000	99.358681
800.000000	99.354053
799.000000	99.343215
798.000000	99.327254
797.000000	99.310900
796.000000	99.300175
795.000000	99.297985
794.000000	99.301223
793.000000	99.302694
792.000000	99.296739
791.000000	99.283920
790.000000	99.271559
789.000000	99.269183
788.000000	99.280638
787.000000	99.298749
786.000000	99.309384
785.000000	99.303677
784.000000	99.285696
783.000000	99.266420
782.000000	99.251913
781.000000	99.240641
780.000000	99.231147
779.000000	99.226653
778.000000	99.229462
777.000000	99.234738
776.000000	99.234709
775.000000	99.228600
774.000000	99.224379
773.000000	99.229152
772.000000	99.240235
771.000000	99.248030
770.000000	99.246543
769.000000	99.238188
768.000000	99.228091
767.000000	99.217538
766.000000	99.205810
765.000000	99.195752
764.000000	99.192705
763.000000	99.197727
762.000000	99.205904
761.000000	99.212296
760.000000	99.215932
759.000000	99.216860
758.000000	99.213938
757.000000	99.208372
756.000000	99.204970
755.000000	99.205502
754.000000	99.203740
753.000000	99.192409
752.000000	99.173843
751.000000	99.158598
750.000000	99.153414
749.000000	99.154456
748.000000	99.153007
747.000000	99.144242
746.000000	99.129767
745.000000	99.114979
744.000000	99.105329
743.000000	99.102879
742.000000	99.104762
741.000000	99.105480
740.000000	99.101052
739.000000	99.090634
738.000000	99.074832
737.000000	99.053969
736.000000	99.027989
735.000000	98.997512
734.000000	98.965721
733.000000	98.938545
732.000000	98.919606
731.000000	98.904047
730.000000	98.881661
729.000000	98.849465
728.000000	98.818026
727.000000	98.799914
726.000000	98.792659
725.000000	98.779335
724.000000	98.746708
723.000000	98.697454
722.000000	98.644158
721.000000	98.597505
720.000000	98.561878
719.000000	98.534880
718.000000	98.505328
717.000000	98.454344
716.000000	98.366040
715.000000	98.244610
714.000000	98.122192
713.000000	98.043603
712.000000	98.035113
711.000000	98.084630
710.000000	98.154447
709.000000	98.213262
708.000000	98.253796
707.000000	98.282247
706.000000	98.299404
705.000000	98.300259
704.000000	98.287417
703.000000	98.273351
702.000000	98.267984
701.000000	98.269641
700.000000	98.269191
699.000000	98.259795
698.000000	98.241289
697.000000	98.219252
696.000000	98.202108
695.000000	98.196196
694.000000	98.203311
693.000000	98.221093
692.000000	98.242350
691.000000	98.255659
690.000000	98.250598
689.000000	98.227036
688.000000	98.197158
687.000000	98.172898
686.000000	98.155251
685.000000	98.138224
684.000000	98.117715
683.000000	98.093907
682.000000	98.068635
681.000000	98.044850
680.000000	98.024968
679.000000	98.007116
678.000000	97.985361
677.000000	97.954904
676.000000	97.918833
675.000000	97.886805
674.000000	97.866787
673.000000	97.862418
672.000000	97.873304
671.000000	97.899237
670.000000	97.936698
669.000000	97.979512
668.000000	98.001702
667.000000	97.971550
666.000000	97.912034
665.000000	97.854369
664.000000	97.807759
663.000000	97.776572
662.000000	97.754703
661.000000	97.736735
660.000000	97.726576
659.000000	97.729176
658.000000	97.734861
657.000000	97.727404
656.000000	97.707401
655.000000	97.689227
654.000000	97.675160
653.000000	97.652935
652.000000	97.619763
651.000000	97.588646
650.000000	97.569968
649.000000	97.563755
648.000000	97.570499
647.000000	97.590162
646.000000	97.610607
645.000000	97.618182
644.000000	97.617436
643.000000	97.622057
642.000000	97.632213
641.000000	97.639091
640.000000	97.646377
639.000000	97.664198
638.000000	97.684645
637.000000	97.688791
636.000000	97.677135
635.000000	97.667066
634.000000	97.660834
633.000000	97.644561
632.000000	97.620396
631.000000	97.610730
630.000000	97.621997
629.000000	97.629840
628.000000	97.611572
627.000000	97.573144
626.000000	97.535880
625.000000	97.514479
624.000000	97.514609
623.000000	97.533305
622.000000	97.554047
621.000000	97.559273
620.000000	97.553958
619.000000	97.560145
618.000000	97.584648
617.000000	97.609444
616.000000	97.618316
615.000000	97.613969
614.000000	97.604906
613.000000	97.595683
612.000000	97.593236
611.000000	97.601335
610.000000	97.606020
609.000000	97.588709
608.000000	97.555733
607.000000	97.532154
606.000000	97.524895
605.000000	97.518986
604.000000	97.510406
603.000000	97.511397
602.000000	97.520225
601.000000	97.519322
600.000000	97.510348
599.000000	97.517279
598.000000	97.544642
597.000000	97.567230
596.000000	97.572737
595.000000	97.578821
594.000000	97.595945
593.000000	97.607854
592.000000	97.607903
591.000000	97.620705
590.000000	97.661453
589.000000	97.705585
588.000000	97.724406
587.000000	97.721354
586.000000	97.711524
585.000000	97.691761
584.000000	97.655155
583.000000	97.615683
582.000000	97.592789
581.000000	97.586360
580.000000	97.586561
579.000000	97.591302
578.000000	97.596048
577.000000	97.586266
576.000000	97.559235
575.000000	97.533686
574.000000	97.518409
573.000000	97.495041
572.000000	97.450503
571.000000	97.401073
570.000000	97.368130
569.000000	97.351789
568.000000	97.346300
567.000000	97.352712
566.000000	97.355813
565.000000	97.324618
564.000000	97.261358
563.000000	97.217110
562.000000	97.229606
561.000000	97.274439
560.000000	97.308130
559.000000	97.327179
558.000000	97.348269
557.000000	97.361520
556.000000	97.344682
555.000000	97.304299
554.000000	97.264107
553.000000	97.229117
552.000000	97.198479
551.000000	97.195351
550.000000	97.241726
549.000000	97.314648
548.000000	97.367985
547.000000	97.387276
546.000000	97.391335
545.000000	97.392164
544.000000	97.388228
543.000000	97.387689
542.000000	97.402468
541.000000	97.423707
540.000000	97.430464
539.000000	97.417722
538.000000	97.393856
537.000000	97.361166
536.000000	97.322890
535.000000	97.298079
534.000000	97.302089
533.000000	97.320973
532.000000	97.329276
531.000000	97.323132
530.000000	97.314626
529.000000	97.303559
528.000000	97.275844
527.000000	97.225532
526.000000	97.166806
525.000000	97.128299
524.000000	97.138035
523.000000	97.201626
522.000000	97.287619
521.000000	97.350618
520.000000	97.380559
519.000000	97.410097
518.000000	97.460026
517.000000	97.511408
516.000000	97.555342
515.000000	97.617261
514.000000	97.702158
513.000000	97.768460
512.000000	97.787927
511.000000	97.791430
510.000000	97.818433
509.000000	97.855041
508.000000	97.867373
507.000000	97.867918
506.000000	97.891891
505.000000	97.928317
504.000000	97.934669
503.000000	97.907378
502.000000	97.892203
501.000000	97.920294
500.000000	97.974207
499.000000	98.025101
498.000000	98.058265
497.000000	98.065591
496.000000	98.051146
495.000000	98.040008
494.000000	98.056054
493.000000	98.092858
492.000000	98.125160
491.000000	98.143550
490.000000	98.159259
489.000000	98.185443
488.000000	98.227617
487.000000	98.273953
486.000000	98.285978
485.000000	98.232836
484.000000	98.156625
483.000000	98.153066
482.000000	98.248881
481.000000	98.352686
480.000000	98.361530
479.000000	98.271689
478.000000	98.161297
477.000000	98.102033
476.000000	98.119224
475.000000	98.206713
474.000000	98.328336
473.000000	98.416493
472.000000	98.433641
471.000000	98.426807
470.000000	98.453235
469.000000	98.499852
468.000000	98.524640
467.000000	98.521501
466.000000	98.509040
465.000000	98.488970
464.000000	98.463520
463.000000	98.460873
462.000000	98.491200
461.000000	98.513450
460.000000	98.500400
459.000000	98.505282
458.000000	98.606650
457.000000	98.784277
456.000000	98.946811
455.000000	99.067358
454.000000	99.173200
453.000000	99.265537
452.000000	99.323101
451.000000	99.355946
450.000000	99.384352
