PE IR       SUBTECH     SPECTRUM    ASCII       PEDS        4.00        
   -1
AG10-F014_1.ASC
23/09/08
10:45:09.00
23/09/08
11:14:38.00
uco
Sample 014 By uco Date Friday, September 08 2023
450.000000
#HDR
-1
-1
#GR
cm-1
%T
1.0
0.0
4000.000000
-1.000000
3551
8
99.793376
89.797595
#DATA
4000.000000	99.686251
3999.000000	99.687316
3998.000000	99.689723
3997.000000	99.697841
3996.000000	99.698834
3995.000000	99.697281
3994.000000	99.694904
3993.000000	99.693259
3992.000000	99.692379
3991.000000	99.691270
3990.000000	99.689321
3989.000000	99.686965
3988.000000	99.684967
3987.000000	99.683486
3986.000000	99.682053
3985.000000	99.680306
3984.000000	99.678504
3983.000000	99.677233
3982.000000	99.676874
3981.000000	99.677465
3980.000000	99.678950
3979.000000	99.681338
3978.000000	99.684495
3977.000000	99.687841
3976.000000	99.690396
3975.000000	99.691193
3974.000000	99.689743
3973.000000	99.686315
3972.000000	99.681869
3971.000000	99.677851
3970.000000	99.675591
3969.000000	99.675665
3968.000000	99.677576
3967.000000	99.680067
3966.000000	99.682015
3965.000000	99.682900
3964.000000	99.682647
3963.000000	99.681347
3962.000000	99.679347
3961.000000	99.677490
3960.000000	99.676730
3959.000000	99.677428
3958.000000	99.678834
3957.000000	99.679372
3956.000000	99.677680
3955.000000	99.673619
3954.000000	99.668711
3953.000000	99.665227
3952.000000	99.664465
3951.000000	99.665684
3950.000000	99.666637
3949.000000	99.665704
3948.000000	99.663598
3947.000000	99.662852
3946.000000	99.665699
3945.000000	99.671794
3944.000000	99.677916
3943.000000	99.680617
3942.000000	99.679061
3941.000000	99.675023
3940.000000	99.670559
3939.000000	99.666626
3938.000000	99.663545
3937.000000	99.662200
3936.000000	99.663704
3935.000000	99.667436
3934.000000	99.670485
3933.000000	99.669850
3932.000000	99.665381
3931.000000	99.659713
3930.000000	99.655361
3929.000000	99.653446
3928.000000	99.654293
3927.000000	99.657272
3926.000000	99.660575
3925.000000	99.662636
3924.000000	99.663690
3923.000000	99.664580
3922.000000	99.664907
3921.000000	99.663330
3920.000000	99.659557
3919.000000	99.655435
3918.000000	99.653418
3917.000000	99.653751
3916.000000	99.653873
3915.000000	99.651338
3914.000000	99.646085
3913.000000	99.640519
3912.000000	99.637616
3911.000000	99.639313
3910.000000	99.645228
3909.000000	99.653398
3908.000000	99.661792
3907.000000	99.668348
3906.000000	99.670366
3905.000000	99.665661
3904.000000	99.656110
3903.000000	99.647465
3902.000000	99.643759
3901.000000	99.644116
3900.000000	99.645265
3899.000000	99.645023
3898.000000	99.643208
3897.000000	99.640500
3896.000000	99.637377
3895.000000	99.634703
3894.000000	99.633224
3893.000000	99.633261
3892.000000	99.634744
3891.000000	99.637640
3890.000000	99.640967
3889.000000	99.644272
3888.000000	99.647464
3887.000000	99.648305
3886.000000	99.645921
3885.000000	99.645025
3884.000000	99.650239
3883.000000	99.660147
3882.000000	99.668428
3881.000000	99.669326
3880.000000	99.663348
3879.000000	99.655453
3878.000000	99.650058
3877.000000	99.649487
3876.000000	99.652792
3875.000000	99.656480
3874.000000	99.658432
3873.000000	99.659542
3872.000000	99.660582
3871.000000	99.660301
3870.000000	99.658891
3869.000000	99.659328
3868.000000	99.662315
3867.000000	99.665018
3866.000000	99.662924
3865.000000	99.654125
3864.000000	99.643345
3863.000000	99.637692
3862.000000	99.638925
3861.000000	99.644121
3860.000000	99.649222
3859.000000	99.650770
3858.000000	99.648023
3857.000000	99.644208
3856.000000	99.643771
3855.000000	99.644454
3854.000000	99.638443
3853.000000	99.632386
3852.000000	99.634007
3851.000000	99.638290
3850.000000	99.641578
3849.000000	99.644823
3848.000000	99.649469
3847.000000	99.656110
3846.000000	99.663716
3845.000000	99.670607
3844.000000	99.675276
3843.000000	99.677117
3842.000000	99.676378
3841.000000	99.673671
3840.000000	99.668750
3839.000000	99.662195
3838.000000	99.656978
3837.000000	99.655139
3836.000000	99.655303
3835.000000	99.655261
3834.000000	99.654897
3833.000000	99.655767
3832.000000	99.659010
3831.000000	99.663760
3830.000000	99.668114
3829.000000	99.670963
3828.000000	99.671839
3827.000000	99.670339
3826.000000	99.666858
3825.000000	99.663979
3824.000000	99.664939
3823.000000	99.669647
3822.000000	99.673018
3821.000000	99.673217
3820.000000	99.672990
3819.000000	99.671985
3818.000000	99.668392
3817.000000	99.659390
3816.000000	99.646196
3815.000000	99.636169
3814.000000	99.633652
3813.000000	99.635886
3812.000000	99.638170
3811.000000	99.639272
3810.000000	99.641864
3809.000000	99.648426
3808.000000	99.656697
3807.000000	99.662006
3806.000000	99.662259
3805.000000	99.659626
3804.000000	99.657852
3803.000000	99.658311
3802.000000	99.660017
3801.000000	99.664109
3800.000000	99.669257
3799.000000	99.671817
3798.000000	99.670065
3797.000000	99.664514
3796.000000	99.658256
3795.000000	99.654805
3794.000000	99.654971
3793.000000	99.656696
3792.000000	99.657530
3791.000000	99.656182
3790.000000	99.652607
3789.000000	99.647665
3788.000000	99.643136
3787.000000	99.641167
3786.000000	99.643108
3785.000000	99.648603
3784.000000	99.655701
3783.000000	99.662071
3782.000000	99.665538
3781.000000	99.663961
3780.000000	99.656847
3779.000000	99.648322
3778.000000	99.643743
3777.000000	99.644539
3776.000000	99.648195
3775.000000	99.651746
3774.000000	99.654228
3773.000000	99.656304
3772.000000	99.657626
3771.000000	99.656550
3770.000000	99.653622
3769.000000	99.652006
3768.000000	99.653150
3767.000000	99.654930
3766.000000	99.654218
3765.000000	99.650015
3764.000000	99.644237
3763.000000	99.639896
3762.000000	99.638259
3761.000000	99.638442
3760.000000	99.639314
3759.000000	99.640632
3758.000000	99.640761
3757.000000	99.638044
3756.000000	99.634485
3755.000000	99.634366
3754.000000	99.638848
3753.000000	99.643238
3752.000000	99.641178
3751.000000	99.633079
3750.000000	99.625138
3749.000000	99.619548
3748.000000	99.616834
3747.000000	99.619585
3746.000000	99.627395
3745.000000	99.635742
3744.000000	99.644915
3743.000000	99.655437
3742.000000	99.663622
3741.000000	99.667694
3740.000000	99.669730
3739.000000	99.673215
3738.000000	99.678002
3737.000000	99.677784
3736.000000	99.670234
3735.000000	99.664007
3734.000000	99.666107
3733.000000	99.672853
3732.000000	99.678125
3731.000000	99.680107
3730.000000	99.680265
3729.000000	99.680280
3728.000000	99.680481
3727.000000	99.680294
3726.000000	99.679882
3725.000000	99.679284
3724.000000	99.677391
3723.000000	99.673560
3722.000000	99.668652
3721.000000	99.664446
3720.000000	99.661599
3719.000000	99.658938
3718.000000	99.654524
3717.000000	99.648256
3716.000000	99.643506
3715.000000	99.644181
3714.000000	99.649715
3713.000000	99.654536
3712.000000	99.654921
3711.000000	99.655480
3710.000000	99.661484
3709.000000	99.671095
3708.000000	99.679544
3707.000000	99.684282
3706.000000	99.686374
3705.000000	99.688847
3704.000000	99.693271
3703.000000	99.697660
3702.000000	99.698853
3701.000000	99.696214
3700.000000	99.691862
3699.000000	99.687975
3698.000000	99.684722
3697.000000	99.680506
3696.000000	99.674444
3695.000000	99.667357
3694.000000	99.660630
3693.000000	99.656132
3692.000000	99.656026
3691.000000	99.661605
3690.000000	99.670270
3689.000000	99.675649
3688.000000	99.672503
3687.000000	99.662910
3686.000000	99.654973
3685.000000	99.653715
3684.000000	99.657792
3683.000000	99.663100
3682.000000	99.667118
3681.000000	99.669221
3680.000000	99.670281
3679.000000	99.672641
3678.000000	99.677855
3677.000000	99.682326
3676.000000	99.680249
3675.000000	99.673454
3674.000000	99.664022
3673.000000	99.653397
3672.000000	99.645227
3671.000000	99.641903
3670.000000	99.645889
3669.000000	99.657866
3668.000000	99.671043
3667.000000	99.679455
3666.000000	99.682566
3665.000000	99.681577
3664.000000	99.677512
3663.000000	99.671386
3662.000000	99.664195
3661.000000	99.657197
3660.000000	99.652995
3659.000000	99.654427
3658.000000	99.661777
3657.000000	99.671261
3656.000000	99.678586
3655.000000	99.682502
3654.000000	99.685180
3653.000000	99.689428
3652.000000	99.693847
3651.000000	99.692268
3650.000000	99.682688
3649.000000	99.674186
3648.000000	99.672572
3647.000000	99.671797
3646.000000	99.666521
3645.000000	99.658751
3644.000000	99.653083
3643.000000	99.652434
3642.000000	99.656557
3641.000000	99.662357
3640.000000	99.665954
3639.000000	99.665326
3638.000000	99.662285
3637.000000	99.660948
3636.000000	99.663381
3635.000000	99.667131
3634.000000	99.668096
3633.000000	99.665690
3632.000000	99.663169
3631.000000	99.662269
3630.000000	99.659436
3629.000000	99.654973
3628.000000	99.655103
3627.000000	99.658155
3626.000000	99.660879
3625.000000	99.664326
3624.000000	99.670468
3623.000000	99.679718
3622.000000	99.690266
3621.000000	99.698415
3620.000000	99.701366
3619.000000	99.700171
3618.000000	99.696941
3617.000000	99.691679
3616.000000	99.685073
3615.000000	99.678815
3614.000000	99.673937
3613.000000	99.670506
3612.000000	99.667772
3611.000000	99.664874
3610.000000	99.661638
3609.000000	99.659778
3608.000000	99.662421
3607.000000	99.669611
3606.000000	99.676579
3605.000000	99.678341
3604.000000	99.673883
3603.000000	99.665403
3602.000000	99.656772
3601.000000	99.651810
3600.000000	99.652396
3599.000000	99.656918
3598.000000	99.661506
3597.000000	99.662564
3596.000000	99.658887
3595.000000	99.652365
3594.000000	99.646970
3593.000000	99.645892
3592.000000	99.649339
3591.000000	99.655756
3590.000000	99.662660
3589.000000	99.667516
3588.000000	99.670627
3587.000000	99.674943
3586.000000	99.678912
3585.000000	99.677934
3584.000000	99.671455
3583.000000	99.662490
3582.000000	99.654504
3581.000000	99.649621
3580.000000	99.648120
3579.000000	99.648669
3578.000000	99.648947
3577.000000	99.646709
3576.000000	99.640677
3575.000000	99.631835
3574.000000	99.623445
3573.000000	99.619574
3572.000000	99.622669
3571.000000	99.632346
3570.000000	99.645318
3569.000000	99.655979
3568.000000	99.660282
3567.000000	99.660361
3566.000000	99.660297
3565.000000	99.659782
3564.000000	99.657799
3563.000000	99.655216
3562.000000	99.653123
3561.000000	99.652127
3560.000000	99.652632
3559.000000	99.654579
3558.000000	99.656997
3557.000000	99.658240
3556.000000	99.656757
3555.000000	99.651729
3554.000000	99.643456
3553.000000	99.633783
3552.000000	99.625578
3551.000000	99.620484
3550.000000	99.617676
3549.000000	99.615302
3548.000000	99.612596
3547.000000	99.610924
3546.000000	99.612383
3545.000000	99.616879
3544.000000	99.621865
3543.000000	99.625187
3542.000000	99.626285
3541.000000	99.625388
3540.000000	99.623007
3539.000000	99.620210
3538.000000	99.618605
3537.000000	99.619134
3536.000000	99.621137
3535.000000	99.622591
3534.000000	99.622073
3533.000000	99.620089
3532.000000	99.618463
3531.000000	99.618581
3530.000000	99.620281
3529.000000	99.622232
3528.000000	99.623245
3527.000000	99.622889
3526.000000	99.621220
3525.000000	99.618640
3524.000000	99.615899
3523.000000	99.613646
3522.000000	99.611873
3521.000000	99.610398
3520.000000	99.609620
3519.000000	99.609639
3518.000000	99.608995
3517.000000	99.605150
3516.000000	99.596981
3515.000000	99.586373
3514.000000	99.577102
3513.000000	99.572273
3512.000000	99.572926
3511.000000	99.578318
3510.000000	99.586636
3509.000000	99.595343
3508.000000	99.601956
3507.000000	99.605274
3506.000000	99.605701
3505.000000	99.604188
3504.000000	99.601744
3503.000000	99.599416
3502.000000	99.597556
3501.000000	99.595181
3500.000000	99.590921
3499.000000	99.584892
3498.000000	99.579452
3497.000000	99.577763
3496.000000	99.580521
3495.000000	99.584441
3494.000000	99.585145
3493.000000	99.581799
3492.000000	99.577830
3491.000000	99.576762
3490.000000	99.578349
3489.000000	99.579548
3488.000000	99.578773
3487.000000	99.577769
3486.000000	99.578913
3485.000000	99.581852
3484.000000	99.583921
3483.000000	99.583380
3482.000000	99.581470
3481.000000	99.580783
3480.000000	99.582122
3479.000000	99.583901
3478.000000	99.584521
3477.000000	99.584258
3476.000000	99.584337
3475.000000	99.584700
3474.000000	99.583738
3473.000000	99.580748
3472.000000	99.577772
3471.000000	99.577894
3470.000000	99.581708
3469.000000	99.586360
3468.000000	99.588283
3467.000000	99.586602
3466.000000	99.583697
3465.000000	99.582819
3464.000000	99.585551
3463.000000	99.591004
3462.000000	99.596715
3461.000000	99.600188
3460.000000	99.600287
3459.000000	99.597762
3458.000000	99.594486
3457.000000	99.591769
3456.000000	99.589340
3455.000000	99.585919
3454.000000	99.581078
3453.000000	99.576200
3452.000000	99.573335
3451.000000	99.573083
3450.000000	99.573871
3449.000000	99.573665
3448.000000	99.572323
3447.000000	99.571702
3446.000000	99.572829
3445.000000	99.573968
3444.000000	99.572407
3443.000000	99.567634
3442.000000	99.562290
3441.000000	99.559894
3440.000000	99.561735
3439.000000	99.565774
3438.000000	99.568361
3437.000000	99.567094
3436.000000	99.562603
3435.000000	99.557601
3434.000000	99.554309
3433.000000	99.552983
3432.000000	99.552931
3431.000000	99.554118
3430.000000	99.556970
3429.000000	99.561248
3428.000000	99.566072
3427.000000	99.570804
3426.000000	99.574807
3425.000000	99.576478
3424.000000	99.573943
3423.000000	99.567371
3422.000000	99.559717
3421.000000	99.554266
3420.000000	99.551719
3419.000000	99.550483
3418.000000	99.549428
3417.000000	99.549070
3416.000000	99.550010
3415.000000	99.551419
3414.000000	99.551629
3413.000000	99.549835
3412.000000	99.546605
3411.000000	99.542928
3410.000000	99.539321
3409.000000	99.536111
3408.000000	99.534081
3407.000000	99.534189
3406.000000	99.536444
3405.000000	99.539202
3404.000000	99.540058
3403.000000	99.537757
3402.000000	99.533400
3401.000000	99.529504
3400.000000	99.527765
3399.000000	99.527971
3398.000000	99.529127
3397.000000	99.530942
3396.000000	99.533483
3395.000000	99.535946
3394.000000	99.537020
3393.000000	99.536623
3392.000000	99.536118
3391.000000	99.536317
3390.000000	99.536326
3389.000000	99.535021
3388.000000	99.532565
3387.000000	99.529520
3386.000000	99.525348
3385.000000	99.519103
3384.000000	99.511279
3383.000000	99.503667
3382.000000	99.497492
3381.000000	99.492774
3380.000000	99.489413
3379.000000	99.487724
3378.000000	99.487630
3377.000000	99.488437
3376.000000	99.489676
3375.000000	99.491391
3374.000000	99.493330
3373.000000	99.494652
3372.000000	99.494741
3371.000000	99.493556
3370.000000	99.490819
3369.000000	99.485851
3368.000000	99.479088
3367.000000	99.473076
3366.000000	99.470619
3365.000000	99.471710
3364.000000	99.473188
3363.000000	99.471874
3362.000000	99.467706
3361.000000	99.463496
3360.000000	99.461739
3359.000000	99.461933
3358.000000	99.461100
3357.000000	99.456730
3356.000000	99.448997
3355.000000	99.440335
3354.000000	99.433461
3353.000000	99.430067
3352.000000	99.430583
3351.000000	99.433946
3350.000000	99.437518
3349.000000	99.438356
3348.000000	99.435420
3347.000000	99.430370
3346.000000	99.425974
3345.000000	99.423880
3344.000000	99.423884
3343.000000	99.424590
3342.000000	99.424157
3341.000000	99.420878
3340.000000	99.414099
3339.000000	99.405048
3338.000000	99.396552
3337.000000	99.391471
3336.000000	99.390875
3335.000000	99.393363
3334.000000	99.396130
3333.000000	99.397097
3332.000000	99.396367
3331.000000	99.395793
3330.000000	99.397102
3329.000000	99.400221
3328.000000	99.403097
3327.000000	99.402913
3326.000000	99.397868
3325.000000	99.388488
3324.000000	99.377555
3323.000000	99.368521
3322.000000	99.363687
3321.000000	99.363541
3320.000000	99.367100
3319.000000	99.372224
3318.000000	99.375890
3317.000000	99.375272
3316.000000	99.369517
3315.000000	99.360598
3314.000000	99.352106
3313.000000	99.346785
3312.000000	99.344714
3311.000000	99.343619
3310.000000	99.341274
3309.000000	99.337962
3308.000000	99.336193
3307.000000	99.337500
3306.000000	99.339954
3305.000000	99.339690
3304.000000	99.334760
3303.000000	99.326789
3302.000000	99.318988
3301.000000	99.313413
3300.000000	99.310383
3299.000000	99.309460
3298.000000	99.310185
3297.000000	99.312263
3296.000000	99.315503
3295.000000	99.319441
3294.000000	99.323047
3293.000000	99.325463
3292.000000	99.327055
3291.000000	99.328874
3290.000000	99.330743
3289.000000	99.330783
3288.000000	99.327467
3287.000000	99.321574
3286.000000	99.315538
3285.000000	99.311464
3284.000000	99.310104
3283.000000	99.310791
3282.000000	99.311581
3281.000000	99.310282
3280.000000	99.306557
3279.000000	99.302591
3278.000000	99.300652
3277.000000	99.300176
3276.000000	99.298304
3275.000000	99.293475
3274.000000	99.287363
3273.000000	99.283078
3272.000000	99.282340
3271.000000	99.284643
3270.000000	99.288296
3269.000000	99.291514
3268.000000	99.293090
3267.000000	99.292902
3266.000000	99.292015
3265.000000	99.292109
3264.000000	99.294480
3263.000000	99.299292
3262.000000	99.305421
3261.000000	99.310991
3260.000000	99.314308
3259.000000	99.314498
3258.000000	99.311619
3257.000000	99.306704
3256.000000	99.302011
3255.000000	99.300537
3254.000000	99.304144
3253.000000	99.311750
3252.000000	99.319801
3251.000000	99.324769
3250.000000	99.325250
3249.000000	99.322198
3248.000000	99.317949
3247.000000	99.315070
3246.000000	99.314981
3245.000000	99.316690
3244.000000	99.317032
3243.000000	99.313092
3242.000000	99.304881
3241.000000	99.295832
3240.000000	99.290702
3239.000000	99.292610
3238.000000	99.301126
3237.000000	99.312315
3236.000000	99.320869
3235.000000	99.323393
3234.000000	99.320584
3233.000000	99.316219
3232.000000	99.313743
3231.000000	99.313781
3230.000000	99.314927
3229.000000	99.316190
3228.000000	99.317743
3227.000000	99.319446
3226.000000	99.319908
3225.000000	99.317922
3224.000000	99.314313
3223.000000	99.311434
3222.000000	99.310702
3221.000000	99.311370
3220.000000	99.311754
3219.000000	99.310997
3218.000000	99.309279
3217.000000	99.307073
3216.000000	99.305076
3215.000000	99.304541
3214.000000	99.306415
3213.000000	99.309677
3212.000000	99.311346
3211.000000	99.309080
3210.000000	99.303794
3209.000000	99.299114
3208.000000	99.298140
3207.000000	99.300880
3206.000000	99.304716
3205.000000	99.306757
3204.000000	99.305598
3203.000000	99.301779
3202.000000	99.297488
3201.000000	99.295785
3200.000000	99.299043
3199.000000	99.307097
3198.000000	99.316791
3197.000000	99.323753
3196.000000	99.325205
3195.000000	99.321532
3194.000000	99.315414
3193.000000	99.309702
3192.000000	99.305812
3191.000000	99.303640
3190.000000	99.302526
3189.000000	99.302049
3188.000000	99.302015
3187.000000	99.302105
3186.000000	99.301788
3185.000000	99.300507
3184.000000	99.297950
3183.000000	99.294596
3182.000000	99.292305
3181.000000	99.293659
3180.000000	99.299579
3179.000000	99.307416
3178.000000	99.312330
3177.000000	99.311475
3176.000000	99.306615
3175.000000	99.302361
3174.000000	99.302182
3173.000000	99.306296
3172.000000	99.312375
3171.000000	99.317379
3170.000000	99.319136
3169.000000	99.317436
3168.000000	99.314253
3167.000000	99.312421
3166.000000	99.313572
3165.000000	99.317175
3164.000000	99.321393
3163.000000	99.324546
3162.000000	99.325849
3161.000000	99.325239
3160.000000	99.322944
3159.000000	99.319252
3158.000000	99.314668
3157.000000	99.310315
3156.000000	99.307879
3155.000000	99.308604
3154.000000	99.312195
3153.000000	99.316957
3152.000000	99.321185
3151.000000	99.324252
3150.000000	99.326302
3149.000000	99.327282
3148.000000	99.326683
3147.000000	99.324318
3146.000000	99.321189
3145.000000	99.319284
3144.000000	99.320048
3143.000000	99.322739
3142.000000	99.324746
3141.000000	99.324129
3140.000000	99.321927
3139.000000	99.321462
3138.000000	99.325269
3137.000000	99.332898
3136.000000	99.341329
3135.000000	99.346803
3134.000000	99.346586
3133.000000	99.340441
3132.000000	99.331463
3131.000000	99.324811
3130.000000	99.324324
3129.000000	99.329727
3128.000000	99.337139
3127.000000	99.342321
3126.000000	99.343451
3125.000000	99.341286
3124.000000	99.337701
3123.000000	99.334599
3122.000000	99.333487
3121.000000	99.334831
3120.000000	99.337334
3119.000000	99.338393
3118.000000	99.336262
3117.000000	99.332150
3116.000000	99.329802
3115.000000	99.332229
3114.000000	99.338735
3113.000000	99.345350
3112.000000	99.348276
3111.000000	99.346810
3110.000000	99.343273
3109.000000	99.340633
3108.000000	99.340334
3107.000000	99.341821
3106.000000	99.343376
3105.000000	99.343394
3104.000000	99.341285
3103.000000	99.337488
3102.000000	99.332809
3101.000000	99.328002
3100.000000	99.323837
3099.000000	99.320958
3098.000000	99.319367
3097.000000	99.318576
3096.000000	99.318715
3095.000000	99.321045
3094.000000	99.326601
3093.000000	99.334361
3092.000000	99.341404
3091.000000	99.345074
3090.000000	99.344739
3089.000000	99.341501
3088.000000	99.336742
3087.000000	99.331291
3086.000000	99.325743
3085.000000	99.321080
3084.000000	99.318619
3083.000000	99.319103
3082.000000	99.321760
3081.000000	99.324492
3080.000000	99.325389
3079.000000	99.324233
3078.000000	99.322510
3077.000000	99.321952
3076.000000	99.323095
3075.000000	99.324997
3074.000000	99.326093
3073.000000	99.325532
3072.000000	99.323986
3071.000000	99.322983
3070.000000	99.322927
3069.000000	99.321965
3068.000000	99.317580
3067.000000	99.309670
3066.000000	99.301535
3065.000000	99.297220
3064.000000	99.298031
3063.000000	99.301997
3062.000000	99.306191
3061.000000	99.308723
3060.000000	99.308725
3059.000000	99.305873
3058.000000	99.301106
3057.000000	99.297272
3056.000000	99.297521
3055.000000	99.302431
3054.000000	99.309244
3053.000000	99.314434
3052.000000	99.316585
3051.000000	99.316642
3050.000000	99.316288
3049.000000	99.316899
3048.000000	99.319459
3047.000000	99.323986
3046.000000	99.328649
3045.000000	99.330462
3044.000000	99.327851
3043.000000	99.322468
3042.000000	99.317840
3041.000000	99.316080
3040.000000	99.316294
3039.000000	99.316385
3038.000000	99.315942
3037.000000	99.316587
3036.000000	99.319355
3035.000000	99.322626
3034.000000	99.323597
3033.000000	99.321492
3032.000000	99.318149
3031.000000	99.315405
3030.000000	99.313474
3029.000000	99.312625
3028.000000	99.314591
3027.000000	99.320224
3026.000000	99.326393
3025.000000	99.327615
3024.000000	99.321583
3023.000000	99.311758
3022.000000	99.303825
3021.000000	99.300876
3020.000000	99.302563
3019.000000	99.307051
3018.000000	99.311863
3017.000000	99.313692
3016.000000	99.309906
3015.000000	99.301246
3014.000000	99.292157
3013.000000	99.287458
3012.000000	99.288591
3011.000000	99.292811
3010.000000	99.295579
3009.000000	99.293702
3008.000000	99.286879
3007.000000	99.277085
3006.000000	99.266720
3005.000000	99.257238
3004.000000	99.249108
3003.000000	99.242562
3002.000000	99.238116
3001.000000	99.236514
3000.000000	99.238256
2999.000000	99.242942
2998.000000	99.248832
2997.000000	99.253345
2996.000000	99.254343
2995.000000	99.250981
2994.000000	99.243349
2993.000000	99.231776
2992.000000	99.217007
2991.000000	99.200782
2990.000000	99.185432
2989.000000	99.172312
2988.000000	99.160849
2987.000000	99.149429
2986.000000	99.137070
2985.000000	99.123815
2984.000000	99.109483
2983.000000	99.092998
2982.000000	99.073833
2981.000000	99.053815
2980.000000	99.036155
2979.000000	99.021975
2978.000000	99.008455
2977.000000	98.991290
2976.000000	98.968583
2975.000000	98.941742
2974.000000	98.913104
2973.000000	98.883928
2972.000000	98.854680
2971.000000	98.825813
2970.000000	98.797507
2969.000000	98.769290
2968.000000	98.740582
2967.000000	98.711119
2966.000000	98.680367
2965.000000	98.647210
2964.000000	98.611155
2963.000000	98.573743
2962.000000	98.537955
2961.000000	98.505908
2960.000000	98.477362
2959.000000	98.450414
2958.000000	98.423440
2957.000000	98.396427
2956.000000	98.371021
2955.000000	98.349680
2954.000000	98.334638
2953.000000	98.327086
2952.000000	98.326406
2951.000000	98.329725
2950.000000	98.332410
2949.000000	98.329959
2948.000000	98.320100
2947.000000	98.303361
2946.000000	98.281714
2945.000000	98.256570
2944.000000	98.227750
2943.000000	98.193634
2942.000000	98.152309
2941.000000	98.102980
2940.000000	98.046593
2939.000000	97.984992
2938.000000	97.919406
2937.000000	97.850066
2936.000000	97.776869
2935.000000	97.699776
2934.000000	97.618432
2933.000000	97.532054
2932.000000	97.440356
2931.000000	97.344457
2930.000000	97.246905
2929.000000	97.150776
2928.000000	97.058545
2927.000000	96.971317
2926.000000	96.889376
2925.000000	96.814423
2924.000000	96.751068
2923.000000	96.705059
2922.000000	96.679111
2921.000000	96.671220
2920.000000	96.678167
2919.000000	96.700108
2918.000000	96.741081
2917.000000	96.804906
2916.000000	96.891443
2915.000000	96.996745
2914.000000	97.115349
2913.000000	97.241518
2912.000000	97.368438
2911.000000	97.487950
2910.000000	97.592443
2909.000000	97.678321
2908.000000	97.748102
2907.000000	97.808533
2906.000000	97.865778
2905.000000	97.921661
2904.000000	97.974223
2903.000000	98.020887
2902.000000	98.060914
2901.000000	98.095001
2900.000000	98.124711
2899.000000	98.152646
2898.000000	98.181923
2897.000000	98.214418
2896.000000	98.249155
2895.000000	98.282851
2894.000000	98.312332
2893.000000	98.336736
2892.000000	98.357938
2891.000000	98.379133
2890.000000	98.402596
2889.000000	98.428206
2888.000000	98.453745
2887.000000	98.476603
2886.000000	98.495425
2885.000000	98.510574
2884.000000	98.523442
2883.000000	98.535221
2882.000000	98.545844
2881.000000	98.553986
2880.000000	98.558286
2879.000000	98.558490
2878.000000	98.555116
2877.000000	98.548292
2876.000000	98.537751
2875.000000	98.524190
2874.000000	98.509751
2873.000000	98.496395
2872.000000	98.484388
2871.000000	98.473173
2870.000000	98.463156
2869.000000	98.455185
2868.000000	98.448165
2867.000000	98.438583
2866.000000	98.423312
2865.000000	98.402095
2864.000000	98.376096
2863.000000	98.344557
2862.000000	98.304004
2861.000000	98.250906
2860.000000	98.184066
2859.000000	98.104319
2858.000000	98.013449
2857.000000	97.914816
2856.000000	97.814644
2855.000000	97.721076
2854.000000	97.641475
2853.000000	97.580594
2852.000000	97.541560
2851.000000	97.528409
2850.000000	97.546713
2849.000000	97.600909
2848.000000	97.689936
2847.000000	97.805431
2846.000000	97.935016
2845.000000	98.068109
2844.000000	98.198449
2843.000000	98.321949
2842.000000	98.433843
2841.000000	98.529242
2840.000000	98.606394
2839.000000	98.667741
2838.000000	98.717688
2837.000000	98.760158
2836.000000	98.797942
2835.000000	98.832709
2834.000000	98.864584
2833.000000	98.892513
2832.000000	98.916057
2831.000000	98.936426
2830.000000	98.955088
2829.000000	98.972079
2828.000000	98.986464
2827.000000	98.997986
2826.000000	99.007331
2825.000000	99.015048
2824.000000	99.021385
2823.000000	99.027274
2822.000000	99.034485
2821.000000	99.044137
2820.000000	99.055390
2819.000000	99.066106
2818.000000	99.074883
2817.000000	99.082348
2816.000000	99.090381
2815.000000	99.099950
2814.000000	99.109716
2813.000000	99.117185
2812.000000	99.121337
2811.000000	99.123687
2810.000000	99.126373
2809.000000	99.129661
2808.000000	99.132046
2807.000000	99.132564
2806.000000	99.132182
2805.000000	99.132787
2804.000000	99.135469
2803.000000	99.139981
2802.000000	99.145268
2801.000000	99.149992
2800.000000	99.152939
2799.000000	99.153610
2798.000000	99.152773
2797.000000	99.152361
2796.000000	99.154525
2795.000000	99.160219
2794.000000	99.168268
2793.000000	99.175906
2792.000000	99.180737
2791.000000	99.182432
2790.000000	99.182519
2789.000000	99.182678
2788.000000	99.183523
2787.000000	99.184772
2786.000000	99.185897
2785.000000	99.186352
2784.000000	99.185736
2783.000000	99.184266
2782.000000	99.182950
2781.000000	99.182903
2780.000000	99.184490
2779.000000	99.187293
2778.000000	99.190698
2777.000000	99.194202
2776.000000	99.197300
2775.000000	99.199611
2774.000000	99.201326
2773.000000	99.203243
2772.000000	99.206058
2771.000000	99.209636
2770.000000	99.213154
2769.000000	99.215926
2768.000000	99.217891
2767.000000	99.219332
2766.000000	99.220416
2765.000000	99.221157
2764.000000	99.221677
2763.000000	99.222260
2762.000000	99.223127
2761.000000	99.224212
2760.000000	99.225241
2759.000000	99.226126
2758.000000	99.227329
2757.000000	99.229566
2756.000000	99.232789
2755.000000	99.235579
2754.000000	99.236231
2753.000000	99.234646
2752.000000	99.232600
2751.000000	99.231661
2750.000000	99.231356
2749.000000	99.230076
2748.000000	99.227490
2747.000000	99.225197
2746.000000	99.224932
2745.000000	99.226870
2744.000000	99.229857
2743.000000	99.232587
2742.000000	99.234118
2741.000000	99.233833
2740.000000	99.231669
2739.000000	99.228504
2738.000000	99.226021
2737.000000	99.225898
2736.000000	99.228757
2735.000000	99.233510
2734.000000	99.237936
2733.000000	99.240511
2732.000000	99.241780
2731.000000	99.243410
2730.000000	99.245878
2729.000000	99.247801
2728.000000	99.247883
2727.000000	99.246787
2726.000000	99.246432
2725.000000	99.247908
2724.000000	99.250772
2723.000000	99.254085
2722.000000	99.257235
2721.000000	99.259650
2720.000000	99.260415
2719.000000	99.258711
2718.000000	99.254636
2717.000000	99.249543
2716.000000	99.245516
2715.000000	99.244232
2714.000000	99.246032
2713.000000	99.250037
2712.000000	99.254969
2711.000000	99.259471
2710.000000	99.261861
2709.000000	99.260798
2708.000000	99.257143
2707.000000	99.254554
2706.000000	99.256760
2705.000000	99.263683
2704.000000	99.270928
2703.000000	99.273657
2702.000000	99.270785
2701.000000	99.265337
2700.000000	99.261287
2699.000000	99.260425
2698.000000	99.261809
2697.000000	99.263384
2696.000000	99.263924
2695.000000	99.263830
2694.000000	99.264402
2693.000000	99.266398
2692.000000	99.269174
2691.000000	99.271136
2690.000000	99.270998
2689.000000	99.268645
2688.000000	99.265052
2687.000000	99.261691
2686.000000	99.259967
2685.000000	99.260735
2684.000000	99.263782
2683.000000	99.267658
2682.000000	99.270461
2681.000000	99.271202
2680.000000	99.270472
2679.000000	99.269663
2678.000000	99.269628
2677.000000	99.270173
2676.000000	99.270570
2675.000000	99.270206
2674.000000	99.268928
2673.000000	99.267307
2672.000000	99.266656
2671.000000	99.268130
2670.000000	99.271371
2669.000000	99.274331
2668.000000	99.274907
2667.000000	99.272720
2666.000000	99.268990
2665.000000	99.264917
2664.000000	99.260766
2663.000000	99.256649
2662.000000	99.253533
2661.000000	99.252727
2660.000000	99.254253
2659.000000	99.256198
2658.000000	99.256289
2657.000000	99.254208
2656.000000	99.252097
2655.000000	99.252534
2654.000000	99.256144
2653.000000	99.261373
2652.000000	99.266222
2651.000000	99.269727
2650.000000	99.271918
2649.000000	99.273228
2648.000000	99.274365
2647.000000	99.276153
2646.000000	99.278704
2645.000000	99.280887
2644.000000	99.281381
2643.000000	99.280361
2642.000000	99.279576
2641.000000	99.280500
2640.000000	99.282885
2639.000000	99.285549
2638.000000	99.288063
2637.000000	99.290908
2636.000000	99.294073
2635.000000	99.296462
2634.000000	99.297199
2633.000000	99.297071
2632.000000	99.298121
2631.000000	99.301938
2630.000000	99.308645
2629.000000	99.317140
2628.000000	99.325734
2627.000000	99.332756
2626.000000	99.337207
2625.000000	99.338931
2624.000000	99.337921
2623.000000	99.333934
2622.000000	99.327714
2621.000000	99.322178
2620.000000	99.320653
2619.000000	99.323229
2618.000000	99.325908
2617.000000	99.324460
2616.000000	99.318694
2615.000000	99.312383
2614.000000	99.309690
2613.000000	99.312190
2612.000000	99.318258
2611.000000	99.324129
2610.000000	99.326346
2609.000000	99.324754
2608.000000	99.323086
2607.000000	99.325406
2606.000000	99.331836
2605.000000	99.338693
2604.000000	99.342570
2603.000000	99.343232
2602.000000	99.342616
2601.000000	99.342390
2600.000000	99.343059
2599.000000	99.344511
2598.000000	99.346552
2597.000000	99.349001
2596.000000	99.351548
2595.000000	99.353678
2594.000000	99.355004
2593.000000	99.355675
2592.000000	99.355919
2591.000000	99.355224
2590.000000	99.353050
2589.000000	99.350555
2588.000000	99.349966
2587.000000	99.351226
2586.000000	99.351096
2585.000000	99.347363
2584.000000	99.342697
2583.000000	99.342160
2582.000000	99.347700
2581.000000	99.357035
2580.000000	99.366698
2579.000000	99.373631
2578.000000	99.374926
2577.000000	99.370002
2576.000000	99.363496
2575.000000	99.362386
2574.000000	99.368611
2573.000000	99.376795
2572.000000	99.380266
2571.000000	99.377175
2570.000000	99.370203
2569.000000	99.363534
2568.000000	99.361824
2567.000000	99.368777
2566.000000	99.383345
2565.000000	99.398511
2564.000000	99.406431
2563.000000	99.404402
2562.000000	99.394788
2561.000000	99.381313
2560.000000	99.367731
2559.000000	99.358381
2558.000000	99.356486
2557.000000	99.361513
2556.000000	99.369989
2555.000000	99.378886
2554.000000	99.386877
2553.000000	99.392955
2552.000000	99.395980
2551.000000	99.395710
2550.000000	99.392802
2549.000000	99.387555
2548.000000	99.379771
2547.000000	99.369823
2546.000000	99.359225
2545.000000	99.350534
2544.000000	99.347079
2543.000000	99.351355
2542.000000	99.362019
2541.000000	99.373223
2540.000000	99.378817
2539.000000	99.377336
2538.000000	99.371889
2537.000000	99.366155
2536.000000	99.362248
2535.000000	99.361635
2534.000000	99.365165
2533.000000	99.371182
2532.000000	99.375450
2531.000000	99.374484
2530.000000	99.368595
2529.000000	99.361092
2528.000000	99.354961
2527.000000	99.350411
2526.000000	99.345139
2525.000000	99.337130
2524.000000	99.327873
2523.000000	99.322478
2522.000000	99.325071
2521.000000	99.333499
2520.000000	99.339686
2519.000000	99.336406
2518.000000	99.323777
2517.000000	99.309303
2516.000000	99.301905
2515.000000	99.305593
2514.000000	99.317387
2513.000000	99.330051
2512.000000	99.337142
2511.000000	99.336653
2510.000000	99.330784
2509.000000	99.322738
2508.000000	99.314046
2507.000000	99.304974
2506.000000	99.296940
2505.000000	99.293412
2504.000000	99.297428
2503.000000	99.307926
2502.000000	99.319413
2501.000000	99.326429
2500.000000	99.328378
2499.000000	99.329246
2498.000000	99.332498
2497.000000	99.337374
2496.000000	99.340817
2495.000000	99.341814
2494.000000	99.342585
2493.000000	99.345726
2492.000000	99.351366
2491.000000	99.357389
2490.000000	99.361903
2489.000000	99.365358
2488.000000	99.370262
2487.000000	99.378339
2486.000000	99.387656
2485.000000	99.393221
2484.000000	99.391248
2483.000000	99.382537
2482.000000	99.371319
2481.000000	99.361840
2480.000000	99.356932
2479.000000	99.358447
2478.000000	99.366452
2477.000000	99.377786
2476.000000	99.387825
2475.000000	99.394949
2474.000000	99.401708
2473.000000	99.410410
2472.000000	99.419274
2471.000000	99.424662
2470.000000	99.425777
2469.000000	99.424783
2468.000000	99.423005
2467.000000	99.419857
2466.000000	99.415527
2465.000000	99.411684
2464.000000	99.408454
2463.000000	99.403572
2462.000000	99.396689
2461.000000	99.392159
2460.000000	99.394420
2459.000000	99.401679
2458.000000	99.407457
2457.000000	99.408174
2456.000000	99.406541
2455.000000	99.407074
2454.000000	99.410779
2453.000000	99.415142
2452.000000	99.417061
2451.000000	99.414776
2450.000000	99.409055
2449.000000	99.403778
2448.000000	99.403406
2447.000000	99.408220
2446.000000	99.413397
2445.000000	99.414203
2444.000000	99.410876
2443.000000	99.407168
2442.000000	99.405647
2441.000000	99.406275
2440.000000	99.408365
2439.000000	99.411653
2438.000000	99.415724
2437.000000	99.420020
2436.000000	99.424444
2435.000000	99.429097
2434.000000	99.433719
2433.000000	99.438010
2432.000000	99.441842
2431.000000	99.444722
2430.000000	99.446150
2429.000000	99.447005
2428.000000	99.448960
2427.000000	99.451664
2426.000000	99.452550
2425.000000	99.450919
2424.000000	99.450184
2423.000000	99.453631
2422.000000	99.459186
2421.000000	99.461073
2420.000000	99.456233
2419.000000	99.447057
2418.000000	99.438111
2417.000000	99.432048
2416.000000	99.428773
2415.000000	99.427031
2414.000000	99.426431
2413.000000	99.428285
2412.000000	99.433746
2411.000000	99.440825
2410.000000	99.445036
2409.000000	99.444129
2408.000000	99.440622
2407.000000	99.438189
2406.000000	99.437285
2405.000000	99.436121
2404.000000	99.434077
2403.000000	99.432032
2402.000000	99.431005
2401.000000	99.432625
2400.000000	99.438984
2399.000000	99.449082
2398.000000	99.457142
2397.000000	99.457887
2396.000000	99.452668
2395.000000	99.447384
2394.000000	99.445378
2393.000000	99.445893
2392.000000	99.448333
2391.000000	99.453693
2390.000000	99.461087
2389.000000	99.466787
2388.000000	99.468426
2387.000000	99.466878
2386.000000	99.463884
2385.000000	99.460012
2384.000000	99.456165
2383.000000	99.454926
2382.000000	99.457701
2381.000000	99.463340
2380.000000	99.469746
2379.000000	99.475365
2378.000000	99.478721
2377.000000	99.477855
2376.000000	99.471865
2375.000000	99.462483
2374.000000	99.454867
2373.000000	99.455854
2372.000000	99.469153
2371.000000	99.489922
2370.000000	99.507461
2369.000000	99.515478
2368.000000	99.514406
2367.000000	99.505448
2366.000000	99.489100
2365.000000	99.471339
2364.000000	99.462378
2363.000000	99.462764
2362.000000	99.461708
2361.000000	99.454718
2360.000000	99.450847
2359.000000	99.460331
2358.000000	99.479917
2357.000000	99.496217
2356.000000	99.496279
2355.000000	99.476464
2354.000000	99.452174
2353.000000	99.443041
2352.000000	99.448905
2351.000000	99.452896
2350.000000	99.445140
2349.000000	99.431170
2348.000000	99.422637
2347.000000	99.428953
2346.000000	99.445079
2345.000000	99.450533
2344.000000	99.434049
2343.000000	99.408846
2342.000000	99.397360
2341.000000	99.407523
2340.000000	99.426945
2339.000000	99.437347
2338.000000	99.432935
2337.000000	99.421083
2336.000000	99.411914
2335.000000	99.412612
2334.000000	99.428656
2333.000000	99.458418
2332.000000	99.487060
2331.000000	99.497193
2330.000000	99.483959
2329.000000	99.457378
2328.000000	99.428551
2327.000000	99.404237
2326.000000	99.388881
2325.000000	99.384620
2324.000000	99.389575
2323.000000	99.396498
2322.000000	99.396683
2321.000000	99.383761
2320.000000	99.359157
2319.000000	99.332220
2318.000000	99.313210
2317.000000	99.306779
2316.000000	99.311639
2315.000000	99.325066
2314.000000	99.342801
2313.000000	99.358383
2312.000000	99.365766
2311.000000	99.365065
2310.000000	99.362518
2309.000000	99.365007
2308.000000	99.375470
2307.000000	99.391572
2306.000000	99.406969
2305.000000	99.414969
2304.000000	99.414455
2303.000000	99.410069
2302.000000	99.406151
2301.000000	99.402618
2300.000000	99.399108
2299.000000	99.398849
2298.000000	99.403610
2297.000000	99.408807
2296.000000	99.407327
2295.000000	99.398597
2294.000000	99.388898
2293.000000	99.384205
2292.000000	99.385869
2291.000000	99.392474
2290.000000	99.401728
2289.000000	99.410024
2288.000000	99.413783
2287.000000	99.411445
2286.000000	99.403033
2285.000000	99.389351
2284.000000	99.374925
2283.000000	99.368192
2282.000000	99.374288
2281.000000	99.388274
2280.000000	99.400356
2279.000000	99.406322
2278.000000	99.408067
2277.000000	99.405869
2276.000000	99.397080
2275.000000	99.383803
2274.000000	99.375635
2273.000000	99.381836
2272.000000	99.402995
2271.000000	99.431432
2270.000000	99.456723
2269.000000	99.470763
2268.000000	99.471517
2267.000000	99.463486
2266.000000	99.452529
2265.000000	99.440991
2264.000000	99.430410
2263.000000	99.426426
2262.000000	99.434617
2261.000000	99.450534
2260.000000	99.459757
2259.000000	99.451707
2258.000000	99.431857
2257.000000	99.417847
2256.000000	99.423419
2255.000000	99.445208
2254.000000	99.464581
2253.000000	99.463901
2252.000000	99.442655
2251.000000	99.416995
2250.000000	99.403729
2249.000000	99.407922
2248.000000	99.425491
2247.000000	99.450890
2246.000000	99.477523
2245.000000	99.496127
2244.000000	99.501042
2243.000000	99.497261
2242.000000	99.495311
2241.000000	99.499671
2240.000000	99.506318
2239.000000	99.509980
2238.000000	99.508743
2237.000000	99.502833
2236.000000	99.494209
2235.000000	99.487157
2234.000000	99.485444
2233.000000	99.489223
2232.000000	99.496994
2231.000000	99.507732
2230.000000	99.517516
2229.000000	99.518325
2228.000000	99.506850
2227.000000	99.492438
2226.000000	99.490231
2225.000000	99.507075
2224.000000	99.537644
2223.000000	99.570919
2222.000000	99.594442
2221.000000	99.596014
2220.000000	99.570867
2219.000000	99.527952
2218.000000	99.483270
2217.000000	99.447544
2216.000000	99.424477
2215.000000	99.417727
2214.000000	99.431378
2213.000000	99.462420
2212.000000	99.499085
2211.000000	99.528507
2210.000000	99.542317
2209.000000	99.536503
2208.000000	99.512969
2207.000000	99.481745
2206.000000	99.456207
2205.000000	99.444187
2204.000000	99.444994
2203.000000	99.453348
2202.000000	99.462925
2201.000000	99.468385
2200.000000	99.468842
2199.000000	99.468271
2198.000000	99.469185
2197.000000	99.468581
2196.000000	99.464020
2195.000000	99.459953
2194.000000	99.462807
2193.000000	99.472871
2192.000000	99.485672
2191.000000	99.496889
2190.000000	99.499937
2189.000000	99.485453
2188.000000	99.454066
2187.000000	99.426189
2186.000000	99.426784
2185.000000	99.457987
2184.000000	99.493960
2183.000000	99.506239
2182.000000	99.490772
2181.000000	99.470795
2180.000000	99.476833
2179.000000	99.520290
2178.000000	99.581174
2177.000000	99.623629
2176.000000	99.629960
2175.000000	99.616402
2174.000000	99.608275
2173.000000	99.606837
2172.000000	99.593370
2171.000000	99.559700
2170.000000	99.518572
2169.000000	99.484446
2168.000000	99.457059
2167.000000	99.429106
2166.000000	99.401763
2165.000000	99.385673
2164.000000	99.389940
2163.000000	99.414300
2162.000000	99.451236
2161.000000	99.493973
2160.000000	99.543304
2159.000000	99.603440
2158.000000	99.667114
2157.000000	99.714463
2156.000000	99.733694
2155.000000	99.731145
2154.000000	99.716570
2153.000000	99.691637
2152.000000	99.657482
2151.000000	99.622933
2150.000000	99.597675
2149.000000	99.582699
2148.000000	99.574986
2147.000000	99.577852
2146.000000	99.599063
2145.000000	99.639383
2144.000000	99.687818
2143.000000	99.727320
2142.000000	99.743006
2141.000000	99.730419
2140.000000	99.701195
2139.000000	99.675470
2138.000000	99.663235
2137.000000	99.656521
2136.000000	99.643144
2135.000000	99.623750
2134.000000	99.609781
2133.000000	99.608510
2132.000000	99.616189
2131.000000	99.623342
2130.000000	99.621879
2129.000000	99.609372
2128.000000	99.591293
2127.000000	99.577597
2126.000000	99.573944
2125.000000	99.577341
2124.000000	99.581394
2123.000000	99.582104
2122.000000	99.576483
2121.000000	99.560890
2120.000000	99.536196
2119.000000	99.511124
2118.000000	99.494990
2117.000000	99.489249
2116.000000	99.490173
2115.000000	99.496559
2114.000000	99.508391
2113.000000	99.520328
2112.000000	99.524869
2111.000000	99.522830
2110.000000	99.523463
2109.000000	99.532005
2108.000000	99.542838
2107.000000	99.547401
2106.000000	99.544319
2105.000000	99.539148
2104.000000	99.538126
2103.000000	99.544704
2102.000000	99.558621
2101.000000	99.574862
2100.000000	99.585022
2099.000000	99.582601
2098.000000	99.567851
2097.000000	99.548516
2096.000000	99.536223
2095.000000	99.538836
2094.000000	99.552293
2093.000000	99.561264
2092.000000	99.553257
2091.000000	99.533111
2090.000000	99.519535
2089.000000	99.524842
2088.000000	99.540141
2087.000000	99.544436
2086.000000	99.527672
2085.000000	99.501428
2084.000000	99.485959
2083.000000	99.488403
2082.000000	99.496431
2081.000000	99.493225
2080.000000	99.475759
2079.000000	99.456725
2078.000000	99.450774
2077.000000	99.462120
2076.000000	99.483766
2075.000000	99.503927
2074.000000	99.512303
2073.000000	99.505091
2072.000000	99.487659
2071.000000	99.470416
2070.000000	99.460657
2069.000000	99.459643
2068.000000	99.466419
2067.000000	99.479999
2066.000000	99.496527
2065.000000	99.508980
2064.000000	99.513132
2063.000000	99.510915
2062.000000	99.506022
2061.000000	99.500256
2060.000000	99.495065
2059.000000	99.491400
2058.000000	99.486603
2057.000000	99.477368
2056.000000	99.467992
2055.000000	99.468847
2054.000000	99.481940
2053.000000	99.494222
2052.000000	99.491899
2051.000000	99.476823
2050.000000	99.463173
2049.000000	99.461276
2048.000000	99.469502
2047.000000	99.481002
2046.000000	99.492878
2045.000000	99.507156
2044.000000	99.526633
2043.000000	99.550230
2042.000000	99.570147
2041.000000	99.576219
2040.000000	99.566423
2039.000000	99.549313
2038.000000	99.534689
2037.000000	99.527778
2036.000000	99.531440
2035.000000	99.544851
2034.000000	99.558437
2033.000000	99.561186
2032.000000	99.557381
2031.000000	99.563117
2030.000000	99.581292
2029.000000	99.595421
2028.000000	99.596021
2027.000000	99.597860
2026.000000	99.617960
2025.000000	99.648193
2024.000000	99.665679
2023.000000	99.663190
2022.000000	99.653639
2021.000000	99.647410
2020.000000	99.638386
2019.000000	99.614942
2018.000000	99.578862
2017.000000	99.550438
2016.000000	99.550576
2015.000000	99.576106
2014.000000	99.599723
2013.000000	99.597461
2012.000000	99.572640
2011.000000	99.548223
2010.000000	99.541564
2009.000000	99.557729
2008.000000	99.598363
2007.000000	99.656540
2006.000000	99.704103
2005.000000	99.709005
2004.000000	99.674034
2003.000000	99.637533
2002.000000	99.629314
2001.000000	99.641781
2000.000000	99.648614
1999.000000	99.638100
1998.000000	99.619253
1997.000000	99.606281
1996.000000	99.606963
1995.000000	99.618915
1994.000000	99.630040
1993.000000	99.628976
1992.000000	99.620761
1991.000000	99.621676
1990.000000	99.633795
1989.000000	99.640438
1988.000000	99.631262
1987.000000	99.614554
1986.000000	99.597994
1985.000000	99.574895
1984.000000	99.541343
1983.000000	99.510769
1982.000000	99.495896
1981.000000	99.488836
1980.000000	99.478034
1979.000000	99.477191
1978.000000	99.514582
1977.000000	99.590943
1976.000000	99.669787
1975.000000	99.716766
1974.000000	99.728324
1973.000000	99.720832
1972.000000	99.710504
1971.000000	99.703473
1970.000000	99.694815
1969.000000	99.677444
1968.000000	99.655551
1967.000000	99.644637
1966.000000	99.654373
1965.000000	99.678545
1964.000000	99.703925
1963.000000	99.717470
1962.000000	99.704373
1961.000000	99.657797
1960.000000	99.596631
1959.000000	99.555616
1958.000000	99.550156
1957.000000	99.563937
1956.000000	99.575230
1955.000000	99.581383
1954.000000	99.590706
1953.000000	99.603933
1952.000000	99.614220
1951.000000	99.616689
1950.000000	99.609335
1949.000000	99.592346
1948.000000	99.575066
1947.000000	99.575344
1946.000000	99.601537
1945.000000	99.640284
1944.000000	99.669547
1943.000000	99.678868
1942.000000	99.671791
1941.000000	99.656366
1940.000000	99.642776
1939.000000	99.643833
1938.000000	99.665571
1937.000000	99.696659
1936.000000	99.715579
1935.000000	99.710961
1934.000000	99.690185
1933.000000	99.670353
1932.000000	99.664237
1931.000000	99.671860
1930.000000	99.681976
1929.000000	99.682029
1928.000000	99.670727
1927.000000	99.658449
1926.000000	99.653773
1925.000000	99.654997
1924.000000	99.657019
1923.000000	99.661406
1922.000000	99.672271
1921.000000	99.686057
1920.000000	99.693368
1919.000000	99.686994
1918.000000	99.664987
1917.000000	99.631226
1916.000000	99.595289
1915.000000	99.568964
1914.000000	99.559715
1913.000000	99.565485
1912.000000	99.576027
1911.000000	99.581821
1910.000000	99.581604
1909.000000	99.580934
1908.000000	99.585651
1907.000000	99.596186
1906.000000	99.607033
1905.000000	99.611805
1904.000000	99.609333
1903.000000	99.603809
1902.000000	99.597510
1901.000000	99.588106
1900.000000	99.576797
1899.000000	99.572275
1898.000000	99.581045
1897.000000	99.597806
1896.000000	99.610565
1895.000000	99.614697
1894.000000	99.615704
1893.000000	99.617935
1892.000000	99.618101
1891.000000	99.610677
1890.000000	99.595916
1889.000000	99.582304
1888.000000	99.579645
1887.000000	99.590274
1886.000000	99.607697
1885.000000	99.621617
1884.000000	99.625906
1883.000000	99.622478
1882.000000	99.616131
1881.000000	99.608928
1880.000000	99.602561
1879.000000	99.601050
1878.000000	99.607077
1877.000000	99.618628
1876.000000	99.631264
1875.000000	99.641507
1874.000000	99.646798
1873.000000	99.646061
1872.000000	99.643308
1871.000000	99.646181
1870.000000	99.656357
1869.000000	99.663806
1868.000000	99.659817
1867.000000	99.652612
1866.000000	99.655791
1865.000000	99.668991
1864.000000	99.680201
1863.000000	99.680031
1862.000000	99.668779
1861.000000	99.652586
1860.000000	99.637699
1859.000000	99.628440
1858.000000	99.626850
1857.000000	99.632298
1856.000000	99.642496
1855.000000	99.654753
1854.000000	99.664648
1853.000000	99.665837
1852.000000	99.656374
1851.000000	99.642672
1850.000000	99.633359
1849.000000	99.632359
1848.000000	99.638184
1847.000000	99.647482
1846.000000	99.656386
1845.000000	99.660346
1844.000000	99.658933
1843.000000	99.659349
1842.000000	99.667213
1841.000000	99.678439
1840.000000	99.685665
1839.000000	99.685965
1838.000000	99.681273
1837.000000	99.674969
1836.000000	99.669814
1835.000000	99.668324
1834.000000	99.671488
1833.000000	99.677552
1832.000000	99.683884
1831.000000	99.687462
1830.000000	99.685867
1829.000000	99.681020
1828.000000	99.676974
1827.000000	99.674108
1826.000000	99.668228
1825.000000	99.657306
1824.000000	99.648124
1823.000000	99.648900
1822.000000	99.658209
1821.000000	99.667468
1820.000000	99.671577
1819.000000	99.673338
1818.000000	99.678127
1817.000000	99.686886
1816.000000	99.695930
1815.000000	99.702295
1814.000000	99.705123
1813.000000	99.703771
1812.000000	99.698091
1811.000000	99.689242
1810.000000	99.679280
1809.000000	99.669295
1808.000000	99.659767
1807.000000	99.652174
1806.000000	99.645835
1805.000000	99.634682
1804.000000	99.612151
1803.000000	99.579763
1802.000000	99.547152
1801.000000	99.524012
1800.000000	99.511693
1799.000000	99.503736
1798.000000	99.495788
1797.000000	99.488848
1796.000000	99.484062
1795.000000	99.479592
1794.000000	99.471848
1793.000000	99.462080
1792.000000	99.461530
1791.000000	99.479952
1790.000000	99.511915
1789.000000	99.542367
1788.000000	99.559932
1787.000000	99.564623
1786.000000	99.566722
1785.000000	99.576290
1784.000000	99.593358
1783.000000	99.610629
1782.000000	99.621355
1781.000000	99.624240
1780.000000	99.624532
1779.000000	99.628355
1778.000000	99.637179
1777.000000	99.648311
1776.000000	99.659421
1775.000000	99.669938
1774.000000	99.676960
1773.000000	99.674353
1772.000000	99.663143
1771.000000	99.651634
1770.000000	99.641783
1769.000000	99.631342
1768.000000	99.622339
1767.000000	99.619278
1766.000000	99.621466
1765.000000	99.622036
1764.000000	99.615906
1763.000000	99.604439
1762.000000	99.592166
1761.000000	99.581771
1760.000000	99.573013
1759.000000	99.563885
1758.000000	99.551356
1757.000000	99.533217
1756.000000	99.513394
1755.000000	99.496221
1754.000000	99.476787
1753.000000	99.445629
1752.000000	99.401177
1751.000000	99.355544
1750.000000	99.322102
1749.000000	99.298759
1748.000000	99.276137
1747.000000	99.251499
1746.000000	99.223971
1745.000000	99.191850
1744.000000	99.158801
1743.000000	99.132866
1742.000000	99.114717
1741.000000	99.093272
1740.000000	99.059905
1739.000000	99.023870
1738.000000	98.997787
1737.000000	98.981255
1736.000000	98.969431
1735.000000	98.968056
1734.000000	98.987183
1733.000000	99.018166
1732.000000	99.048744
1731.000000	99.083278
1730.000000	99.126865
1729.000000	99.174447
1728.000000	99.218049
1727.000000	99.254275
1726.000000	99.283143
1725.000000	99.304084
1724.000000	99.319377
1723.000000	99.335060
1722.000000	99.355199
1721.000000	99.375627
1720.000000	99.389626
1719.000000	99.393124
1718.000000	99.388503
1717.000000	99.386909
1716.000000	99.391514
1715.000000	99.395683
1714.000000	99.395920
1713.000000	99.391056
1712.000000	99.383651
1711.000000	99.380911
1710.000000	99.388388
1709.000000	99.403454
1708.000000	99.417851
1707.000000	99.425401
1706.000000	99.426735
1705.000000	99.426941
1704.000000	99.426691
1703.000000	99.423664
1702.000000	99.416340
1701.000000	99.399776
1700.000000	99.373036
1699.000000	99.351750
1698.000000	99.345339
1697.000000	99.344263
1696.000000	99.339145
1695.000000	99.329940
1694.000000	99.324004
1693.000000	99.321191
1692.000000	99.312445
1691.000000	99.292853
1690.000000	99.266049
1689.000000	99.239908
1688.000000	99.220779
1687.000000	99.208926
1686.000000	99.198229
1685.000000	99.172414
1684.000000	99.126009
1683.000000	99.083145
1682.000000	99.056712
1681.000000	99.037900
1680.000000	99.021686
1679.000000	99.006998
1678.000000	98.991923
1677.000000	98.971714
1676.000000	98.949251
1675.000000	98.935718
1674.000000	98.934666
1673.000000	98.936554
1672.000000	98.933815
1671.000000	98.925564
1670.000000	98.914464
1669.000000	98.902451
1668.000000	98.891772
1667.000000	98.886123
1666.000000	98.883855
1665.000000	98.879297
1664.000000	98.868335
1663.000000	98.851127
1662.000000	98.830740
1661.000000	98.808708
1660.000000	98.788845
1659.000000	98.774731
1658.000000	98.766453
1657.000000	98.757273
1656.000000	98.747369
1655.000000	98.743738
1654.000000	98.754271
1653.000000	98.765424
1652.000000	98.755955
1651.000000	98.743235
1650.000000	98.739407
1649.000000	98.735817
1648.000000	98.729150
1647.000000	98.731884
1646.000000	98.746971
1645.000000	98.758520
1644.000000	98.760520
1643.000000	98.759438
1642.000000	98.758743
1641.000000	98.761644
1640.000000	98.769609
1639.000000	98.782304
1638.000000	98.799126
1637.000000	98.819638
1636.000000	98.842986
1635.000000	98.861213
1634.000000	98.864605
1633.000000	98.859719
1632.000000	98.857016
1631.000000	98.861853
1630.000000	98.875979
1629.000000	98.893487
1628.000000	98.908109
1627.000000	98.920343
1626.000000	98.933466
1625.000000	98.947923
1624.000000	98.963781
1623.000000	98.982309
1622.000000	99.000681
1621.000000	99.013769
1620.000000	99.024199
1619.000000	99.038764
1618.000000	99.060005
1617.000000	99.081949
1616.000000	99.097785
1615.000000	99.110454
1614.000000	99.123572
1613.000000	99.134868
1612.000000	99.143973
1611.000000	99.155968
1610.000000	99.172596
1609.000000	99.188213
1608.000000	99.199540
1607.000000	99.211078
1606.000000	99.225220
1605.000000	99.237357
1604.000000	99.244297
1603.000000	99.247980
1602.000000	99.250150
1601.000000	99.249699
1600.000000	99.247171
1599.000000	99.245787
1598.000000	99.245512
1597.000000	99.242707
1596.000000	99.236461
1595.000000	99.229968
1594.000000	99.224055
1593.000000	99.214967
1592.000000	99.201694
1591.000000	99.188911
1590.000000	99.179509
1589.000000	99.170073
1588.000000	99.156488
1587.000000	99.138045
1586.000000	99.113947
1585.000000	99.082536
1584.000000	99.047337
1583.000000	99.015534
1582.000000	98.987826
1581.000000	98.958871
1580.000000	98.928217
1579.000000	98.902761
1578.000000	98.887530
1577.000000	98.880368
1576.000000	98.880042
1575.000000	98.890704
1574.000000	98.908834
1573.000000	98.925776
1572.000000	98.940937
1571.000000	98.960659
1570.000000	98.988061
1569.000000	99.012272
1568.000000	99.025025
1567.000000	99.032949
1566.000000	99.041686
1565.000000	99.047331
1564.000000	99.046958
1563.000000	99.043662
1562.000000	99.039886
1561.000000	99.039520
1560.000000	99.034335
1559.000000	99.014941
1558.000000	98.993752
1557.000000	98.963459
1556.000000	98.926120
1555.000000	98.897300
1554.000000	98.873495
1553.000000	98.848835
1552.000000	98.811731
1551.000000	98.763131
1550.000000	98.710157
1549.000000	98.659501
1548.000000	98.606417
1547.000000	98.540560
1546.000000	98.455474
1545.000000	98.357638
1544.000000	98.267105
1543.000000	98.197816
1542.000000	98.141398
1541.000000	98.082838
1540.000000	98.037955
1539.000000	98.025892
1538.000000	98.026290
1537.000000	98.022734
1536.000000	98.016372
1535.000000	98.012162
1534.000000	98.016306
1533.000000	98.021748
1532.000000	98.016653
1531.000000	97.999519
1530.000000	97.975501
1529.000000	97.943961
1528.000000	97.903648
1527.000000	97.858635
1526.000000	97.814170
1525.000000	97.770740
1524.000000	97.725160
1523.000000	97.672532
1522.000000	97.610460
1521.000000	97.547790
1520.000000	97.495730
1519.000000	97.451717
1518.000000	97.402008
1517.000000	97.339680
1516.000000	97.274351
1515.000000	97.213612
1514.000000	97.150871
1513.000000	97.079595
1512.000000	97.004909
1511.000000	96.935005
1510.000000	96.868856
1509.000000	96.802943
1508.000000	96.748171
1507.000000	96.729803
1506.000000	96.723975
1505.000000	96.680658
1504.000000	96.613265
1503.000000	96.544548
1502.000000	96.474678
1501.000000	96.405323
1500.000000	96.338477
1499.000000	96.275865
1498.000000	96.209883
1497.000000	96.137019
1496.000000	96.067392
1495.000000	96.008751
1494.000000	95.950995
1493.000000	95.879737
1492.000000	95.794337
1491.000000	95.710342
1490.000000	95.644941
1489.000000	95.598041
1488.000000	95.556012
1487.000000	95.510638
1486.000000	95.459677
1485.000000	95.398924
1484.000000	95.328840
1483.000000	95.256219
1482.000000	95.185823
1481.000000	95.116252
1480.000000	95.043547
1479.000000	94.966234
1478.000000	94.883857
1477.000000	94.795755
1476.000000	94.702403
1475.000000	94.607239
1474.000000	94.514446
1473.000000	94.431236
1472.000000	94.364050
1471.000000	94.302364
1470.000000	94.230706
1469.000000	94.146388
1468.000000	94.057406
1467.000000	93.975970
1466.000000	93.910896
1465.000000	93.862745
1464.000000	93.823456
1463.000000	93.780747
1462.000000	93.727899
1461.000000	93.662606
1460.000000	93.585064
1459.000000	93.500521
1458.000000	93.428010
1457.000000	93.395772
1456.000000	93.391937
1455.000000	93.376733
1454.000000	93.338302
1453.000000	93.286096
1452.000000	93.232320
1451.000000	93.181481
1450.000000	93.128522
1449.000000	93.076189
1448.000000	93.036829
1447.000000	93.011261
1446.000000	92.980453
1445.000000	92.932347
1444.000000	92.875214
1443.000000	92.821965
1442.000000	92.774416
1441.000000	92.722996
1440.000000	92.659009
1439.000000	92.584687
1438.000000	92.517285
1437.000000	92.483784
1436.000000	92.484110
1435.000000	92.476920
1434.000000	92.434236
1433.000000	92.366213
1432.000000	92.297070
1431.000000	92.243204
1430.000000	92.200539
1429.000000	92.155665
1428.000000	92.101528
1427.000000	92.037147
1426.000000	91.964336
1425.000000	91.891886
1424.000000	91.831168
1423.000000	91.773437
1422.000000	91.695368
1421.000000	91.593519
1420.000000	91.499135
1419.000000	91.447265
1418.000000	91.421699
1417.000000	91.381867
1416.000000	91.321777
1415.000000	91.251810
1414.000000	91.172383
1413.000000	91.083344
1412.000000	90.995584
1411.000000	90.919703
1410.000000	90.847940
1409.000000	90.766283
1408.000000	90.676062
1407.000000	90.591110
1406.000000	90.521437
1405.000000	90.469203
1404.000000	90.431299
1403.000000	90.394085
1402.000000	90.341083
1401.000000	90.272725
1400.000000	90.209869
1399.000000	90.165269
1398.000000	90.118885
1397.000000	90.051433
1396.000000	89.982559
1395.000000	89.945429
1394.000000	89.934896
1393.000000	89.918509
1392.000000	89.886950
1391.000000	89.851015
1390.000000	89.817871
1389.000000	89.797595
1388.000000	89.814682
1387.000000	89.880865
1386.000000	89.963518
1385.000000	90.026272
1384.000000	90.076118
1383.000000	90.138426
1382.000000	90.217952
1381.000000	90.303226
1380.000000	90.394023
1379.000000	90.498010
1378.000000	90.606394
1377.000000	90.704499
1376.000000	90.803128
1375.000000	90.933132
1374.000000	91.099828
1373.000000	91.268782
1372.000000	91.413260
1371.000000	91.540622
1370.000000	91.667837
1369.000000	91.802097
1368.000000	91.939642
1367.000000	92.068363
1366.000000	92.178597
1365.000000	92.279498
1364.000000	92.400894
1363.000000	92.566380
1362.000000	92.759812
1361.000000	92.942395
1360.000000	93.099429
1359.000000	93.240270
1358.000000	93.373522
1357.000000	93.503719
1356.000000	93.636418
1355.000000	93.771934
1354.000000	93.900583
1353.000000	94.015372
1352.000000	94.121991
1351.000000	94.228104
1350.000000	94.331274
1349.000000	94.425079
1348.000000	94.510504
1347.000000	94.592605
1346.000000	94.671942
1345.000000	94.746218
1344.000000	94.814232
1343.000000	94.873386
1342.000000	94.921379
1341.000000	94.965212
1340.000000	95.020575
1339.000000	95.092819
1338.000000	95.167710
1337.000000	95.232614
1336.000000	95.291085
1335.000000	95.349665
1334.000000	95.406655
1333.000000	95.459347
1332.000000	95.511933
1331.000000	95.568775
1330.000000	95.626575
1329.000000	95.679979
1328.000000	95.729129
1327.000000	95.776320
1326.000000	95.821152
1325.000000	95.864008
1324.000000	95.908251
1323.000000	95.953524
1322.000000	95.993396
1321.000000	96.024683
1320.000000	96.053480
1319.000000	96.087146
1318.000000	96.124953
1317.000000	96.161975
1316.000000	96.196782
1315.000000	96.230357
1314.000000	96.263262
1313.000000	96.297991
1312.000000	96.338486
1311.000000	96.383551
1310.000000	96.425996
1309.000000	96.461513
1308.000000	96.493426
1307.000000	96.526660
1306.000000	96.561773
1305.000000	96.596900
1304.000000	96.630800
1303.000000	96.661321
1302.000000	96.686076
1301.000000	96.707154
1300.000000	96.730735
1299.000000	96.760250
1298.000000	96.794054
1297.000000	96.829866
1296.000000	96.865802
1295.000000	96.896757
1294.000000	96.917063
1293.000000	96.928321
1292.000000	96.938154
1291.000000	96.949782
1290.000000	96.959192
1289.000000	96.964676
1288.000000	96.971727
1287.000000	96.984898
1286.000000	97.000884
1285.000000	97.013733
1284.000000	97.022032
1283.000000	97.027555
1282.000000	97.031459
1281.000000	97.034789
1280.000000	97.039375
1279.000000	97.046194
1278.000000	97.055649
1277.000000	97.069902
1276.000000	97.090519
1275.000000	97.113333
1274.000000	97.130870
1273.000000	97.141186
1272.000000	97.149493
1271.000000	97.159825
1270.000000	97.170482
1269.000000	97.179296
1268.000000	97.187339
1267.000000	97.194967
1266.000000	97.199948
1265.000000	97.202478
1264.000000	97.207050
1263.000000	97.216140
1262.000000	97.226066
1261.000000	97.232012
1260.000000	97.233581
1259.000000	97.233185
1258.000000	97.232483
1257.000000	97.232338
1256.000000	97.232888
1255.000000	97.232175
1254.000000	97.228065
1253.000000	97.222460
1252.000000	97.219911
1251.000000	97.221303
1250.000000	97.222535
1249.000000	97.219952
1248.000000	97.213358
1247.000000	97.203357
1246.000000	97.190394
1245.000000	97.177170
1244.000000	97.167162
1243.000000	97.159638
1242.000000	97.150755
1241.000000	97.140430
1240.000000	97.132780
1239.000000	97.128528
1238.000000	97.122637
1237.000000	97.111915
1236.000000	97.099757
1235.000000	97.090811
1234.000000	97.085836
1233.000000	97.084474
1232.000000	97.088317
1231.000000	97.097427
1230.000000	97.107848
1229.000000	97.116554
1228.000000	97.125615
1227.000000	97.138549
1226.000000	97.155629
1225.000000	97.175665
1224.000000	97.199191
1223.000000	97.226236
1222.000000	97.253609
1221.000000	97.277727
1220.000000	97.298675
1219.000000	97.319410
1218.000000	97.342300
1217.000000	97.367627
1216.000000	97.393506
1215.000000	97.416360
1214.000000	97.433740
1213.000000	97.447477
1212.000000	97.461573
1211.000000	97.476627
1210.000000	97.489082
1209.000000	97.495820
1208.000000	97.496514
1207.000000	97.491592
1206.000000	97.481881
1205.000000	97.470555
1204.000000	97.461317
1203.000000	97.454270
1202.000000	97.447324
1201.000000	97.441861
1200.000000	97.442192
1199.000000	97.448258
1198.000000	97.453912
1197.000000	97.454883
1196.000000	97.454184
1195.000000	97.456887
1194.000000	97.463440
1193.000000	97.471035
1192.000000	97.478292
1191.000000	97.485321
1190.000000	97.491495
1189.000000	97.496061
1188.000000	97.499370
1187.000000	97.501266
1186.000000	97.499595
1185.000000	97.492320
1184.000000	97.480052
1183.000000	97.465803
1182.000000	97.453506
1181.000000	97.446606
1180.000000	97.445786
1179.000000	97.447472
1178.000000	97.446869
1177.000000	97.442867
1176.000000	97.437855
1175.000000	97.433139
1174.000000	97.427737
1173.000000	97.421925
1172.000000	97.418630
1171.000000	97.420104
1170.000000	97.425566
1169.000000	97.432935
1168.000000	97.440463
1167.000000	97.446233
1166.000000	97.449194
1165.000000	97.451635
1164.000000	97.457916
1163.000000	97.469622
1162.000000	97.484012
1161.000000	97.497759
1160.000000	97.509839
1159.000000	97.520716
1158.000000	97.531676
1157.000000	97.545099
1156.000000	97.562458
1155.000000	97.581648
1154.000000	97.599102
1153.000000	97.614667
1152.000000	97.631350
1151.000000	97.650778
1150.000000	97.672540
1149.000000	97.697576
1148.000000	97.727498
1147.000000	97.759958
1146.000000	97.789474
1145.000000	97.814310
1144.000000	97.838505
1143.000000	97.865704
1142.000000	97.894508
1141.000000	97.921263
1140.000000	97.944260
1139.000000	97.963940
1138.000000	97.981748
1137.000000	97.999737
1136.000000	98.018802
1135.000000	98.037034
1134.000000	98.052358
1133.000000	98.066029
1132.000000	98.080412
1131.000000	98.093950
1130.000000	98.102370
1129.000000	98.104859
1128.000000	98.105186
1127.000000	98.106935
1126.000000	98.111382
1125.000000	98.119492
1124.000000	98.131429
1123.000000	98.143640
1122.000000	98.150970
1121.000000	98.152457
1120.000000	98.151133
1119.000000	98.148129
1118.000000	98.141517
1117.000000	98.131580
1116.000000	98.122552
1115.000000	98.117777
1114.000000	98.116901
1113.000000	98.118615
1112.000000	98.122212
1111.000000	98.125739
1110.000000	98.127052
1109.000000	98.127677
1108.000000	98.131627
1107.000000	98.139291
1106.000000	98.146996
1105.000000	98.153306
1104.000000	98.160457
1103.000000	98.167813
1102.000000	98.169171
1101.000000	98.160213
1100.000000	98.144854
1099.000000	98.131161
1098.000000	98.123649
1097.000000	98.120751
1096.000000	98.117814
1095.000000	98.110972
1094.000000	98.100834
1093.000000	98.093008
1092.000000	98.091869
1091.000000	98.093378
1090.000000	98.087667
1089.000000	98.069728
1088.000000	98.043603
1087.000000	98.015618
1086.000000	97.988817
1085.000000	97.965848
1084.000000	97.951516
1083.000000	97.947627
1082.000000	97.948345
1081.000000	97.945258
1080.000000	97.936174
1079.000000	97.926256
1078.000000	97.922017
1077.000000	97.926711
1076.000000	97.939457
1075.000000	97.956208
1074.000000	97.972544
1073.000000	97.987252
1072.000000	98.001933
1071.000000	98.016323
1070.000000	98.026808
1069.000000	98.031330
1068.000000	98.033379
1067.000000	98.038902
1066.000000	98.050589
1065.000000	98.066702
1064.000000	98.083838
1063.000000	98.098790
1062.000000	98.108669
1061.000000	98.111494
1060.000000	98.107416
1059.000000	98.099563
1058.000000	98.093549
1057.000000	98.094460
1056.000000	98.102490
1055.000000	98.112258
1054.000000	98.118403
1053.000000	98.121356
1052.000000	98.125866
1051.000000	98.134726
1050.000000	98.146491
1049.000000	98.158340
1048.000000	98.167908
1047.000000	98.173191
1046.000000	98.174417
1045.000000	98.175519
1044.000000	98.180118
1043.000000	98.186405
1042.000000	98.189191
1041.000000	98.187034
1040.000000	98.183794
1039.000000	98.183086
1038.000000	98.184776
1037.000000	98.187063
1036.000000	98.188320
1035.000000	98.186187
1034.000000	98.178875
1033.000000	98.168939
1032.000000	98.162532
1031.000000	98.163009
1030.000000	98.167470
1029.000000	98.170849
1028.000000	98.171226
1027.000000	98.170114
1026.000000	98.169870
1025.000000	98.172329
1024.000000	98.178542
1023.000000	98.188441
1022.000000	98.201250
1021.000000	98.216064
1020.000000	98.231039
1019.000000	98.243065
1018.000000	98.250099
1017.000000	98.253020
1016.000000	98.253406
1015.000000	98.251281
1014.000000	98.247888
1013.000000	98.248675
1012.000000	98.258992
1011.000000	98.277027
1010.000000	98.294972
1009.000000	98.307935
1008.000000	98.318574
1007.000000	98.332333
1006.000000	98.351434
1005.000000	98.374146
1004.000000	98.396936
1003.000000	98.416210
1002.000000	98.430409
1001.000000	98.441749
1000.000000	98.454594
999.000000	98.471867
998.000000	98.493804
997.000000	98.518850
996.000000	98.543420
995.000000	98.562068
994.000000	98.571445
993.000000	98.574585
992.000000	98.578926
991.000000	98.589998
990.000000	98.608174
989.000000	98.630403
988.000000	98.653092
987.000000	98.674331
986.000000	98.695382
985.000000	98.718545
984.000000	98.741696
983.000000	98.757774
982.000000	98.762854
981.000000	98.761909
980.000000	98.762560
979.000000	98.765573
978.000000	98.766526
977.000000	98.764688
976.000000	98.764428
975.000000	98.768630
974.000000	98.776166
973.000000	98.785573
972.000000	98.795707
971.000000	98.802826
970.000000	98.803012
969.000000	98.798748
968.000000	98.798080
967.000000	98.805828
966.000000	98.819662
965.000000	98.835774
964.000000	98.853706
963.000000	98.874159
962.000000	98.896340
961.000000	98.919263
960.000000	98.942171
959.000000	98.962805
958.000000	98.979210
957.000000	98.993904
956.000000	99.011644
955.000000	99.031841
954.000000	99.047977
953.000000	99.055908
952.000000	99.058448
951.000000	99.060074
950.000000	99.062117
949.000000	99.065767
948.000000	99.075013
947.000000	99.092454
946.000000	99.114626
945.000000	99.134763
944.000000	99.148415
943.000000	99.154886
942.000000	99.156170
941.000000	99.156657
940.000000	99.161227
939.000000	99.171144
938.000000	99.183228
937.000000	99.194545
936.000000	99.205687
935.000000	99.218054
934.000000	99.230721
933.000000	99.241965
932.000000	99.251654
931.000000	99.260092
930.000000	99.266674
929.000000	99.271818
928.000000	99.278702
927.000000	99.290928
926.000000	99.309035
925.000000	99.330047
924.000000	99.349240
923.000000	99.361926
922.000000	99.365752
921.000000	99.362927
920.000000	99.359503
919.000000	99.361598
918.000000	99.372004
917.000000	99.389108
916.000000	99.407618
915.000000	99.421571
914.000000	99.429364
913.000000	99.435256
912.000000	99.443533
911.000000	99.452731
910.000000	99.458675
909.000000	99.461806
908.000000	99.466899
907.000000	99.475801
906.000000	99.485370
905.000000	99.493181
904.000000	99.501042
903.000000	99.511713
902.000000	99.525800
901.000000	99.542621
900.000000	99.560585
899.000000	99.576589
898.000000	99.589305
897.000000	99.602753
896.000000	99.621952
895.000000	99.644764
894.000000	99.663857
893.000000	99.677690
892.000000	99.692980
891.000000	99.714655
890.000000	99.739285
889.000000	99.760193
888.000000	99.771819
887.000000	99.763968
886.000000	99.718837
885.000000	99.618078
884.000000	99.447883
883.000000	99.195172
882.000000	98.842525
881.000000	98.373447
880.000000	97.777099
879.000000	97.047042
878.000000	96.185334
877.000000	95.208025
876.000000	94.139406
875.000000	93.002161
874.000000	91.855298
873.000000	90.875357
872.000000	90.377185
871.000000	90.653767
870.000000	91.723344
869.000000	93.256346
868.000000	94.783133
867.000000	95.984973
866.000000	96.807883
865.000000	97.356921
864.000000	97.742878
863.000000	98.026277
862.000000	98.239803
861.000000	98.408307
860.000000	98.545685
859.000000	98.655611
858.000000	98.744384
857.000000	98.821686
856.000000	98.890330
855.000000	98.946305
854.000000	98.989216
853.000000	99.023381
852.000000	99.045745
851.000000	99.043941
850.000000	99.014638
849.000000	98.978594
848.000000	98.968966
847.000000	99.002887
846.000000	99.068245
845.000000	99.138664
844.000000	99.196511
843.000000	99.239901
842.000000	99.273228
841.000000	99.298447
840.000000	99.316126
839.000000	99.328569
838.000000	99.338295
837.000000	99.346752
836.000000	99.357960
835.000000	99.379760
834.000000	99.415538
833.000000	99.455975
832.000000	99.485800
831.000000	99.500065
830.000000	99.508349
829.000000	99.520852
828.000000	99.535417
827.000000	99.542559
826.000000	99.539193
825.000000	99.531931
824.000000	99.528698
823.000000	99.531708
822.000000	99.538125
821.000000	99.544346
820.000000	99.549657
819.000000	99.556953
818.000000	99.568691
817.000000	99.581898
816.000000	99.590361
815.000000	99.592970
814.000000	99.595949
813.000000	99.603970
812.000000	99.612900
811.000000	99.615281
810.000000	99.610124
809.000000	99.603455
808.000000	99.601825
807.000000	99.609175
806.000000	99.626746
805.000000	99.650326
804.000000	99.669306
803.000000	99.674352
802.000000	99.666021
801.000000	99.652245
800.000000	99.638914
799.000000	99.627164
798.000000	99.617692
797.000000	99.611633
796.000000	99.607649
795.000000	99.603985
794.000000	99.603124
793.000000	99.608703
792.000000	99.618098
791.000000	99.624339
790.000000	99.626483
789.000000	99.631895
788.000000	99.645469
787.000000	99.661541
786.000000	99.669967
785.000000	99.667132
784.000000	99.657810
783.000000	99.648279
782.000000	99.640740
781.000000	99.634141
780.000000	99.628689
779.000000	99.628230
778.000000	99.636113
777.000000	99.648055
776.000000	99.652916
775.000000	99.644667
774.000000	99.631134
773.000000	99.625404
772.000000	99.629866
771.000000	99.634908
770.000000	99.633297
769.000000	99.628930
768.000000	99.629426
767.000000	99.636568
766.000000	99.647245
765.000000	99.658118
764.000000	99.665319
763.000000	99.664656
762.000000	99.657545
761.000000	99.653332
760.000000	99.659968
759.000000	99.673608
758.000000	99.682251
757.000000	99.679407
756.000000	99.670149
755.000000	99.664169
754.000000	99.666604
753.000000	99.676302
752.000000	99.689343
751.000000	99.701667
750.000000	99.709597
749.000000	99.710767
748.000000	99.705640
747.000000	99.696927
746.000000	99.686952
745.000000	99.676492
744.000000	99.667211
743.000000	99.663747
742.000000	99.670251
741.000000	99.684463
740.000000	99.698707
739.000000	99.708079
738.000000	99.713197
737.000000	99.713062
736.000000	99.701461
735.000000	99.676350
734.000000	99.648714
733.000000	99.633523
732.000000	99.632246
731.000000	99.630890
730.000000	99.615858
729.000000	99.585527
728.000000	99.548700
727.000000	99.516655
726.000000	99.493871
725.000000	99.474314
724.000000	99.447441
723.000000	99.408600
722.000000	99.360629
721.000000	99.304692
720.000000	99.234291
719.000000	99.139087
718.000000	99.006546
717.000000	98.815287
716.000000	98.541374
715.000000	98.194607
714.000000	97.851472
713.000000	97.629694
712.000000	97.610042
711.000000	97.778150
710.000000	98.043800
709.000000	98.309864
708.000000	98.523895
707.000000	98.682007
706.000000	98.798840
705.000000	98.884300
704.000000	98.944924
703.000000	98.991534
702.000000	99.037086
701.000000	99.086012
700.000000	99.130020
699.000000	99.161542
698.000000	99.183669
697.000000	99.204056
696.000000	99.225660
695.000000	99.245905
694.000000	99.265633
693.000000	99.288819
692.000000	99.313446
691.000000	99.336279
690.000000	99.359613
689.000000	99.385982
688.000000	99.408857
687.000000	99.417318
686.000000	99.413336
685.000000	99.408513
684.000000	99.404255
683.000000	99.393659
682.000000	99.379623
681.000000	99.372421
680.000000	99.368808
679.000000	99.355868
678.000000	99.336092
677.000000	99.321988
676.000000	99.317761
675.000000	99.320357
674.000000	99.335012
673.000000	99.371011
672.000000	99.425378
671.000000	99.494780
670.000000	99.591519
669.000000	99.721699
668.000000	99.793376
667.000000	99.705770
666.000000	99.554076
665.000000	99.416379
664.000000	99.314516
663.000000	99.262790
662.000000	99.252259
661.000000	99.259399
660.000000	99.265873
659.000000	99.270041
658.000000	99.274719
657.000000	99.273148
656.000000	99.263534
655.000000	99.257500
654.000000	99.262505
653.000000	99.272041
652.000000	99.281622
651.000000	99.294888
650.000000	99.311702
649.000000	99.323973
648.000000	99.329706
647.000000	99.335204
646.000000	99.339772
645.000000	99.337753
644.000000	99.331323
643.000000	99.325583
642.000000	99.318332
641.000000	99.305248
640.000000	99.292475
639.000000	99.289688
638.000000	99.290018
637.000000	99.275995
636.000000	99.248291
635.000000	99.227788
634.000000	99.227367
633.000000	99.238783
632.000000	99.249365
631.000000	99.256751
630.000000	99.262332
629.000000	99.262920
628.000000	99.256642
627.000000	99.247531
626.000000	99.238545
625.000000	99.231444
624.000000	99.230176
623.000000	99.234667
622.000000	99.234867
621.000000	99.221435
620.000000	99.199993
619.000000	99.184365
618.000000	99.179531
617.000000	99.180958
616.000000	99.185580
615.000000	99.190431
614.000000	99.185655
613.000000	99.165773
612.000000	99.146370
611.000000	99.151372
610.000000	99.181462
609.000000	99.211286
608.000000	99.221305
607.000000	99.217386
606.000000	99.212979
605.000000	99.210949
604.000000	99.206829
603.000000	99.196780
602.000000	99.180060
601.000000	99.163658
600.000000	99.164636
599.000000	99.193677
598.000000	99.233668
597.000000	99.251227
596.000000	99.233608
595.000000	99.200428
594.000000	99.176509
593.000000	99.166029
592.000000	99.160276
591.000000	99.156432
590.000000	99.157253
589.000000	99.163259
588.000000	99.176146
587.000000	99.199394
586.000000	99.225518
585.000000	99.233654
584.000000	99.212072
583.000000	99.176429
582.000000	99.155498
581.000000	99.163451
580.000000	99.191638
579.000000	99.220633
578.000000	99.233630
577.000000	99.225081
576.000000	99.204802
575.000000	99.188842
574.000000	99.179508
573.000000	99.163717
572.000000	99.135835
571.000000	99.108108
570.000000	99.092370
569.000000	99.082865
568.000000	99.070045
567.000000	99.060024
566.000000	99.064295
565.000000	99.078870
564.000000	99.088676
563.000000	99.085948
562.000000	99.072996
561.000000	99.054018
560.000000	99.034659
559.000000	99.023372
558.000000	99.021982
557.000000	99.021124
556.000000	99.015058
555.000000	99.013486
554.000000	99.026104
553.000000	99.043552
552.000000	99.049463
551.000000	99.045120
550.000000	99.047726
549.000000	99.066144
548.000000	99.093543
547.000000	99.121257
546.000000	99.144969
545.000000	99.158662
544.000000	99.155841
543.000000	99.138724
542.000000	99.117456
541.000000	99.099034
540.000000	99.081764
539.000000	99.058548
538.000000	99.020338
537.000000	98.962057
536.000000	98.895113
535.000000	98.849761
534.000000	98.850915
533.000000	98.891724
532.000000	98.939959
531.000000	98.966338
530.000000	98.960864
529.000000	98.929132
528.000000	98.885914
527.000000	98.854399
526.000000	98.856733
525.000000	98.892854
524.000000	98.937224
523.000000	98.960547
522.000000	98.947530
521.000000	98.903045
520.000000	98.851452
519.000000	98.824878
518.000000	98.841347
517.000000	98.892685
516.000000	98.958531
515.000000	99.021322
514.000000	99.066115
513.000000	99.083849
512.000000	99.083764
511.000000	99.090227
510.000000	99.113861
509.000000	99.135177
508.000000	99.129589
507.000000	99.100554
506.000000	99.071141
505.000000	99.050437
504.000000	99.031497
503.000000	99.017621
502.000000	99.025600
501.000000	99.055903
500.000000	99.084167
499.000000	99.092531
498.000000	99.088706
497.000000	99.090652
496.000000	99.102620
495.000000	99.111562
494.000000	99.104749
493.000000	99.084381
492.000000	99.066555
491.000000	99.066979
490.000000	99.086734
489.000000	99.114063
488.000000	99.134448
487.000000	99.132977
486.000000	99.096941
485.000000	99.037520
484.000000	99.006454
483.000000	99.057247
482.000000	99.174057
481.000000	99.268067
480.000000	99.262326
479.000000	99.164333
478.000000	99.050068
477.000000	98.987516
476.000000	98.986110
475.000000	99.014107
474.000000	99.040937
473.000000	99.059033
472.000000	99.082917
471.000000	99.125837
470.000000	99.175740
469.000000	99.205082
468.000000	99.194722
467.000000	99.147217
466.000000	99.082235
465.000000	99.024692
464.000000	99.002393
463.000000	99.032342
462.000000	99.090947
461.000000	99.128211
460.000000	99.135177
459.000000	99.164917
458.000000	99.258989
457.000000	99.369146
456.000000	99.428327
455.000000	99.459572
454.000000	99.527078
453.000000	99.640229
452.000000	99.738905
451.000000	99.755674
450.000000	99.688684
