PE IR       SUBTECH     SPECTRUM    ASCII       PEDS        4.00        
   -1
AG10-C003_1.ASC
23/09/08
10:25:06.00
23/09/08
11:14:38.00
uco
Sample 003 By uco Date Friday, September 08 2023
450.000000
#HDR
-1
-1
#GR
cm-1
%T
1.0
0.0
4000.000000
-1.000000
3551
8
99.905602
96.307405
#DATA
4000.000000	99.844648
3999.000000	99.849925
3998.000000	99.855631
3997.000000	99.858389
3996.000000	99.857640
3995.000000	99.855604
3994.000000	99.854913
3993.000000	99.856090
3992.000000	99.857193
3991.000000	99.855919
3990.000000	99.851949
3989.000000	99.847282
3988.000000	99.844477
3987.000000	99.844543
3986.000000	99.846293
3985.000000	99.847455
3984.000000	99.846378
3983.000000	99.843140
3982.000000	99.839243
3981.000000	99.836216
3980.000000	99.834433
3979.000000	99.833131
3978.000000	99.831607
3977.000000	99.830316
3976.000000	99.830608
3975.000000	99.833259
3974.000000	99.837336
3973.000000	99.840608
3972.000000	99.841180
3971.000000	99.838702
3970.000000	99.834124
3969.000000	99.828713
3968.000000	99.823472
3967.000000	99.819426
3966.000000	99.817700
3965.000000	99.818787
3964.000000	99.821674
3963.000000	99.824113
3962.000000	99.824285
3961.000000	99.822168
3960.000000	99.819358
3959.000000	99.817636
3958.000000	99.817719
3957.000000	99.819033
3956.000000	99.820247
3955.000000	99.820282
3954.000000	99.819102
3953.000000	99.817734
3952.000000	99.817458
3951.000000	99.818836
3950.000000	99.821233
3949.000000	99.823339
3948.000000	99.824506
3947.000000	99.825441
3946.000000	99.827371
3945.000000	99.830579
3944.000000	99.834020
3943.000000	99.835795
3942.000000	99.833880
3941.000000	99.827312
3940.000000	99.817538
3939.000000	99.808329
3938.000000	99.803848
3937.000000	99.806122
3936.000000	99.813282
3935.000000	99.820864
3934.000000	99.825212
3933.000000	99.825913
3932.000000	99.825014
3931.000000	99.824193
3930.000000	99.823667
3929.000000	99.823125
3928.000000	99.822211
3927.000000	99.820403
3926.000000	99.817858
3925.000000	99.816342
3924.000000	99.817652
3923.000000	99.821175
3922.000000	99.824324
3921.000000	99.824987
3920.000000	99.823137
3919.000000	99.820306
3918.000000	99.818111
3917.000000	99.816997
3916.000000	99.815739
3915.000000	99.812400
3914.000000	99.806525
3913.000000	99.800203
3912.000000	99.796985
3911.000000	99.799248
3910.000000	99.806330
3909.000000	99.815707
3908.000000	99.824376
3907.000000	99.829220
3906.000000	99.827486
3905.000000	99.819830
3904.000000	99.812186
3903.000000	99.811026
3902.000000	99.816725
3901.000000	99.824132
3900.000000	99.829075
3899.000000	99.831450
3898.000000	99.832798
3897.000000	99.833304
3896.000000	99.832374
3895.000000	99.829665
3894.000000	99.824745
3893.000000	99.817213
3892.000000	99.808933
3891.000000	99.804801
3890.000000	99.808300
3889.000000	99.818214
3888.000000	99.828114
3887.000000	99.831084
3886.000000	99.828399
3885.000000	99.827531
3884.000000	99.831189
3883.000000	99.834816
3882.000000	99.832400
3881.000000	99.823488
3880.000000	99.814023
3879.000000	99.809202
3878.000000	99.809157
3877.000000	99.810353
3876.000000	99.808975
3875.000000	99.805909
3874.000000	99.806287
3873.000000	99.812149
3872.000000	99.818570
3871.000000	99.819880
3870.000000	99.818871
3869.000000	99.822462
3868.000000	99.831237
3867.000000	99.839404
3866.000000	99.841402
3865.000000	99.836843
3864.000000	99.828897
3863.000000	99.819269
3862.000000	99.808754
3861.000000	99.799262
3860.000000	99.792667
3859.000000	99.790439
3858.000000	99.794402
3857.000000	99.805565
3856.000000	99.818422
3855.000000	99.822741
3854.000000	99.821316
3853.000000	99.825905
3852.000000	99.833138
3851.000000	99.834733
3850.000000	99.830719
3849.000000	99.824967
3848.000000	99.820911
3847.000000	99.819925
3846.000000	99.821450
3845.000000	99.823679
3844.000000	99.824443
3843.000000	99.822431
3842.000000	99.818336
3841.000000	99.814933
3840.000000	99.815462
3839.000000	99.821447
3838.000000	99.830291
3837.000000	99.836598
3836.000000	99.837190
3835.000000	99.833240
3834.000000	99.827910
3833.000000	99.823990
3832.000000	99.823313
3831.000000	99.825372
3830.000000	99.827253
3829.000000	99.825542
3828.000000	99.819198
3827.000000	99.811766
3826.000000	99.809480
3825.000000	99.815469
3824.000000	99.825639
3823.000000	99.831247
3822.000000	99.829490
3821.000000	99.827594
3820.000000	99.829976
3819.000000	99.833887
3818.000000	99.834323
3817.000000	99.828005
3816.000000	99.819663
3815.000000	99.816229
3814.000000	99.816657
3813.000000	99.815747
3812.000000	99.812007
3811.000000	99.808859
3810.000000	99.809430
3809.000000	99.811258
3808.000000	99.809512
3807.000000	99.804718
3806.000000	99.801817
3805.000000	99.803909
3804.000000	99.809417
3803.000000	99.813690
3802.000000	99.815742
3801.000000	99.818060
3800.000000	99.819109
3799.000000	99.816537
3798.000000	99.810284
3797.000000	99.802363
3796.000000	99.796219
3795.000000	99.793816
3794.000000	99.794893
3793.000000	99.798209
3792.000000	99.802281
3791.000000	99.805242
3790.000000	99.805677
3789.000000	99.804028
3788.000000	99.802483
3787.000000	99.803142
3786.000000	99.806915
3785.000000	99.813632
3784.000000	99.822086
3783.000000	99.829384
3782.000000	99.831446
3781.000000	99.825569
3780.000000	99.813981
3779.000000	99.803346
3778.000000	99.798829
3777.000000	99.800498
3776.000000	99.805209
3775.000000	99.810091
3774.000000	99.813442
3773.000000	99.813443
3772.000000	99.808617
3771.000000	99.801536
3770.000000	99.799039
3769.000000	99.804356
3768.000000	99.812916
3767.000000	99.818123
3766.000000	99.818037
3765.000000	99.815875
3764.000000	99.815172
3763.000000	99.815755
3762.000000	99.815255
3761.000000	99.813489
3760.000000	99.813007
3759.000000	99.814066
3758.000000	99.813015
3757.000000	99.808752
3756.000000	99.805008
3755.000000	99.805397
3754.000000	99.809499
3753.000000	99.814959
3752.000000	99.821319
3751.000000	99.828770
3750.000000	99.835399
3749.000000	99.840531
3748.000000	99.847007
3747.000000	99.854939
3746.000000	99.856742
3745.000000	99.851619
3744.000000	99.851006
3743.000000	99.855343
3742.000000	99.856345
3741.000000	99.853004
3740.000000	99.850296
3739.000000	99.851175
3738.000000	99.850847
3737.000000	99.843088
3736.000000	99.832110
3735.000000	99.828549
3734.000000	99.833714
3733.000000	99.838543
3732.000000	99.836995
3731.000000	99.831527
3730.000000	99.827144
3729.000000	99.825103
3728.000000	99.822988
3727.000000	99.819439
3726.000000	99.815571
3725.000000	99.811738
3724.000000	99.807537
3723.000000	99.804454
3722.000000	99.805811
3721.000000	99.813090
3720.000000	99.823402
3719.000000	99.831417
3718.000000	99.833740
3717.000000	99.831563
3716.000000	99.828351
3715.000000	99.825703
3714.000000	99.822836
3713.000000	99.820378
3712.000000	99.822265
3711.000000	99.830215
3710.000000	99.839972
3709.000000	99.846144
3708.000000	99.846637
3707.000000	99.842760
3706.000000	99.837380
3705.000000	99.833171
3704.000000	99.831511
3703.000000	99.833038
3702.000000	99.838069
3701.000000	99.845647
3700.000000	99.853295
3699.000000	99.858282
3698.000000	99.858672
3697.000000	99.854454
3696.000000	99.847297
3695.000000	99.837970
3694.000000	99.826162
3693.000000	99.813441
3692.000000	99.805289
3691.000000	99.807700
3690.000000	99.820121
3689.000000	99.833796
3688.000000	99.840610
3687.000000	99.841125
3686.000000	99.840245
3685.000000	99.840097
3684.000000	99.839251
3683.000000	99.835626
3682.000000	99.828446
3681.000000	99.820406
3680.000000	99.817921
3679.000000	99.825415
3678.000000	99.837868
3677.000000	99.843573
3676.000000	99.841066
3675.000000	99.840766
3674.000000	99.846822
3673.000000	99.855250
3672.000000	99.859812
3671.000000	99.856905
3670.000000	99.851341
3669.000000	99.848573
3668.000000	99.847350
3667.000000	99.844974
3666.000000	99.840500
3665.000000	99.834097
3664.000000	99.826727
3663.000000	99.819869
3662.000000	99.815031
3661.000000	99.813980
3660.000000	99.818132
3659.000000	99.826436
3658.000000	99.834050
3657.000000	99.835636
3656.000000	99.830593
3655.000000	99.823101
3654.000000	99.818405
3653.000000	99.818753
3652.000000	99.823821
3651.000000	99.836035
3650.000000	99.858018
3649.000000	99.879616
3648.000000	99.884127
3647.000000	99.869794
3646.000000	99.848242
3645.000000	99.829497
3644.000000	99.816443
3643.000000	99.807606
3642.000000	99.800943
3641.000000	99.795359
3640.000000	99.790276
3639.000000	99.785712
3638.000000	99.782505
3637.000000	99.781197
3636.000000	99.780955
3635.000000	99.780836
3634.000000	99.782272
3633.000000	99.788165
3632.000000	99.798618
3631.000000	99.807502
3630.000000	99.808929
3629.000000	99.806738
3628.000000	99.805600
3627.000000	99.804101
3626.000000	99.801805
3625.000000	99.799985
3624.000000	99.799563
3623.000000	99.800284
3622.000000	99.799896
3621.000000	99.796302
3620.000000	99.791667
3619.000000	99.790981
3618.000000	99.795112
3617.000000	99.800361
3616.000000	99.803444
3615.000000	99.803290
3614.000000	99.801021
3613.000000	99.798508
3612.000000	99.795839
3611.000000	99.791324
3610.000000	99.784368
3609.000000	99.777915
3608.000000	99.775539
3607.000000	99.775583
3606.000000	99.772286
3605.000000	99.762428
3604.000000	99.748045
3603.000000	99.734396
3602.000000	99.726197
3601.000000	99.724944
3600.000000	99.728558
3599.000000	99.733607
3598.000000	99.737761
3597.000000	99.740111
3596.000000	99.740621
3595.000000	99.740274
3594.000000	99.741169
3593.000000	99.744838
3592.000000	99.750684
3591.000000	99.755667
3590.000000	99.755812
3589.000000	99.750448
3588.000000	99.744676
3587.000000	99.743003
3586.000000	99.742926
3585.000000	99.739841
3584.000000	99.732546
3583.000000	99.722408
3582.000000	99.711307
3581.000000	99.701080
3580.000000	99.693599
3579.000000	99.690175
3578.000000	99.690598
3577.000000	99.692719
3576.000000	99.693815
3575.000000	99.692725
3574.000000	99.690697
3573.000000	99.689954
3572.000000	99.691725
3571.000000	99.695462
3570.000000	99.699328
3569.000000	99.702140
3568.000000	99.705170
3567.000000	99.708928
3566.000000	99.709695
3565.000000	99.703849
3564.000000	99.692346
3563.000000	99.678983
3562.000000	99.668044
3561.000000	99.662789
3560.000000	99.663727
3559.000000	99.668126
3558.000000	99.672212
3557.000000	99.673710
3556.000000	99.672136
3555.000000	99.667844
3554.000000	99.661968
3553.000000	99.656783
3552.000000	99.654143
3551.000000	99.653044
3550.000000	99.650155
3549.000000	99.643186
3548.000000	99.633502
3547.000000	99.625575
3546.000000	99.623400
3545.000000	99.627183
3544.000000	99.633860
3543.000000	99.639861
3542.000000	99.642922
3541.000000	99.642733
3540.000000	99.640641
3539.000000	99.638387
3538.000000	99.636550
3537.000000	99.634171
3536.000000	99.629880
3535.000000	99.623470
3534.000000	99.616479
3533.000000	99.611172
3532.000000	99.608845
3531.000000	99.608788
3530.000000	99.608975
3529.000000	99.608036
3528.000000	99.606315
3527.000000	99.604600
3526.000000	99.602614
3525.000000	99.599617
3524.000000	99.595927
3523.000000	99.592802
3522.000000	99.591022
3521.000000	99.590506
3520.000000	99.590953
3519.000000	99.591891
3518.000000	99.592084
3517.000000	99.589838
3516.000000	99.584551
3515.000000	99.577699
3514.000000	99.571887
3513.000000	99.568895
3512.000000	99.568833
3511.000000	99.570876
3510.000000	99.574212
3509.000000	99.578008
3508.000000	99.580911
3507.000000	99.581169
3506.000000	99.577709
3505.000000	99.571383
3504.000000	99.565101
3503.000000	99.561686
3502.000000	99.561214
3501.000000	99.561017
3500.000000	99.558229
3499.000000	99.552046
3498.000000	99.544248
3497.000000	99.538153
3496.000000	99.536232
3495.000000	99.538007
3494.000000	99.540348
3493.000000	99.540128
3492.000000	99.536487
3491.000000	99.530773
3490.000000	99.525089
3489.000000	99.521161
3488.000000	99.519808
3487.000000	99.520443
3486.000000	99.521165
3485.000000	99.520186
3484.000000	99.517547
3483.000000	99.515322
3482.000000	99.515867
3481.000000	99.519589
3480.000000	99.524455
3479.000000	99.527569
3478.000000	99.527248
3477.000000	99.523841
3476.000000	99.518789
3475.000000	99.513038
3474.000000	99.506731
3473.000000	99.500558
3472.000000	99.496445
3471.000000	99.496042
3470.000000	99.498712
3469.000000	99.501708
3468.000000	99.502380
3467.000000	99.500074
3466.000000	99.496375
3465.000000	99.494095
3464.000000	99.495525
3463.000000	99.500476
3462.000000	99.505955
3461.000000	99.508746
3460.000000	99.508414
3459.000000	99.506851
3458.000000	99.504942
3457.000000	99.501259
3456.000000	99.494611
3455.000000	99.486573
3454.000000	99.480220
3453.000000	99.476934
3452.000000	99.475523
3451.000000	99.474087
3450.000000	99.471957
3449.000000	99.470123
3448.000000	99.470538
3447.000000	99.474401
3446.000000	99.480123
3445.000000	99.483471
3444.000000	99.480615
3443.000000	99.471342
3442.000000	99.459478
3441.000000	99.450137
3440.000000	99.446257
3439.000000	99.447147
3438.000000	99.449612
3437.000000	99.450609
3436.000000	99.449645
3435.000000	99.448840
3434.000000	99.450270
3433.000000	99.453293
3432.000000	99.455011
3431.000000	99.453308
3430.000000	99.449013
3429.000000	99.445077
3428.000000	99.443967
3427.000000	99.445901
3426.000000	99.449048
3425.000000	99.451064
3424.000000	99.450610
3423.000000	99.447816
3422.000000	99.443608
3421.000000	99.438710
3420.000000	99.433256
3419.000000	99.427180
3418.000000	99.420765
3417.000000	99.414665
3416.000000	99.409470
3415.000000	99.405307
3414.000000	99.402029
3413.000000	99.399902
3412.000000	99.399784
3411.000000	99.402116
3410.000000	99.405857
3409.000000	99.409029
3408.000000	99.410486
3407.000000	99.410671
3406.000000	99.410501
3405.000000	99.410186
3404.000000	99.409584
3403.000000	99.409031
3402.000000	99.408863
3401.000000	99.408257
3400.000000	99.405597
3399.000000	99.400463
3398.000000	99.394756
3397.000000	99.391152
3396.000000	99.390555
3395.000000	99.391623
3394.000000	99.392667
3393.000000	99.393349
3392.000000	99.394321
3391.000000	99.395798
3390.000000	99.397118
3389.000000	99.397431
3388.000000	99.396107
3387.000000	99.392546
3386.000000	99.386404
3385.000000	99.378438
3384.000000	99.370523
3383.000000	99.364240
3382.000000	99.359719
3381.000000	99.356257
3380.000000	99.353582
3379.000000	99.351822
3378.000000	99.350547
3377.000000	99.348802
3376.000000	99.346255
3375.000000	99.343629
3374.000000	99.341768
3373.000000	99.340806
3372.000000	99.340359
3371.000000	99.339824
3370.000000	99.338043
3369.000000	99.333492
3368.000000	99.325832
3367.000000	99.317201
3366.000000	99.311011
3365.000000	99.309015
3364.000000	99.309873
3363.000000	99.310730
3362.000000	99.309896
3361.000000	99.307855
3360.000000	99.305814
3359.000000	99.303568
3358.000000	99.299201
3357.000000	99.291302
3356.000000	99.281398
3355.000000	99.273457
3354.000000	99.270356
3353.000000	99.271127
3352.000000	99.272139
3351.000000	99.270660
3350.000000	99.266639
3349.000000	99.261429
3348.000000	99.255949
3347.000000	99.250463
3346.000000	99.245293
3345.000000	99.240890
3344.000000	99.237461
3343.000000	99.235002
3342.000000	99.233325
3341.000000	99.231407
3340.000000	99.227210
3339.000000	99.219367
3338.000000	99.209250
3337.000000	99.200218
3336.000000	99.194063
3335.000000	99.189026
3334.000000	99.182483
3333.000000	99.175111
3332.000000	99.170892
3331.000000	99.172741
3330.000000	99.179204
3329.000000	99.185822
3328.000000	99.188779
3327.000000	99.186675
3326.000000	99.179982
3325.000000	99.170455
3324.000000	99.160929
3323.000000	99.154151
3322.000000	99.151093
3321.000000	99.151074
3320.000000	99.153591
3319.000000	99.158861
3318.000000	99.165811
3317.000000	99.170557
3316.000000	99.168646
3315.000000	99.159423
3314.000000	99.147485
3313.000000	99.139064
3312.000000	99.136871
3311.000000	99.138526
3310.000000	99.139758
3309.000000	99.138668
3308.000000	99.136663
3307.000000	99.135740
3306.000000	99.135737
3305.000000	99.134553
3304.000000	99.130382
3303.000000	99.123136
3302.000000	99.114101
3301.000000	99.105101
3300.000000	99.098168
3299.000000	99.095155
3298.000000	99.096881
3297.000000	99.102609
3296.000000	99.110528
3295.000000	99.118703
3294.000000	99.125673
3293.000000	99.130749
3292.000000	99.134059
3291.000000	99.136031
3290.000000	99.136558
3289.000000	99.134877
3288.000000	99.130523
3287.000000	99.124307
3286.000000	99.118313
3285.000000	99.115022
3284.000000	99.115981
3283.000000	99.120386
3282.000000	99.124760
3281.000000	99.125049
3280.000000	99.120009
3279.000000	99.112475
3278.000000	99.106985
3277.000000	99.106163
3276.000000	99.109227
3275.000000	99.113207
3274.000000	99.114950
3273.000000	99.112802
3272.000000	99.107729
3271.000000	99.103003
3270.000000	99.101826
3269.000000	99.104642
3268.000000	99.109005
3267.000000	99.112099
3266.000000	99.113184
3265.000000	99.113776
3264.000000	99.115971
3263.000000	99.120822
3262.000000	99.127691
3261.000000	99.134598
3260.000000	99.139375
3259.000000	99.141020
3258.000000	99.140211
3257.000000	99.138541
3256.000000	99.137222
3255.000000	99.136290
3254.000000	99.134967
3253.000000	99.132923
3252.000000	99.131233
3251.000000	99.131816
3250.000000	99.135607
3249.000000	99.141500
3248.000000	99.147467
3247.000000	99.152484
3246.000000	99.156854
3245.000000	99.160708
3244.000000	99.162903
3243.000000	99.161916
3242.000000	99.157663
3241.000000	99.152380
3240.000000	99.149802
3239.000000	99.152914
3238.000000	99.161488
3237.000000	99.171486
3236.000000	99.177678
3235.000000	99.177652
3234.000000	99.173305
3233.000000	99.168578
3232.000000	99.166239
3231.000000	99.166851
3230.000000	99.169787
3229.000000	99.174042
3228.000000	99.178206
3227.000000	99.180686
3226.000000	99.180627
3225.000000	99.178568
3224.000000	99.176073
3223.000000	99.174686
3222.000000	99.175041
3221.000000	99.176664
3220.000000	99.178555
3219.000000	99.180061
3218.000000	99.181232
3217.000000	99.182550
3216.000000	99.184726
3215.000000	99.188657
3214.000000	99.194671
3213.000000	99.201284
3212.000000	99.205358
3211.000000	99.204516
3210.000000	99.199552
3209.000000	99.193892
3208.000000	99.190625
3207.000000	99.190367
3206.000000	99.191873
3205.000000	99.193930
3204.000000	99.196289
3203.000000	99.199367
3202.000000	99.203546
3201.000000	99.208615
3200.000000	99.213526
3199.000000	99.216784
3198.000000	99.217278
3197.000000	99.214890
3196.000000	99.210553
3195.000000	99.206032
3194.000000	99.203425
3193.000000	99.204100
3192.000000	99.207501
3191.000000	99.211292
3190.000000	99.213227
3189.000000	99.213042
3188.000000	99.212406
3187.000000	99.213109
3186.000000	99.215385
3185.000000	99.217751
3184.000000	99.218442
3183.000000	99.217253
3182.000000	99.216194
3181.000000	99.217950
3180.000000	99.223208
3179.000000	99.229626
3178.000000	99.233977
3177.000000	99.235458
3176.000000	99.236380
3175.000000	99.239430
3174.000000	99.244887
3173.000000	99.250845
3172.000000	99.255540
3171.000000	99.258777
3170.000000	99.261246
3169.000000	99.263373
3168.000000	99.265249
3167.000000	99.267115
3166.000000	99.269241
3165.000000	99.271437
3164.000000	99.273301
3163.000000	99.275008
3162.000000	99.277355
3161.000000	99.280731
3160.000000	99.284376
3159.000000	99.287009
3158.000000	99.288130
3157.000000	99.288493
3156.000000	99.289418
3155.000000	99.291776
3154.000000	99.295490
3153.000000	99.299694
3152.000000	99.303398
3151.000000	99.306228
3150.000000	99.308453
3149.000000	99.310097
3148.000000	99.310193
3147.000000	99.307550
3146.000000	99.302561
3145.000000	99.297978
3144.000000	99.297307
3143.000000	99.302034
3142.000000	99.310273
3141.000000	99.318143
3140.000000	99.322780
3139.000000	99.324475
3138.000000	99.326042
3137.000000	99.329777
3136.000000	99.334791
3135.000000	99.337549
3134.000000	99.335336
3133.000000	99.329172
3132.000000	99.323170
3131.000000	99.321229
3130.000000	99.324568
3129.000000	99.331783
3128.000000	99.340195
3127.000000	99.347084
3126.000000	99.350805
3125.000000	99.351643
3124.000000	99.351388
3123.000000	99.351481
3122.000000	99.351608
3121.000000	99.350458
3120.000000	99.347601
3119.000000	99.344072
3118.000000	99.341143
3117.000000	99.339275
3116.000000	99.338474
3115.000000	99.339067
3114.000000	99.341357
3113.000000	99.344555
3112.000000	99.346671
3111.000000	99.345938
3110.000000	99.342456
3109.000000	99.338357
3108.000000	99.336160
3107.000000	99.336762
3106.000000	99.338933
3105.000000	99.340701
3104.000000	99.341016
3103.000000	99.339926
3102.000000	99.337725
3101.000000	99.334736
3100.000000	99.331845
3099.000000	99.330210
3098.000000	99.329893
3097.000000	99.329466
3096.000000	99.327677
3095.000000	99.325195
3094.000000	99.323897
3093.000000	99.324544
3092.000000	99.325871
3091.000000	99.325972
3090.000000	99.323907
3089.000000	99.319901
3088.000000	99.314817
3087.000000	99.309890
3086.000000	99.306468
3085.000000	99.305384
3084.000000	99.306525
3083.000000	99.309059
3082.000000	99.311779
3081.000000	99.313267
3080.000000	99.312558
3079.000000	99.310267
3078.000000	99.308647
3077.000000	99.309740
3076.000000	99.313401
3075.000000	99.317410
3074.000000	99.319375
3073.000000	99.318416
3072.000000	99.315562
3071.000000	99.313079
3070.000000	99.313008
3069.000000	99.315409
3068.000000	99.317936
3067.000000	99.317852
3066.000000	99.314769
3065.000000	99.310984
3064.000000	99.309046
3063.000000	99.309686
3062.000000	99.312138
3061.000000	99.315372
3060.000000	99.318442
3059.000000	99.320644
3058.000000	99.322513
3057.000000	99.326179
3056.000000	99.333369
3055.000000	99.342932
3054.000000	99.351323
3053.000000	99.355846
3052.000000	99.356732
3051.000000	99.356043
3050.000000	99.355519
3049.000000	99.355875
3048.000000	99.357247
3047.000000	99.359228
3046.000000	99.360684
3045.000000	99.360387
3044.000000	99.358182
3043.000000	99.355378
3042.000000	99.354027
3041.000000	99.355806
3040.000000	99.361181
3039.000000	99.368993
3038.000000	99.376823
3037.000000	99.382304
3036.000000	99.384508
3035.000000	99.384214
3034.000000	99.382915
3033.000000	99.381618
3032.000000	99.380506
3031.000000	99.379576
3030.000000	99.379531
3029.000000	99.381903
3028.000000	99.387818
3027.000000	99.396317
3026.000000	99.404255
3025.000000	99.408600
3024.000000	99.409031
3023.000000	99.407859
3022.000000	99.407432
3021.000000	99.408252
3020.000000	99.409688
3019.000000	99.411549
3018.000000	99.414041
3017.000000	99.416506
3016.000000	99.417348
3015.000000	99.415819
3014.000000	99.413554
3013.000000	99.413654
3012.000000	99.417885
3011.000000	99.424719
3010.000000	99.430348
3009.000000	99.431807
3008.000000	99.429184
3007.000000	99.424947
3006.000000	99.421434
3005.000000	99.419249
3004.000000	99.417851
3003.000000	99.417075
3002.000000	99.417666
3001.000000	99.420515
3000.000000	99.425716
2999.000000	99.432277
2998.000000	99.438503
2997.000000	99.442776
2996.000000	99.444403
2995.000000	99.443897
2994.000000	99.442216
2993.000000	99.439574
2992.000000	99.435186
2991.000000	99.428461
2990.000000	99.420384
2989.000000	99.413445
2988.000000	99.410016
2987.000000	99.410717
2986.000000	99.414181
2985.000000	99.417963
2984.000000	99.419528
2983.000000	99.417137
2982.000000	99.410893
2981.000000	99.403270
2980.000000	99.397743
2979.000000	99.396057
2978.000000	99.396901
2977.000000	99.397607
2976.000000	99.396689
2975.000000	99.394217
2974.000000	99.390424
2973.000000	99.385395
2972.000000	99.380215
2971.000000	99.376824
2970.000000	99.375852
2969.000000	99.375575
2968.000000	99.374272
2967.000000	99.372907
2966.000000	99.374030
2965.000000	99.378092
2964.000000	99.382230
2963.000000	99.383050
2962.000000	99.379505
2961.000000	99.372717
2960.000000	99.364187
2959.000000	99.355081
2958.000000	99.346446
2957.000000	99.338973
2956.000000	99.332669
2955.000000	99.327544
2954.000000	99.324453
2953.000000	99.324559
2952.000000	99.327884
2951.000000	99.332935
2950.000000	99.337737
2949.000000	99.340728
2948.000000	99.340739
2947.000000	99.336968
2946.000000	99.329623
2945.000000	99.320389
2944.000000	99.311842
2943.000000	99.306099
2942.000000	99.303741
2941.000000	99.303675
2940.000000	99.304047
2939.000000	99.303591
2938.000000	99.302224
2937.000000	99.300208
2936.000000	99.296967
2935.000000	99.291254
2934.000000	99.282654
2933.000000	99.272417
2932.000000	99.262465
2931.000000	99.253856
2930.000000	99.246416
2929.000000	99.239425
2928.000000	99.232057
2927.000000	99.223370
2926.000000	99.212629
2925.000000	99.200047
2924.000000	99.186888
2923.000000	99.174459
2922.000000	99.163178
2921.000000	99.153045
2920.000000	99.144942
2919.000000	99.140735
2918.000000	99.141683
2917.000000	99.147120
2916.000000	99.155314
2915.000000	99.165573
2914.000000	99.178762
2913.000000	99.195443
2912.000000	99.214019
2911.000000	99.231263
2910.000000	99.244523
2909.000000	99.253253
2908.000000	99.258965
2907.000000	99.264323
2906.000000	99.271901
2905.000000	99.282665
2904.000000	99.295097
2903.000000	99.306214
2902.000000	99.313665
2901.000000	99.316986
2900.000000	99.317429
2899.000000	99.317287
2898.000000	99.319231
2897.000000	99.324873
2896.000000	99.333197
2895.000000	99.340926
2894.000000	99.345241
2893.000000	99.345972
2892.000000	99.344873
2891.000000	99.343546
2890.000000	99.342827
2889.000000	99.343621
2888.000000	99.346815
2887.000000	99.351884
2886.000000	99.356444
2885.000000	99.357934
2884.000000	99.355805
2883.000000	99.352017
2882.000000	99.349668
2881.000000	99.351079
2880.000000	99.356411
2879.000000	99.363612
2878.000000	99.369765
2877.000000	99.372843
2876.000000	99.372544
2875.000000	99.369852
2874.000000	99.366282
2873.000000	99.363310
2872.000000	99.361845
2871.000000	99.361890
2870.000000	99.362937
2869.000000	99.364738
2868.000000	99.367260
2867.000000	99.369858
2866.000000	99.371210
2865.000000	99.370626
2864.000000	99.369024
2863.000000	99.368001
2862.000000	99.368063
2861.000000	99.368182
2860.000000	99.366884
2859.000000	99.363103
2858.000000	99.356140
2857.000000	99.345780
2856.000000	99.332902
2855.000000	99.319400
2854.000000	99.306833
2853.000000	99.295300
2852.000000	99.284200
2851.000000	99.274056
2850.000000	99.267029
2849.000000	99.265363
2848.000000	99.269550
2847.000000	99.278361
2846.000000	99.290467
2845.000000	99.305443
2844.000000	99.322921
2843.000000	99.341216
2842.000000	99.357486
2841.000000	99.369553
2840.000000	99.377522
2839.000000	99.383435
2838.000000	99.389471
2837.000000	99.396512
2836.000000	99.404106
2835.000000	99.411320
2834.000000	99.417437
2833.000000	99.422217
2832.000000	99.425970
2831.000000	99.429404
2830.000000	99.433076
2829.000000	99.436858
2828.000000	99.440103
2827.000000	99.442347
2826.000000	99.443541
2825.000000	99.443501
2824.000000	99.441808
2823.000000	99.438964
2822.000000	99.437335
2821.000000	99.439742
2820.000000	99.446508
2819.000000	99.454477
2818.000000	99.459723
2817.000000	99.461041
2816.000000	99.460343
2815.000000	99.460003
2814.000000	99.460615
2813.000000	99.461292
2812.000000	99.461195
2811.000000	99.460224
2810.000000	99.458704
2809.000000	99.456978
2808.000000	99.455271
2807.000000	99.453652
2806.000000	99.452095
2805.000000	99.450673
2804.000000	99.449657
2803.000000	99.449409
2802.000000	99.450185
2801.000000	99.451891
2800.000000	99.453838
2799.000000	99.454940
2798.000000	99.454623
2797.000000	99.453591
2796.000000	99.453267
2795.000000	99.454357
2794.000000	99.456363
2793.000000	99.458661
2792.000000	99.461476
2791.000000	99.465305
2790.000000	99.469703
2789.000000	99.473339
2788.000000	99.475315
2787.000000	99.475935
2786.000000	99.475893
2785.000000	99.474999
2784.000000	99.472247
2783.000000	99.467388
2782.000000	99.462185
2781.000000	99.459562
2780.000000	99.461088
2779.000000	99.465431
2778.000000	99.469535
2777.000000	99.471281
2776.000000	99.470905
2775.000000	99.470279
2774.000000	99.471308
2773.000000	99.474733
2772.000000	99.479576
2771.000000	99.483562
2770.000000	99.484863
2769.000000	99.483891
2768.000000	99.482930
2767.000000	99.483706
2766.000000	99.485807
2765.000000	99.487790
2764.000000	99.489156
2763.000000	99.490528
2762.000000	99.492267
2761.000000	99.493729
2760.000000	99.493969
2759.000000	99.492811
2758.000000	99.491284
2757.000000	99.491086
2756.000000	99.493196
2755.000000	99.496739
2754.000000	99.499741
2753.000000	99.501348
2752.000000	99.502585
2751.000000	99.504280
2750.000000	99.505185
2749.000000	99.503504
2748.000000	99.499898
2747.000000	99.497341
2746.000000	99.497645
2745.000000	99.499430
2744.000000	99.500135
2743.000000	99.499001
2742.000000	99.497236
2741.000000	99.495923
2740.000000	99.494832
2739.000000	99.493254
2738.000000	99.491409
2737.000000	99.490939
2736.000000	99.493871
2735.000000	99.500547
2734.000000	99.508401
2733.000000	99.513556
2732.000000	99.514306
2731.000000	99.512511
2730.000000	99.511018
2729.000000	99.510278
2728.000000	99.508552
2727.000000	99.505201
2726.000000	99.502430
2725.000000	99.503220
2724.000000	99.508144
2723.000000	99.514793
2722.000000	99.519901
2721.000000	99.521494
2720.000000	99.519381
2719.000000	99.514634
2718.000000	99.509192
2717.000000	99.505448
2716.000000	99.505113
2715.000000	99.507873
2714.000000	99.511529
2713.000000	99.514008
2712.000000	99.515054
2711.000000	99.515514
2710.000000	99.515463
2709.000000	99.514319
2708.000000	99.512997
2707.000000	99.514364
2706.000000	99.520128
2705.000000	99.527800
2704.000000	99.532393
2703.000000	99.531518
2702.000000	99.527858
2701.000000	99.526164
2700.000000	99.528491
2699.000000	99.532757
2698.000000	99.535209
2697.000000	99.533556
2696.000000	99.528378
2695.000000	99.522636
2694.000000	99.519865
2693.000000	99.521907
2692.000000	99.527643
2691.000000	99.533862
2690.000000	99.537458
2689.000000	99.536973
2688.000000	99.532765
2687.000000	99.526707
2686.000000	99.521749
2685.000000	99.520642
2684.000000	99.524017
2683.000000	99.529767
2682.000000	99.534798
2681.000000	99.537403
2680.000000	99.537842
2679.000000	99.537149
2678.000000	99.536132
2677.000000	99.535347
2676.000000	99.534950
2675.000000	99.534246
2674.000000	99.532281
2673.000000	99.529596
2672.000000	99.528625
2671.000000	99.531066
2670.000000	99.534962
2669.000000	99.535713
2668.000000	99.530688
2667.000000	99.522195
2666.000000	99.515164
2665.000000	99.512252
2664.000000	99.511907
2663.000000	99.510983
2662.000000	99.508293
2661.000000	99.505303
2660.000000	99.504040
2659.000000	99.505112
2658.000000	99.507681
2657.000000	99.510701
2656.000000	99.513729
2655.000000	99.516687
2654.000000	99.519334
2653.000000	99.521354
2652.000000	99.522817
2651.000000	99.524098
2650.000000	99.525192
2649.000000	99.525511
2648.000000	99.524757
2647.000000	99.523719
2646.000000	99.523639
2645.000000	99.524784
2644.000000	99.526220
2643.000000	99.527185
2642.000000	99.528123
2641.000000	99.530016
2640.000000	99.533127
2639.000000	99.536892
2638.000000	99.540725
2637.000000	99.544294
2636.000000	99.547078
2635.000000	99.548327
2634.000000	99.547775
2633.000000	99.546200
2632.000000	99.545188
2631.000000	99.546339
2630.000000	99.550319
2629.000000	99.556166
2628.000000	99.561644
2627.000000	99.564859
2626.000000	99.565645
2625.000000	99.565141
2624.000000	99.564363
2623.000000	99.563929
2622.000000	99.564873
2621.000000	99.568344
2620.000000	99.573883
2619.000000	99.578945
2618.000000	99.580912
2617.000000	99.579126
2616.000000	99.574591
2615.000000	99.568761
2614.000000	99.563625
2613.000000	99.561922
2612.000000	99.565258
2611.000000	99.571716
2610.000000	99.576879
2609.000000	99.578005
2608.000000	99.576591
2607.000000	99.576312
2606.000000	99.579111
2605.000000	99.584032
2604.000000	99.589269
2603.000000	99.594325
2602.000000	99.599777
2601.000000	99.605385
2600.000000	99.609215
2599.000000	99.609039
2598.000000	99.604390
2597.000000	99.596908
2596.000000	99.589019
2595.000000	99.583005
2594.000000	99.580873
2593.000000	99.583319
2592.000000	99.588077
2591.000000	99.591061
2590.000000	99.590781
2589.000000	99.590647
2588.000000	99.595175
2587.000000	99.604482
2586.000000	99.614192
2585.000000	99.620108
2584.000000	99.621206
2583.000000	99.618744
2582.000000	99.615070
2581.000000	99.613449
2580.000000	99.616191
2579.000000	99.621755
2578.000000	99.625751
2577.000000	99.625924
2576.000000	99.624538
2575.000000	99.625247
2574.000000	99.629666
2573.000000	99.637765
2572.000000	99.648581
2571.000000	99.658585
2570.000000	99.662078
2569.000000	99.656558
2568.000000	99.646617
2567.000000	99.639617
2566.000000	99.638301
2565.000000	99.639972
2564.000000	99.641700
2563.000000	99.642931
2562.000000	99.643260
2561.000000	99.641514
2560.000000	99.638194
2559.000000	99.635868
2558.000000	99.635481
2557.000000	99.634466
2556.000000	99.630332
2555.000000	99.624493
2554.000000	99.620708
2553.000000	99.620859
2552.000000	99.624202
2551.000000	99.629792
2550.000000	99.637259
2549.000000	99.644874
2548.000000	99.648922
2547.000000	99.646548
2546.000000	99.638885
2545.000000	99.630530
2544.000000	99.625947
2543.000000	99.626710
2542.000000	99.631757
2541.000000	99.638977
2540.000000	99.645743
2539.000000	99.648878
2538.000000	99.646039
2537.000000	99.637925
2536.000000	99.628314
2535.000000	99.621250
2534.000000	99.618580
2533.000000	99.620139
2532.000000	99.624904
2531.000000	99.631102
2530.000000	99.636373
2529.000000	99.639307
2528.000000	99.640455
2527.000000	99.640864
2526.000000	99.640271
2525.000000	99.638052
2524.000000	99.635454
2523.000000	99.635206
2522.000000	99.638497
2521.000000	99.643276
2520.000000	99.645738
2519.000000	99.643013
2518.000000	99.634951
2517.000000	99.624653
2516.000000	99.617205
2515.000000	99.616426
2514.000000	99.621912
2513.000000	99.629474
2512.000000	99.634563
2511.000000	99.635104
2510.000000	99.631515
2509.000000	99.625126
2508.000000	99.616967
2507.000000	99.607811
2506.000000	99.599296
2505.000000	99.594661
2504.000000	99.597157
2503.000000	99.606793
2502.000000	99.619447
2501.000000	99.630323
2500.000000	99.637623
2499.000000	99.642016
2498.000000	99.643539
2497.000000	99.641027
2496.000000	99.634418
2495.000000	99.625861
2494.000000	99.618299
2493.000000	99.613926
2492.000000	99.613604
2491.000000	99.616260
2490.000000	99.619254
2489.000000	99.621095
2488.000000	99.623347
2487.000000	99.627555
2486.000000	99.630624
2485.000000	99.626630
2484.000000	99.614764
2483.000000	99.602760
2482.000000	99.599959
2481.000000	99.608415
2480.000000	99.622276
2479.000000	99.634456
2478.000000	99.641672
2477.000000	99.644216
2476.000000	99.644259
2475.000000	99.644813
2474.000000	99.648028
2473.000000	99.653162
2472.000000	99.657248
2471.000000	99.658424
2470.000000	99.657660
2469.000000	99.656575
2468.000000	99.654669
2467.000000	99.650182
2466.000000	99.643507
2465.000000	99.638389
2464.000000	99.638737
2463.000000	99.644498
2462.000000	99.651414
2461.000000	99.654810
2460.000000	99.653218
2459.000000	99.648254
2458.000000	99.642218
2457.000000	99.636994
2456.000000	99.634592
2455.000000	99.636798
2454.000000	99.643228
2453.000000	99.650371
2452.000000	99.653549
2451.000000	99.650050
2450.000000	99.640801
2449.000000	99.629858
2448.000000	99.622460
2447.000000	99.622362
2446.000000	99.629706
2445.000000	99.641270
2444.000000	99.653040
2443.000000	99.662418
2442.000000	99.668226
2441.000000	99.669926
2440.000000	99.667963
2439.000000	99.664321
2438.000000	99.661358
2437.000000	99.659872
2436.000000	99.659161
2435.000000	99.659111
2434.000000	99.661136
2433.000000	99.666171
2432.000000	99.672304
2431.000000	99.675682
2430.000000	99.674231
2429.000000	99.669898
2428.000000	99.666703
2427.000000	99.666725
2426.000000	99.668514
2425.000000	99.669281
2424.000000	99.667880
2423.000000	99.665274
2422.000000	99.662749
2421.000000	99.660620
2420.000000	99.658874
2419.000000	99.658227
2418.000000	99.659619
2417.000000	99.662426
2416.000000	99.663928
2415.000000	99.661524
2414.000000	99.655630
2413.000000	99.649702
2412.000000	99.646923
2411.000000	99.647467
2410.000000	99.649527
2409.000000	99.652172
2408.000000	99.656065
2407.000000	99.661733
2406.000000	99.668378
2405.000000	99.674344
2404.000000	99.677651
2403.000000	99.676477
2402.000000	99.670960
2401.000000	99.664772
2400.000000	99.662877
2399.000000	99.666492
2398.000000	99.671751
2397.000000	99.674642
2396.000000	99.675826
2395.000000	99.678834
2394.000000	99.684504
2393.000000	99.689498
2392.000000	99.690293
2391.000000	99.686889
2390.000000	99.682155
2389.000000	99.678924
2388.000000	99.678353
2387.000000	99.679785
2386.000000	99.681530
2385.000000	99.682105
2384.000000	99.681422
2383.000000	99.680843
2382.000000	99.681579
2381.000000	99.683341
2380.000000	99.684181
2379.000000	99.681680
2378.000000	99.675032
2377.000000	99.666532
2376.000000	99.660784
2375.000000	99.661568
2374.000000	99.669486
2373.000000	99.682231
2372.000000	99.696304
2371.000000	99.708221
2370.000000	99.715492
2369.000000	99.717219
2368.000000	99.712750
2367.000000	99.701274
2366.000000	99.685013
2365.000000	99.671737
2364.000000	99.669062
2363.000000	99.674484
2362.000000	99.677671
2361.000000	99.674483
2360.000000	99.670592
2359.000000	99.673057
2358.000000	99.681521
2357.000000	99.688812
2356.000000	99.689492
2355.000000	99.680618
2354.000000	99.666180
2353.000000	99.656030
2352.000000	99.657206
2351.000000	99.665440
2350.000000	99.670105
2349.000000	99.667211
2348.000000	99.660994
2347.000000	99.658478
2346.000000	99.660996
2345.000000	99.660860
2344.000000	99.652585
2343.000000	99.640052
2342.000000	99.633709
2341.000000	99.636464
2340.000000	99.640808
2339.000000	99.639991
2338.000000	99.634959
2337.000000	99.630669
2336.000000	99.629052
2335.000000	99.630614
2334.000000	99.635886
2333.000000	99.645332
2332.000000	99.654232
2331.000000	99.657822
2330.000000	99.653012
2329.000000	99.643918
2328.000000	99.633229
2327.000000	99.622328
2326.000000	99.611551
2325.000000	99.604112
2324.000000	99.604883
2323.000000	99.614538
2322.000000	99.626679
2321.000000	99.631822
2320.000000	99.625242
2319.000000	99.611782
2318.000000	99.598258
2317.000000	99.589206
2316.000000	99.584081
2315.000000	99.583816
2314.000000	99.589005
2313.000000	99.599423
2312.000000	99.610536
2311.000000	99.618563
2310.000000	99.621753
2309.000000	99.621953
2308.000000	99.620803
2307.000000	99.619507
2306.000000	99.618495
2305.000000	99.619159
2304.000000	99.622692
2303.000000	99.628984
2302.000000	99.635322
2301.000000	99.639811
2300.000000	99.642939
2299.000000	99.647683
2298.000000	99.653973
2297.000000	99.658347
2296.000000	99.656298
2295.000000	99.647899
2294.000000	99.637238
2293.000000	99.629462
2292.000000	99.627120
2291.000000	99.629496
2290.000000	99.633439
2289.000000	99.635103
2288.000000	99.632328
2287.000000	99.625685
2286.000000	99.617991
2285.000000	99.612034
2284.000000	99.609209
2283.000000	99.608893
2282.000000	99.609681
2281.000000	99.610546
2280.000000	99.611196
2279.000000	99.610925
2278.000000	99.608580
2277.000000	99.604595
2276.000000	99.601972
2275.000000	99.604124
2274.000000	99.611660
2273.000000	99.622336
2272.000000	99.632353
2271.000000	99.637011
2270.000000	99.632699
2269.000000	99.621888
2268.000000	99.614573
2267.000000	99.619812
2266.000000	99.635079
2265.000000	99.648139
2264.000000	99.650678
2263.000000	99.646837
2262.000000	99.646574
2261.000000	99.654196
2260.000000	99.666028
2259.000000	99.676157
2258.000000	99.681722
2257.000000	99.683443
2256.000000	99.683716
2255.000000	99.683682
2254.000000	99.681124
2253.000000	99.672665
2252.000000	99.658820
2251.000000	99.645759
2250.000000	99.640656
2249.000000	99.646076
2248.000000	99.658564
2247.000000	99.671709
2246.000000	99.680669
2245.000000	99.685636
2244.000000	99.691153
2243.000000	99.700895
2242.000000	99.713271
2241.000000	99.723362
2240.000000	99.727548
2239.000000	99.724023
2238.000000	99.711077
2237.000000	99.689559
2236.000000	99.666161
2235.000000	99.649529
2234.000000	99.643079
2233.000000	99.645162
2232.000000	99.654215
2231.000000	99.667784
2230.000000	99.677615
2229.000000	99.674164
2228.000000	99.658650
2227.000000	99.644407
2226.000000	99.643746
2225.000000	99.658547
2224.000000	99.683887
2223.000000	99.712485
2222.000000	99.732382
2221.000000	99.729669
2220.000000	99.701083
2219.000000	99.659049
2218.000000	99.619498
2217.000000	99.591051
2216.000000	99.579507
2215.000000	99.593424
2214.000000	99.635234
2213.000000	99.691434
2212.000000	99.741266
2211.000000	99.773332
2210.000000	99.785706
2209.000000	99.774558
2208.000000	99.735545
2207.000000	99.676896
2206.000000	99.621114
2205.000000	99.589142
2204.000000	99.586144
2203.000000	99.603081
2202.000000	99.627112
2201.000000	99.648974
2200.000000	99.665717
2199.000000	99.679797
2198.000000	99.693795
2197.000000	99.705599
2196.000000	99.710348
2195.000000	99.706274
2194.000000	99.696489
2193.000000	99.686710
2192.000000	99.682180
2191.000000	99.682479
2190.000000	99.676649
2189.000000	99.650419
2188.000000	99.605575
2187.000000	99.566781
2186.000000	99.558441
2185.000000	99.576122
2184.000000	99.590866
2183.000000	99.584273
2182.000000	99.569568
2181.000000	99.573517
2180.000000	99.606755
2179.000000	99.657918
2178.000000	99.708849
2177.000000	99.746275
2176.000000	99.763741
2175.000000	99.761061
2174.000000	99.741752
2173.000000	99.708886
2172.000000	99.665876
2171.000000	99.622619
2170.000000	99.595790
2169.000000	99.596496
2168.000000	99.616300
2167.000000	99.630381
2166.000000	99.618362
2165.000000	99.582502
2164.000000	99.546886
2163.000000	99.538411
2162.000000	99.568427
2161.000000	99.628705
2160.000000	99.699650
2159.000000	99.761895
2158.000000	99.803163
2157.000000	99.820519
2156.000000	99.820854
2155.000000	99.815733
2154.000000	99.812135
2153.000000	99.808673
2152.000000	99.802156
2151.000000	99.795855
2150.000000	99.797033
2149.000000	99.805132
2148.000000	99.807773
2147.000000	99.794353
2146.000000	99.772644
2145.000000	99.765666
2144.000000	99.788396
2143.000000	99.830766
2142.000000	99.867335
2141.000000	99.881143
2140.000000	99.875160
2139.000000	99.862035
2138.000000	99.849149
2137.000000	99.836807
2136.000000	99.825200
2135.000000	99.817111
2134.000000	99.814071
2133.000000	99.813774
2132.000000	99.811816
2131.000000	99.804533
2130.000000	99.790926
2129.000000	99.773873
2128.000000	99.758883
2127.000000	99.749660
2126.000000	99.744922
2125.000000	99.740546
2124.000000	99.734521
2123.000000	99.729149
2122.000000	99.728781
2121.000000	99.735212
2120.000000	99.743935
2119.000000	99.745495
2118.000000	99.733913
2117.000000	99.715313
2116.000000	99.705001
2115.000000	99.711990
2114.000000	99.728743
2113.000000	99.739509
2112.000000	99.737413
2111.000000	99.728857
2110.000000	99.722000
2109.000000	99.717535
2108.000000	99.712247
2107.000000	99.706095
2106.000000	99.701972
2105.000000	99.701599
2104.000000	99.705092
2103.000000	99.712559
2102.000000	99.722833
2101.000000	99.731535
2100.000000	99.733728
2099.000000	99.729215
2098.000000	99.724257
2097.000000	99.727594
2096.000000	99.743569
2095.000000	99.766662
2094.000000	99.782609
2093.000000	99.778209
2092.000000	99.753430
2091.000000	99.722955
2090.000000	99.703742
2089.000000	99.699982
2088.000000	99.700616
2087.000000	99.693222
2086.000000	99.679321
2085.000000	99.673516
2084.000000	99.686278
2083.000000	99.709956
2082.000000	99.725972
2081.000000	99.724901
2080.000000	99.714570
2079.000000	99.707106
2078.000000	99.703892
2077.000000	99.698423
2076.000000	99.689244
2075.000000	99.682483
2074.000000	99.682846
2073.000000	99.688739
2072.000000	99.696447
2071.000000	99.703302
2070.000000	99.705853
2069.000000	99.700651
2068.000000	99.689257
2067.000000	99.678240
2066.000000	99.672328
2065.000000	99.670774
2064.000000	99.671813
2063.000000	99.677422
2062.000000	99.690972
2061.000000	99.711171
2060.000000	99.728541
2059.000000	99.728322
2058.000000	99.701726
2057.000000	99.659680
2056.000000	99.631576
2055.000000	99.639746
2054.000000	99.673310
2053.000000	99.695861
2052.000000	99.683316
2051.000000	99.647909
2050.000000	99.623520
2049.000000	99.633377
2048.000000	99.672822
2047.000000	99.718836
2046.000000	99.750504
2045.000000	99.760182
2044.000000	99.754114
2043.000000	99.745662
2042.000000	99.743735
2041.000000	99.744823
2040.000000	99.736015
2039.000000	99.705881
2038.000000	99.654031
2037.000000	99.595528
2036.000000	99.556328
2035.000000	99.557658
2034.000000	99.602510
2033.000000	99.676468
2032.000000	99.756947
2031.000000	99.820186
2030.000000	99.846693
2029.000000	99.834845
2028.000000	99.810929
2027.000000	99.809344
2026.000000	99.837000
2025.000000	99.867510
2024.000000	99.874335
2023.000000	99.859692
2022.000000	99.844655
2021.000000	99.841976
2020.000000	99.847532
2019.000000	99.852357
2018.000000	99.853587
2017.000000	99.854149
2016.000000	99.856999
2015.000000	99.860654
2014.000000	99.859276
2013.000000	99.847653
2012.000000	99.826910
2011.000000	99.804943
2010.000000	99.792623
2009.000000	99.798992
2008.000000	99.823128
2007.000000	99.848018
2006.000000	99.850627
2005.000000	99.824641
2004.000000	99.788127
2003.000000	99.763384
2002.000000	99.756952
2001.000000	99.762346
2000.000000	99.771439
1999.000000	99.776352
1998.000000	99.769789
1997.000000	99.754287
1996.000000	99.744554
1995.000000	99.749365
1994.000000	99.757758
1993.000000	99.755272
1992.000000	99.749038
1991.000000	99.757739
1990.000000	99.778589
1989.000000	99.789338
1988.000000	99.782721
1987.000000	99.775638
1986.000000	99.778486
1985.000000	99.776191
1984.000000	99.751788
1983.000000	99.713643
1982.000000	99.685128
1981.000000	99.677953
1980.000000	99.689701
1979.000000	99.719735
1978.000000	99.769654
1977.000000	99.825222
1976.000000	99.854046
1975.000000	99.831126
1974.000000	99.762331
1973.000000	99.685518
1972.000000	99.648171
1971.000000	99.671604
1970.000000	99.733019
1969.000000	99.786158
1968.000000	99.802814
1967.000000	99.793976
1966.000000	99.789751
1965.000000	99.807723
1964.000000	99.844599
1963.000000	99.884491
1962.000000	99.905602
1961.000000	99.890779
1960.000000	99.843041
1959.000000	99.784928
1958.000000	99.739098
1957.000000	99.715924
1956.000000	99.717389
1955.000000	99.741523
1954.000000	99.778974
1953.000000	99.812971
1952.000000	99.829002
1951.000000	99.823265
1950.000000	99.801562
1949.000000	99.775841
1948.000000	99.761181
1947.000000	99.766499
1946.000000	99.785135
1945.000000	99.801534
1944.000000	99.809019
1943.000000	99.813497
1942.000000	99.817475
1941.000000	99.812990
1940.000000	99.797910
1939.000000	99.784637
1938.000000	99.785374
1937.000000	99.797106
1936.000000	99.806664
1935.000000	99.806744
1934.000000	99.799471
1933.000000	99.788344
1932.000000	99.775416
1931.000000	99.765638
1930.000000	99.766131
1929.000000	99.779350
1928.000000	99.800989
1927.000000	99.823951
1926.000000	99.841671
1925.000000	99.847935
1924.000000	99.839404
1923.000000	99.820310
1922.000000	99.800203
1921.000000	99.785098
1920.000000	99.774589
1919.000000	99.766727
1918.000000	99.761430
1917.000000	99.757621
1916.000000	99.752272
1915.000000	99.744984
1914.000000	99.739384
1913.000000	99.738855
1912.000000	99.741641
1911.000000	99.741939
1910.000000	99.736959
1909.000000	99.732013
1908.000000	99.735815
1907.000000	99.749571
1906.000000	99.764955
1905.000000	99.772422
1904.000000	99.770020
1903.000000	99.762383
1902.000000	99.752695
1901.000000	99.741005
1900.000000	99.730316
1899.000000	99.727383
1898.000000	99.735179
1897.000000	99.747475
1896.000000	99.754207
1895.000000	99.751873
1894.000000	99.746217
1893.000000	99.745473
1892.000000	99.753579
1891.000000	99.768313
1890.000000	99.782353
1889.000000	99.787634
1888.000000	99.782600
1887.000000	99.772630
1886.000000	99.762715
1885.000000	99.754485
1884.000000	99.749011
1883.000000	99.748130
1882.000000	99.751570
1881.000000	99.755564
1880.000000	99.756525
1879.000000	99.754671
1878.000000	99.753472
1877.000000	99.756801
1876.000000	99.765996
1875.000000	99.777753
1874.000000	99.784672
1873.000000	99.780899
1872.000000	99.768995
1871.000000	99.758939
1870.000000	99.759392
1869.000000	99.769573
1868.000000	99.779922
1867.000000	99.784437
1866.000000	99.786479
1865.000000	99.790813
1864.000000	99.797605
1863.000000	99.802800
1862.000000	99.801023
1861.000000	99.789438
1860.000000	99.771042
1859.000000	99.753176
1858.000000	99.742316
1857.000000	99.741116
1856.000000	99.749393
1855.000000	99.765083
1854.000000	99.783175
1853.000000	99.795741
1852.000000	99.797465
1851.000000	99.789310
1850.000000	99.776433
1849.000000	99.764704
1848.000000	99.758980
1847.000000	99.762005
1846.000000	99.773120
1845.000000	99.787591
1844.000000	99.797683
1843.000000	99.797821
1842.000000	99.790626
1841.000000	99.783665
1840.000000	99.782023
1839.000000	99.785008
1838.000000	99.788009
1837.000000	99.787566
1836.000000	99.785032
1835.000000	99.783738
1834.000000	99.784740
1833.000000	99.788123
1832.000000	99.795161
1831.000000	99.804283
1830.000000	99.808287
1829.000000	99.800942
1828.000000	99.786260
1827.000000	99.773507
1826.000000	99.767250
1825.000000	99.767704
1824.000000	99.773407
1823.000000	99.780974
1822.000000	99.785746
1821.000000	99.785006
1820.000000	99.781388
1819.000000	99.780746
1818.000000	99.785848
1817.000000	99.793947
1816.000000	99.801733
1815.000000	99.809523
1814.000000	99.818285
1813.000000	99.826394
1812.000000	99.830127
1811.000000	99.826480
1810.000000	99.814853
1809.000000	99.797521
1808.000000	99.780206
1807.000000	99.769022
1806.000000	99.764901
1805.000000	99.763125
1804.000000	99.759306
1803.000000	99.753867
1802.000000	99.748846
1801.000000	99.744594
1800.000000	99.740361
1799.000000	99.736793
1798.000000	99.734807
1797.000000	99.733629
1796.000000	99.732347
1795.000000	99.731393
1794.000000	99.730526
1793.000000	99.729340
1792.000000	99.730553
1791.000000	99.737518
1790.000000	99.747952
1789.000000	99.756480
1788.000000	99.760989
1787.000000	99.764254
1786.000000	99.769803
1785.000000	99.776474
1784.000000	99.779451
1783.000000	99.777132
1782.000000	99.771646
1781.000000	99.766735
1780.000000	99.765340
1779.000000	99.767854
1778.000000	99.772721
1777.000000	99.778876
1776.000000	99.787428
1775.000000	99.799279
1774.000000	99.811189
1773.000000	99.817284
1772.000000	99.816912
1771.000000	99.814360
1770.000000	99.811612
1769.000000	99.807318
1768.000000	99.800921
1767.000000	99.795316
1766.000000	99.793237
1765.000000	99.794998
1764.000000	99.799769
1763.000000	99.806590
1762.000000	99.812745
1761.000000	99.814224
1760.000000	99.809725
1759.000000	99.802887
1758.000000	99.797025
1757.000000	99.793480
1756.000000	99.793178
1755.000000	99.794781
1754.000000	99.795463
1753.000000	99.793267
1752.000000	99.789811
1751.000000	99.789990
1750.000000	99.795504
1749.000000	99.801427
1748.000000	99.804752
1747.000000	99.807206
1746.000000	99.809469
1745.000000	99.810614
1744.000000	99.810779
1743.000000	99.811369
1742.000000	99.811740
1741.000000	99.809047
1740.000000	99.803217
1739.000000	99.799030
1738.000000	99.798127
1737.000000	99.798343
1736.000000	99.798956
1735.000000	99.804069
1734.000000	99.820165
1733.000000	99.836511
1732.000000	99.840138
1731.000000	99.838074
1730.000000	99.839534
1729.000000	99.845711
1728.000000	99.853302
1727.000000	99.859624
1726.000000	99.862925
1725.000000	99.861725
1724.000000	99.856323
1723.000000	99.850717
1722.000000	99.848414
1721.000000	99.848275
1720.000000	99.847163
1719.000000	99.844103
1718.000000	99.844263
1717.000000	99.850982
1716.000000	99.854453
1715.000000	99.848545
1714.000000	99.836430
1713.000000	99.821325
1712.000000	99.805959
1711.000000	99.793972
1710.000000	99.786631
1709.000000	99.780090
1708.000000	99.768717
1707.000000	99.749561
1706.000000	99.725341
1705.000000	99.703166
1704.000000	99.687061
1703.000000	99.675284
1702.000000	99.659579
1701.000000	99.626615
1700.000000	99.580842
1699.000000	99.544283
1698.000000	99.519766
1697.000000	99.492246
1696.000000	99.455165
1695.000000	99.421155
1694.000000	99.398372
1693.000000	99.381450
1692.000000	99.363644
1691.000000	99.341858
1690.000000	99.315866
1689.000000	99.287539
1688.000000	99.261262
1687.000000	99.239217
1686.000000	99.215193
1685.000000	99.175488
1684.000000	99.127879
1683.000000	99.095257
1682.000000	99.070389
1681.000000	99.037812
1680.000000	98.996565
1679.000000	98.956049
1678.000000	98.920678
1677.000000	98.881467
1676.000000	98.827622
1675.000000	98.767244
1674.000000	98.718641
1673.000000	98.681753
1672.000000	98.641727
1671.000000	98.586650
1670.000000	98.517673
1669.000000	98.451130
1668.000000	98.400729
1667.000000	98.364788
1666.000000	98.333661
1665.000000	98.297232
1664.000000	98.248307
1663.000000	98.189726
1662.000000	98.132754
1661.000000	98.083295
1660.000000	98.040860
1659.000000	98.006620
1658.000000	97.982747
1657.000000	97.969201
1656.000000	97.964214
1655.000000	97.960948
1654.000000	97.937945
1653.000000	97.890849
1652.000000	97.851339
1651.000000	97.833874
1650.000000	97.830243
1649.000000	97.827714
1648.000000	97.815297
1647.000000	97.796314
1646.000000	97.785848
1645.000000	97.783382
1644.000000	97.780522
1643.000000	97.776293
1642.000000	97.771966
1641.000000	97.767807
1640.000000	97.764983
1639.000000	97.765819
1638.000000	97.770085
1637.000000	97.769945
1636.000000	97.758844
1635.000000	97.745206
1634.000000	97.739263
1633.000000	97.741217
1632.000000	97.747968
1631.000000	97.757734
1630.000000	97.769258
1629.000000	97.781964
1628.000000	97.798319
1627.000000	97.821742
1626.000000	97.850888
1625.000000	97.882202
1624.000000	97.916190
1623.000000	97.957870
1622.000000	98.005918
1621.000000	98.052361
1620.000000	98.095431
1619.000000	98.138940
1618.000000	98.186382
1617.000000	98.239196
1616.000000	98.294454
1615.000000	98.344637
1614.000000	98.387312
1613.000000	98.425230
1612.000000	98.461664
1611.000000	98.499490
1610.000000	98.539444
1609.000000	98.580398
1608.000000	98.621025
1607.000000	98.659855
1606.000000	98.694687
1605.000000	98.725284
1604.000000	98.753582
1603.000000	98.779629
1602.000000	98.801045
1601.000000	98.817479
1600.000000	98.832171
1599.000000	98.847549
1598.000000	98.862585
1597.000000	98.875933
1596.000000	98.888272
1595.000000	98.899868
1594.000000	98.908555
1593.000000	98.912878
1592.000000	98.914976
1591.000000	98.917773
1590.000000	98.920918
1589.000000	98.921482
1588.000000	98.916948
1587.000000	98.905838
1586.000000	98.887704
1585.000000	98.863962
1584.000000	98.838157
1583.000000	98.812082
1582.000000	98.784887
1581.000000	98.757382
1580.000000	98.733528
1579.000000	98.714669
1578.000000	98.694492
1577.000000	98.662632
1576.000000	98.620820
1575.000000	98.584955
1574.000000	98.562053
1573.000000	98.548317
1572.000000	98.537659
1571.000000	98.521263
1570.000000	98.491419
1569.000000	98.454129
1568.000000	98.424489
1567.000000	98.405476
1566.000000	98.387500
1565.000000	98.362242
1564.000000	98.333036
1563.000000	98.310359
1562.000000	98.298778
1561.000000	98.290550
1560.000000	98.255747
1559.000000	98.173191
1558.000000	98.101314
1557.000000	98.068260
1556.000000	98.049171
1555.000000	98.030607
1554.000000	98.010285
1553.000000	97.989691
1552.000000	97.968158
1551.000000	97.943438
1550.000000	97.917162
1549.000000	97.893822
1548.000000	97.874324
1547.000000	97.854426
1546.000000	97.829771
1545.000000	97.801113
1544.000000	97.775949
1543.000000	97.759306
1542.000000	97.745810
1541.000000	97.723369
1540.000000	97.696400
1539.000000	97.686728
1538.000000	97.694467
1537.000000	97.709234
1536.000000	97.728366
1535.000000	97.753018
1534.000000	97.784648
1533.000000	97.820478
1532.000000	97.851575
1531.000000	97.875289
1530.000000	97.896799
1529.000000	97.919619
1528.000000	97.943577
1527.000000	97.966212
1526.000000	97.984551
1525.000000	97.998709
1524.000000	98.012384
1523.000000	98.027292
1522.000000	98.039828
1521.000000	98.047428
1520.000000	98.053428
1519.000000	98.062452
1518.000000	98.072727
1517.000000	98.078281
1516.000000	98.077586
1515.000000	98.073458
1514.000000	98.067296
1513.000000	98.059915
1512.000000	98.054912
1511.000000	98.056509
1510.000000	98.063798
1509.000000	98.070644
1508.000000	98.070292
1507.000000	98.066087
1506.000000	98.065893
1505.000000	98.061494
1504.000000	98.053340
1503.000000	98.047065
1502.000000	98.041678
1501.000000	98.034559
1500.000000	98.026141
1499.000000	98.018382
1498.000000	98.007130
1497.000000	97.985891
1496.000000	97.959562
1495.000000	97.940820
1494.000000	97.931221
1493.000000	97.922578
1492.000000	97.908511
1491.000000	97.888026
1490.000000	97.863526
1489.000000	97.838149
1488.000000	97.814927
1487.000000	97.796363
1486.000000	97.780343
1485.000000	97.760558
1484.000000	97.734374
1483.000000	97.703205
1482.000000	97.669122
1481.000000	97.635303
1480.000000	97.605905
1479.000000	97.580991
1478.000000	97.553621
1477.000000	97.516317
1476.000000	97.470735
1475.000000	97.425365
1474.000000	97.379638
1473.000000	97.325826
1472.000000	97.270696
1471.000000	97.229055
1470.000000	97.200622
1469.000000	97.177173
1468.000000	97.155081
1467.000000	97.133571
1466.000000	97.108032
1465.000000	97.072309
1464.000000	97.030982
1463.000000	96.995329
1462.000000	96.969140
1461.000000	96.948984
1460.000000	96.929750
1459.000000	96.902422
1458.000000	96.850987
1457.000000	96.779226
1456.000000	96.723668
1455.000000	96.696685
1454.000000	96.679357
1453.000000	96.660133
1452.000000	96.641219
1451.000000	96.626925
1450.000000	96.613274
1449.000000	96.593628
1448.000000	96.570839
1447.000000	96.555007
1446.000000	96.547493
1445.000000	96.541795
1444.000000	96.535009
1443.000000	96.528215
1442.000000	96.521760
1441.000000	96.515236
1440.000000	96.510207
1439.000000	96.507268
1438.000000	96.502772
1437.000000	96.493372
1436.000000	96.484385
1435.000000	96.480368
1434.000000	96.476034
1433.000000	96.465555
1432.000000	96.449734
1431.000000	96.433210
1430.000000	96.418393
1429.000000	96.405627
1428.000000	96.397129
1427.000000	96.394076
1426.000000	96.391364
1425.000000	96.383056
1424.000000	96.372074
1423.000000	96.366112
1422.000000	96.364303
1421.000000	96.357485
1420.000000	96.339749
1419.000000	96.318410
1418.000000	96.307405
1417.000000	96.307927
1416.000000	96.312423
1415.000000	96.315782
1414.000000	96.315870
1413.000000	96.314399
1412.000000	96.316858
1411.000000	96.327155
1410.000000	96.342870
1409.000000	96.359522
1408.000000	96.376176
1407.000000	96.393672
1406.000000	96.410301
1405.000000	96.425108
1404.000000	96.442433
1403.000000	96.465371
1402.000000	96.490038
1401.000000	96.510663
1400.000000	96.526351
1399.000000	96.541375
1398.000000	96.559080
1397.000000	96.579133
1396.000000	96.601550
1395.000000	96.628005
1394.000000	96.658725
1393.000000	96.693267
1392.000000	96.732137
1391.000000	96.773744
1390.000000	96.813494
1389.000000	96.848749
1388.000000	96.882741
1387.000000	96.920364
1386.000000	96.960488
1385.000000	96.998729
1384.000000	97.034340
1383.000000	97.068193
1382.000000	97.099828
1381.000000	97.129403
1380.000000	97.159696
1379.000000	97.193092
1378.000000	97.227981
1377.000000	97.261397
1376.000000	97.293778
1375.000000	97.328663
1374.000000	97.367704
1373.000000	97.408039
1372.000000	97.445788
1371.000000	97.480447
1370.000000	97.514507
1369.000000	97.551764
1368.000000	97.594438
1367.000000	97.640013
1366.000000	97.683738
1365.000000	97.723554
1364.000000	97.760620
1363.000000	97.796945
1362.000000	97.833686
1361.000000	97.870268
1360.000000	97.904332
1359.000000	97.933011
1358.000000	97.955613
1357.000000	97.975142
1356.000000	97.995091
1355.000000	98.015346
1354.000000	98.033630
1353.000000	98.049674
1352.000000	98.064302
1351.000000	98.076167
1350.000000	98.082565
1349.000000	98.083477
1348.000000	98.081537
1347.000000	98.078156
1346.000000	98.073236
1345.000000	98.068194
1344.000000	98.065432
1343.000000	98.064609
1342.000000	98.063044
1341.000000	98.060389
1340.000000	98.060146
1339.000000	98.064643
1338.000000	98.071318
1337.000000	98.077331
1336.000000	98.083801
1335.000000	98.093089
1334.000000	98.105698
1333.000000	98.121240
1332.000000	98.139989
1331.000000	98.161862
1330.000000	98.185119
1329.000000	98.207612
1328.000000	98.228471
1327.000000	98.247863
1326.000000	98.265942
1325.000000	98.282738
1324.000000	98.298082
1323.000000	98.311183
1322.000000	98.321440
1321.000000	98.329514
1320.000000	98.336520
1319.000000	98.342450
1318.000000	98.346851
1317.000000	98.350828
1316.000000	98.356665
1315.000000	98.365661
1314.000000	98.377908
1313.000000	98.393880
1312.000000	98.414189
1311.000000	98.437481
1310.000000	98.460253
1309.000000	98.479384
1308.000000	98.494078
1307.000000	98.505663
1306.000000	98.516148
1305.000000	98.526839
1304.000000	98.537638
1303.000000	98.547592
1302.000000	98.556427
1301.000000	98.565023
1300.000000	98.574132
1299.000000	98.583775
1298.000000	98.594297
1297.000000	98.606282
1296.000000	98.618468
1295.000000	98.627486
1294.000000	98.631278
1293.000000	98.630923
1292.000000	98.627572
1291.000000	98.619842
1290.000000	98.606724
1289.000000	98.591540
1288.000000	98.579775
1287.000000	98.573486
1286.000000	98.570460
1285.000000	98.568619
1284.000000	98.568185
1283.000000	98.569135
1282.000000	98.569460
1281.000000	98.567234
1280.000000	98.563288
1279.000000	98.560966
1278.000000	98.564014
1277.000000	98.574340
1276.000000	98.590112
1275.000000	98.605956
1274.000000	98.616644
1273.000000	98.621380
1272.000000	98.623866
1271.000000	98.628240
1270.000000	98.635616
1269.000000	98.643869
1268.000000	98.649232
1267.000000	98.648603
1266.000000	98.642562
1265.000000	98.635887
1264.000000	98.633249
1263.000000	98.634363
1262.000000	98.634696
1261.000000	98.630666
1260.000000	98.622341
1259.000000	98.611765
1258.000000	98.601187
1257.000000	98.592536
1256.000000	98.585823
1255.000000	98.577535
1254.000000	98.563351
1253.000000	98.543580
1252.000000	98.523641
1251.000000	98.508015
1250.000000	98.495428
1249.000000	98.481035
1248.000000	98.461697
1247.000000	98.437802
1246.000000	98.411819
1245.000000	98.386883
1244.000000	98.365454
1243.000000	98.347397
1242.000000	98.330118
1241.000000	98.312026
1240.000000	98.294837
1239.000000	98.281087
1238.000000	98.270589
1237.000000	98.261657
1236.000000	98.254731
1235.000000	98.252339
1234.000000	98.255980
1233.000000	98.264957
1232.000000	98.278339
1231.000000	98.295739
1230.000000	98.316385
1229.000000	98.339697
1228.000000	98.366399
1227.000000	98.397350
1226.000000	98.431362
1225.000000	98.466124
1224.000000	98.501067
1223.000000	98.536767
1222.000000	98.571360
1221.000000	98.600283
1220.000000	98.621059
1219.000000	98.636767
1218.000000	98.653058
1217.000000	98.672101
1216.000000	98.690862
1215.000000	98.705233
1214.000000	98.714461
1213.000000	98.721239
1212.000000	98.727891
1211.000000	98.733110
1210.000000	98.732660
1209.000000	98.723041
1208.000000	98.704823
1207.000000	98.682732
1206.000000	98.662803
1205.000000	98.649217
1204.000000	98.643157
1203.000000	98.643551
1202.000000	98.648484
1201.000000	98.656710
1200.000000	98.668144
1199.000000	98.682673
1198.000000	98.698644
1197.000000	98.713868
1196.000000	98.728514
1195.000000	98.745301
1194.000000	98.765886
1193.000000	98.788204
1192.000000	98.808923
1191.000000	98.827631
1190.000000	98.846586
1189.000000	98.866571
1188.000000	98.885188
1187.000000	98.899719
1186.000000	98.909613
1185.000000	98.915552
1184.000000	98.918240
1183.000000	98.919813
1182.000000	98.924347
1181.000000	98.934185
1180.000000	98.946675
1179.000000	98.956755
1178.000000	98.962178
1177.000000	98.964216
1176.000000	98.964476
1175.000000	98.963974
1174.000000	98.964521
1173.000000	98.967745
1172.000000	98.972369
1171.000000	98.974819
1170.000000	98.973072
1169.000000	98.967939
1168.000000	98.960588
1167.000000	98.951616
1166.000000	98.943233
1165.000000	98.939426
1164.000000	98.942048
1163.000000	98.948260
1162.000000	98.953353
1161.000000	98.955194
1160.000000	98.955156
1159.000000	98.956251
1158.000000	98.961338
1157.000000	98.971408
1156.000000	98.984340
1155.000000	98.996349
1154.000000	99.005678
1153.000000	99.013872
1152.000000	99.022732
1151.000000	99.031827
1150.000000	99.040209
1149.000000	99.048881
1148.000000	99.059754
1147.000000	99.073151
1146.000000	99.087873
1145.000000	99.102824
1144.000000	99.117155
1143.000000	99.129459
1142.000000	99.138186
1141.000000	99.142381
1140.000000	99.141522
1139.000000	99.135867
1138.000000	99.127722
1137.000000	99.121187
1136.000000	99.119501
1135.000000	99.123386
1134.000000	99.132163
1133.000000	99.144582
1132.000000	99.157521
1131.000000	99.165946
1130.000000	99.166641
1129.000000	99.161485
1128.000000	99.155528
1127.000000	99.152360
1126.000000	99.152166
1125.000000	99.153159
1124.000000	99.153603
1123.000000	99.153079
1122.000000	99.152970
1121.000000	99.155268
1120.000000	99.160227
1119.000000	99.165776
1118.000000	99.169373
1117.000000	99.169350
1116.000000	99.164492
1115.000000	99.154456
1114.000000	99.141319
1113.000000	99.128363
1112.000000	99.116394
1111.000000	99.103714
1110.000000	99.090734
1109.000000	99.081405
1108.000000	99.077739
1107.000000	99.076022
1106.000000	99.072095
1105.000000	99.068063
1104.000000	99.069047
1103.000000	99.074128
1102.000000	99.075514
1101.000000	99.067831
1100.000000	99.054214
1099.000000	99.041634
1098.000000	99.033011
1097.000000	99.025806
1096.000000	99.016560
1095.000000	99.004539
1094.000000	98.991975
1093.000000	98.982097
1092.000000	98.976254
1091.000000	98.971965
1090.000000	98.964298
1089.000000	98.950140
1088.000000	98.930558
1087.000000	98.908634
1086.000000	98.886379
1085.000000	98.864893
1084.000000	98.846473
1083.000000	98.833924
1082.000000	98.826751
1081.000000	98.819889
1080.000000	98.808861
1079.000000	98.796511
1078.000000	98.792300
1077.000000	98.802999
1076.000000	98.824572
1075.000000	98.845335
1074.000000	98.857507
1073.000000	98.863489
1072.000000	98.869818
1071.000000	98.877788
1070.000000	98.883122
1069.000000	98.883502
1068.000000	98.882143
1067.000000	98.882884
1066.000000	98.884934
1065.000000	98.884537
1064.000000	98.880188
1063.000000	98.874039
1062.000000	98.868936
1061.000000	98.866068
1060.000000	98.865497
1059.000000	98.867021
1058.000000	98.869624
1057.000000	98.871431
1056.000000	98.871609
1055.000000	98.872034
1054.000000	98.875544
1053.000000	98.881984
1052.000000	98.887291
1051.000000	98.887933
1050.000000	98.885569
1049.000000	98.885220
1048.000000	98.889053
1047.000000	98.894241
1046.000000	98.897396
1045.000000	98.898434
1044.000000	98.898485
1043.000000	98.896198
1042.000000	98.888594
1041.000000	98.875304
1040.000000	98.859883
1039.000000	98.846514
1038.000000	98.836692
1037.000000	98.829277
1036.000000	98.822624
1035.000000	98.815803
1034.000000	98.808615
1033.000000	98.801465
1032.000000	98.795479
1031.000000	98.792398
1030.000000	98.793822
1029.000000	98.800401
1028.000000	98.811432
1027.000000	98.825270
1026.000000	98.840071
1025.000000	98.854306
1024.000000	98.867515
1023.000000	98.881288
1022.000000	98.898553
1021.000000	98.919757
1020.000000	98.939759
1019.000000	98.950772
1018.000000	98.949922
1017.000000	98.942404
1016.000000	98.936125
1015.000000	98.935446
1014.000000	98.941382
1013.000000	98.954913
1012.000000	98.976189
1011.000000	99.001185
1010.000000	99.023083
1009.000000	99.038409
1008.000000	99.049667
1007.000000	99.060920
1006.000000	99.072967
1005.000000	99.084292
1004.000000	99.095269
1003.000000	99.109173
1002.000000	99.128512
1001.000000	99.151372
1000.000000	99.172222
999.000000	99.186871
998.000000	99.196681
997.000000	99.207269
996.000000	99.222992
995.000000	99.243123
994.000000	99.263437
993.000000	99.280552
992.000000	99.294040
991.000000	99.305326
990.000000	99.315800
989.000000	99.325765
988.000000	99.334869
987.000000	99.343832
986.000000	99.355226
985.000000	99.370897
984.000000	99.388187
983.000000	99.400923
982.000000	99.405603
981.000000	99.405038
980.000000	99.404433
979.000000	99.405249
978.000000	99.404815
977.000000	99.400615
976.000000	99.392827
975.000000	99.383751
974.000000	99.376968
973.000000	99.376421
972.000000	99.383718
971.000000	99.396090
970.000000	99.408944
969.000000	99.420651
968.000000	99.433030
967.000000	99.447194
966.000000	99.461143
965.000000	99.472154
964.000000	99.479607
963.000000	99.484432
962.000000	99.487534
961.000000	99.490257
960.000000	99.495378
959.000000	99.505739
958.000000	99.521337
957.000000	99.538412
956.000000	99.552174
955.000000	99.560983
954.000000	99.567867
953.000000	99.577432
952.000000	99.590855
951.000000	99.604454
950.000000	99.613605
949.000000	99.617090
948.000000	99.616921
947.000000	99.615125
946.000000	99.612197
945.000000	99.608232
944.000000	99.604030
943.000000	99.600965
942.000000	99.600758
941.000000	99.605025
940.000000	99.613746
939.000000	99.624148
938.000000	99.632590
937.000000	99.638362
936.000000	99.644610
935.000000	99.654492
934.000000	99.666767
933.000000	99.675996
932.000000	99.677547
931.000000	99.672209
930.000000	99.665670
929.000000	99.663771
928.000000	99.668761
927.000000	99.679926
926.000000	99.695929
925.000000	99.714500
924.000000	99.730524
923.000000	99.737528
922.000000	99.733255
921.000000	99.722813
920.000000	99.714922
919.000000	99.715121
918.000000	99.722451
917.000000	99.731698
916.000000	99.737933
915.000000	99.739695
914.000000	99.739210
913.000000	99.739566
912.000000	99.741576
911.000000	99.743903
910.000000	99.745892
909.000000	99.749012
908.000000	99.755024
907.000000	99.763765
906.000000	99.773135
905.000000	99.780313
904.000000	99.783024
903.000000	99.781416
902.000000	99.779276
901.000000	99.781937
900.000000	99.792081
899.000000	99.808246
898.000000	99.827021
897.000000	99.844511
896.000000	99.855927
895.000000	99.857595
894.000000	99.851658
893.000000	99.846390
892.000000	99.849392
891.000000	99.861244
890.000000	99.875998
889.000000	99.885612
888.000000	99.882841
887.000000	99.862659
886.000000	99.824281
885.000000	99.770276
884.000000	99.701823
883.000000	99.616375
882.000000	99.509320
881.000000	99.375588
880.000000	99.208879
879.000000	99.004857
878.000000	98.768037
877.000000	98.511368
876.000000	98.247680
875.000000	97.989653
874.000000	97.766661
873.000000	97.634409
872.000000	97.652559
871.000000	97.838439
870.000000	98.143262
869.000000	98.481049
868.000000	98.780000
867.000000	99.010472
866.000000	99.176891
865.000000	99.295509
864.000000	99.380429
863.000000	99.442054
862.000000	99.489900
861.000000	99.532322
860.000000	99.572452
859.000000	99.606281
858.000000	99.628161
857.000000	99.637955
856.000000	99.641407
855.000000	99.644756
854.000000	99.651713
853.000000	99.664052
852.000000	99.679918
851.000000	99.691603
850.000000	99.691061
849.000000	99.680235
848.000000	99.671513
847.000000	99.674748
846.000000	99.687452
845.000000	99.700771
844.000000	99.710829
843.000000	99.719823
842.000000	99.729563
841.000000	99.740098
840.000000	99.752853
839.000000	99.768939
838.000000	99.784621
837.000000	99.794145
836.000000	99.797928
835.000000	99.802806
834.000000	99.812575
833.000000	99.823085
832.000000	99.829581
831.000000	99.834621
830.000000	99.844240
829.000000	99.858350
828.000000	99.869679
827.000000	99.872406
826.000000	99.867990
825.000000	99.861355
824.000000	99.854451
823.000000	99.845827
822.000000	99.835103
821.000000	99.825555
820.000000	99.821896
819.000000	99.825999
818.000000	99.834913
817.000000	99.843016
816.000000	99.846473
815.000000	99.845876
814.000000	99.844670
813.000000	99.845377
812.000000	99.847533
811.000000	99.848708
810.000000	99.846904
809.000000	99.842403
808.000000	99.838108
807.000000	99.837798
806.000000	99.843114
805.000000	99.852031
804.000000	99.860718
803.000000	99.866419
802.000000	99.867553
801.000000	99.862195
800.000000	99.849294
799.000000	99.832172
798.000000	99.818206
797.000000	99.812583
796.000000	99.813336
795.000000	99.814786
794.000000	99.814981
793.000000	99.816950
792.000000	99.822994
791.000000	99.831264
790.000000	99.839348
789.000000	99.848154
788.000000	99.859040
787.000000	99.868615
786.000000	99.870413
785.000000	99.862616
784.000000	99.851154
783.000000	99.843286
782.000000	99.839924
781.000000	99.836512
780.000000	99.830561
779.000000	99.825291
778.000000	99.824535
777.000000	99.826224
776.000000	99.823945
775.000000	99.815152
774.000000	99.805453
773.000000	99.803275
772.000000	99.811367
771.000000	99.824691
770.000000	99.835275
769.000000	99.837347
768.000000	99.829452
767.000000	99.815469
766.000000	99.803862
765.000000	99.801862
764.000000	99.808476
763.000000	99.816066
762.000000	99.820393
761.000000	99.825314
760.000000	99.834438
759.000000	99.842332
758.000000	99.840291
757.000000	99.829262
756.000000	99.820458
755.000000	99.822771
754.000000	99.834849
753.000000	99.850398
752.000000	99.865055
751.000000	99.875221
750.000000	99.875840
749.000000	99.864495
748.000000	99.845148
747.000000	99.824181
746.000000	99.805472
745.000000	99.792497
744.000000	99.791316
743.000000	99.805518
742.000000	99.829626
741.000000	99.852678
740.000000	99.868260
739.000000	99.877024
738.000000	99.879483
737.000000	99.871467
736.000000	99.849103
735.000000	99.815919
734.000000	99.782917
733.000000	99.761353
732.000000	99.753886
731.000000	99.751078
730.000000	99.738837
729.000000	99.713005
728.000000	99.686339
727.000000	99.676815
726.000000	99.687691
725.000000	99.703502
724.000000	99.706696
723.000000	99.693163
722.000000	99.669810
721.000000	99.643100
720.000000	99.615135
719.000000	99.586354
718.000000	99.554493
717.000000	99.510541
716.000000	99.442158
715.000000	99.347967
714.000000	99.249825
713.000000	99.185909
712.000000	99.184607
711.000000	99.240779
710.000000	99.319051
709.000000	99.382427
708.000000	99.417617
707.000000	99.433834
706.000000	99.442271
705.000000	99.445403
704.000000	99.445098
703.000000	99.448885
702.000000	99.462140
701.000000	99.479078
700.000000	99.487440
699.000000	99.481171
698.000000	99.464312
697.000000	99.445239
696.000000	99.431908
695.000000	99.429959
694.000000	99.440997
693.000000	99.460669
692.000000	99.480460
691.000000	99.493720
690.000000	99.497937
689.000000	99.492920
688.000000	99.479927
687.000000	99.461934
686.000000	99.443564
685.000000	99.429162
684.000000	99.420720
683.000000	99.417814
682.000000	99.418004
681.000000	99.417835
680.000000	99.415145
679.000000	99.411052
678.000000	99.406967
677.000000	99.398949
676.000000	99.382601
675.000000	99.363390
674.000000	99.353734
673.000000	99.359390
672.000000	99.373551
671.000000	99.390065
670.000000	99.409519
669.000000	99.437267
668.000000	99.464252
667.000000	99.462252
666.000000	99.429402
665.000000	99.381458
664.000000	99.332405
663.000000	99.298213
662.000000	99.286415
661.000000	99.290914
660.000000	99.297745
659.000000	99.298768
658.000000	99.293228
657.000000	99.281787
656.000000	99.268336
655.000000	99.261265
654.000000	99.262510
653.000000	99.261734
652.000000	99.250688
651.000000	99.237142
650.000000	99.236704
649.000000	99.252791
648.000000	99.271884
647.000000	99.277072
646.000000	99.262768
645.000000	99.240099
644.000000	99.227744
643.000000	99.234381
642.000000	99.250875
641.000000	99.262661
640.000000	99.268191
639.000000	99.277630
638.000000	99.294189
637.000000	99.307644
636.000000	99.308509
635.000000	99.298674
634.000000	99.284847
633.000000	99.270329
632.000000	99.257900
631.000000	99.253562
630.000000	99.260817
629.000000	99.275373
628.000000	99.290268
627.000000	99.301818
626.000000	99.308358
625.000000	99.309481
624.000000	99.307069
623.000000	99.301507
622.000000	99.287885
621.000000	99.263692
620.000000	99.239366
619.000000	99.230344
618.000000	99.236737
617.000000	99.241210
616.000000	99.231171
615.000000	99.212197
614.000000	99.195315
613.000000	99.184320
612.000000	99.181592
611.000000	99.192090
610.000000	99.211949
609.000000	99.225508
608.000000	99.224945
607.000000	99.222472
606.000000	99.230131
605.000000	99.238737
604.000000	99.231299
603.000000	99.209814
602.000000	99.194179
601.000000	99.197518
600.000000	99.215942
599.000000	99.238631
598.000000	99.255072
597.000000	99.255356
596.000000	99.236333
595.000000	99.208782
594.000000	99.189238
593.000000	99.183849
592.000000	99.187629
591.000000	99.197344
590.000000	99.214361
589.000000	99.235393
588.000000	99.251161
587.000000	99.255338
586.000000	99.247845
585.000000	99.230605
584.000000	99.207134
583.000000	99.185565
582.000000	99.174557
581.000000	99.175180
580.000000	99.182017
579.000000	99.190874
578.000000	99.198970
577.000000	99.201449
576.000000	99.196076
575.000000	99.188556
574.000000	99.184254
573.000000	99.178229
572.000000	99.163815
571.000000	99.145890
570.000000	99.134706
569.000000	99.128672
568.000000	99.116982
567.000000	99.098601
566.000000	99.082368
565.000000	99.068233
564.000000	99.045374
563.000000	99.012932
562.000000	98.987889
561.000000	98.985476
560.000000	99.002295
559.000000	99.025064
558.000000	99.047029
557.000000	99.069632
556.000000	99.094693
555.000000	99.121773
554.000000	99.149326
553.000000	99.173290
552.000000	99.186388
551.000000	99.182270
550.000000	99.161985
549.000000	99.135954
548.000000	99.119621
547.000000	99.123715
546.000000	99.141415
545.000000	99.148170
544.000000	99.124805
543.000000	99.080233
542.000000	99.044316
541.000000	99.037058
540.000000	99.050503
539.000000	99.061010
538.000000	99.050198
537.000000	99.014516
536.000000	98.966394
535.000000	98.931660
534.000000	98.933180
533.000000	98.965152
532.000000	98.991337
531.000000	98.979476
530.000000	98.936756
529.000000	98.900155
528.000000	98.892642
527.000000	98.901747
526.000000	98.903132
525.000000	98.897413
524.000000	98.906655
523.000000	98.937605
522.000000	98.972031
521.000000	98.994302
520.000000	99.012648
519.000000	99.044971
518.000000	99.090655
517.000000	99.132231
516.000000	99.161500
515.000000	99.183076
514.000000	99.197736
513.000000	99.202692
512.000000	99.205748
511.000000	99.220204
510.000000	99.242399
509.000000	99.251288
508.000000	99.237946
507.000000	99.221646
506.000000	99.223412
505.000000	99.237424
504.000000	99.243780
503.000000	99.235357
502.000000	99.221618
501.000000	99.213275
500.000000	99.214059
499.000000	99.225901
498.000000	99.248075
497.000000	99.271667
496.000000	99.286747
495.000000	99.295678
494.000000	99.311600
493.000000	99.341404
492.000000	99.374589
491.000000	99.392545
490.000000	99.390419
489.000000	99.386404
488.000000	99.401098
487.000000	99.425955
486.000000	99.422088
485.000000	99.366794
484.000000	99.297628
483.000000	99.280088
482.000000	99.326858
481.000000	99.383139
480.000000	99.396675
479.000000	99.372470
478.000000	99.352052
477.000000	99.361697
476.000000	99.396705
475.000000	99.440965
474.000000	99.477207
473.000000	99.483601
472.000000	99.447948
471.000000	99.386636
470.000000	99.327767
469.000000	99.288271
468.000000	99.280787
467.000000	99.315763
466.000000	99.377820
465.000000	99.425941
464.000000	99.435078
463.000000	99.420851
462.000000	99.413481
461.000000	99.414949
460.000000	99.406523
459.000000	99.393581
458.000000	99.416025
457.000000	99.497367
456.000000	99.604473
455.000000	99.693206
454.000000	99.758193
453.000000	99.812614
452.000000	99.859813
451.000000	99.876544
450.000000	99.857545
