PE IR       SUBTECH     SPECTRUM    ASCII       PEDS        4.00        
   -1
AG10-F004_1.ASC
23/09/08
10:36:57.00
23/09/08
11:14:38.00
uco
Sample 004 By uco Date Friday, September 08 2023
450.000000
#HDR
-1
-1
#GR
cm-1
%T
1.0
0.0
4000.000000
-1.000000
3551
8
99.806501
88.346767
#DATA
4000.000000	99.724469
3999.000000	99.723726
3998.000000	99.724518
3997.000000	99.725683
3996.000000	99.726411
3995.000000	99.726405
3994.000000	99.729879
3993.000000	99.728654
3992.000000	99.727327
3991.000000	99.725925
3990.000000	99.724577
3989.000000	99.723748
3988.000000	99.724110
3987.000000	99.726020
3986.000000	99.728996
3985.000000	99.731581
3984.000000	99.731807
3983.000000	99.728258
3982.000000	99.721205
3981.000000	99.712880
3980.000000	99.706393
3979.000000	99.703769
3978.000000	99.704782
3977.000000	99.707604
3976.000000	99.710609
3975.000000	99.713524
3974.000000	99.716930
3973.000000	99.720992
3972.000000	99.724796
3971.000000	99.726753
3970.000000	99.725392
3969.000000	99.720091
3968.000000	99.711710
3967.000000	99.702868
3966.000000	99.696930
3965.000000	99.695871
3964.000000	99.698584
3963.000000	99.701622
3962.000000	99.702216
3961.000000	99.700657
3960.000000	99.699528
3959.000000	99.701002
3958.000000	99.705087
3957.000000	99.710096
3956.000000	99.713932
3955.000000	99.714855
3954.000000	99.712051
3953.000000	99.705966
3952.000000	99.698293
3951.000000	99.691362
3950.000000	99.686941
3949.000000	99.685417
3948.000000	99.686088
3947.000000	99.688343
3946.000000	99.692175
3945.000000	99.696798
3944.000000	99.699678
3943.000000	99.698228
3942.000000	99.692288
3941.000000	99.684562
3940.000000	99.678574
3939.000000	99.676685
3938.000000	99.679401
3937.000000	99.685875
3936.000000	99.694139
3935.000000	99.701020
3934.000000	99.703320
3933.000000	99.700118
3932.000000	99.693988
3931.000000	99.688881
3930.000000	99.686664
3929.000000	99.686704
3928.000000	99.687615
3927.000000	99.688030
3926.000000	99.687012
3925.000000	99.685473
3924.000000	99.686070
3923.000000	99.690001
3922.000000	99.695123
3921.000000	99.698009
3920.000000	99.697308
3919.000000	99.694888
3918.000000	99.693821
3917.000000	99.695587
3916.000000	99.698814
3915.000000	99.700639
3914.000000	99.698710
3913.000000	99.693440
3912.000000	99.687978
3911.000000	99.686326
3910.000000	99.689920
3909.000000	99.696991
3908.000000	99.704447
3907.000000	99.709138
3906.000000	99.707608
3905.000000	99.697403
3904.000000	99.681249
3903.000000	99.667246
3902.000000	99.662323
3901.000000	99.666604
3900.000000	99.674743
3899.000000	99.681061
3898.000000	99.682933
3897.000000	99.680723
3896.000000	99.676119
3895.000000	99.671914
3894.000000	99.670467
3893.000000	99.672031
3892.000000	99.673832
3891.000000	99.673458
3890.000000	99.671807
3889.000000	99.672779
3888.000000	99.677906
3887.000000	99.682501
3886.000000	99.682295
3885.000000	99.680899
3884.000000	99.683904
3883.000000	99.691078
3882.000000	99.696790
3881.000000	99.696502
3880.000000	99.692269
3879.000000	99.689503
3878.000000	99.691464
3877.000000	99.697909
3876.000000	99.704328
3875.000000	99.705112
3874.000000	99.700613
3873.000000	99.697478
3872.000000	99.699681
3871.000000	99.702478
3870.000000	99.699265
3869.000000	99.691382
3868.000000	99.685012
3867.000000	99.682824
3866.000000	99.681474
3865.000000	99.678197
3864.000000	99.675835
3863.000000	99.678067
3862.000000	99.683345
3861.000000	99.687637
3860.000000	99.687575
3859.000000	99.682156
3858.000000	99.674221
3857.000000	99.670026
3856.000000	99.673252
3855.000000	99.675680
3854.000000	99.666468
3853.000000	99.657195
3852.000000	99.660646
3851.000000	99.670780
3850.000000	99.679292
3849.000000	99.683622
3848.000000	99.685193
3847.000000	99.686535
3846.000000	99.688717
3845.000000	99.691380
3844.000000	99.692975
3843.000000	99.692172
3842.000000	99.688732
3841.000000	99.683790
3840.000000	99.678419
3839.000000	99.674296
3838.000000	99.673704
3837.000000	99.677463
3836.000000	99.684454
3835.000000	99.693452
3834.000000	99.703382
3833.000000	99.712168
3832.000000	99.717386
3831.000000	99.718335
3830.000000	99.716619
3829.000000	99.714354
3828.000000	99.711205
3827.000000	99.705307
3826.000000	99.697397
3825.000000	99.692727
3824.000000	99.695895
3823.000000	99.703765
3822.000000	99.706442
3821.000000	99.701567
3820.000000	99.696828
3819.000000	99.697597
3818.000000	99.702546
3817.000000	99.703413
3816.000000	99.695871
3815.000000	99.686935
3814.000000	99.683889
3813.000000	99.685630
3812.000000	99.687787
3811.000000	99.689992
3810.000000	99.695574
3809.000000	99.704257
3808.000000	99.708036
3807.000000	99.700644
3806.000000	99.687165
3805.000000	99.678750
3804.000000	99.681362
3803.000000	99.691001
3802.000000	99.699025
3801.000000	99.703541
3800.000000	99.706893
3799.000000	99.709839
3798.000000	99.711039
3797.000000	99.708818
3796.000000	99.705286
3795.000000	99.704680
3794.000000	99.707980
3793.000000	99.711591
3792.000000	99.711352
3791.000000	99.706076
3790.000000	99.697928
3789.000000	99.690249
3788.000000	99.685541
3787.000000	99.684441
3786.000000	99.686009
3785.000000	99.689160
3784.000000	99.693842
3783.000000	99.700269
3782.000000	99.706539
3781.000000	99.708340
3780.000000	99.703081
3779.000000	99.694982
3778.000000	99.691150
3777.000000	99.693844
3776.000000	99.699049
3775.000000	99.701787
3774.000000	99.701142
3773.000000	99.699772
3772.000000	99.698892
3771.000000	99.697156
3770.000000	99.695290
3769.000000	99.697037
3768.000000	99.703939
3767.000000	99.712694
3766.000000	99.717930
3765.000000	99.717116
3764.000000	99.712401
3763.000000	99.707166
3762.000000	99.701555
3761.000000	99.694094
3760.000000	99.686227
3759.000000	99.681518
3758.000000	99.679195
3757.000000	99.675787
3756.000000	99.671627
3755.000000	99.670145
3754.000000	99.672169
3753.000000	99.674699
3752.000000	99.676050
3751.000000	99.678545
3750.000000	99.681700
3749.000000	99.681116
3748.000000	99.679134
3747.000000	99.682844
3746.000000	99.690906
3745.000000	99.693841
3744.000000	99.692783
3743.000000	99.695473
3742.000000	99.701772
3741.000000	99.707776
3740.000000	99.712043
3739.000000	99.715730
3738.000000	99.716848
3737.000000	99.708514
3736.000000	99.691973
3735.000000	99.682535
3734.000000	99.690483
3733.000000	99.707636
3732.000000	99.719893
3731.000000	99.721905
3730.000000	99.717707
3729.000000	99.712789
3728.000000	99.708851
3727.000000	99.704968
3726.000000	99.701241
3725.000000	99.697857
3724.000000	99.693794
3723.000000	99.689465
3722.000000	99.687587
3721.000000	99.690460
3720.000000	99.696659
3719.000000	99.701922
3718.000000	99.702899
3717.000000	99.700728
3716.000000	99.700177
3715.000000	99.703816
3714.000000	99.707349
3713.000000	99.702662
3712.000000	99.688545
3711.000000	99.676197
3710.000000	99.676795
3709.000000	99.689861
3708.000000	99.706976
3707.000000	99.719884
3706.000000	99.725002
3705.000000	99.724059
3704.000000	99.721474
3703.000000	99.721178
3702.000000	99.724471
3701.000000	99.729183
3700.000000	99.732094
3699.000000	99.732189
3698.000000	99.729855
3697.000000	99.725344
3696.000000	99.719484
3695.000000	99.712995
3694.000000	99.705302
3693.000000	99.696695
3692.000000	99.691016
3691.000000	99.694403
3690.000000	99.708453
3689.000000	99.725550
3688.000000	99.735073
3687.000000	99.734958
3686.000000	99.731308
3685.000000	99.728518
3684.000000	99.726840
3683.000000	99.725707
3682.000000	99.724650
3681.000000	99.721199
3680.000000	99.713617
3679.000000	99.705385
3678.000000	99.702205
3677.000000	99.703026
3676.000000	99.702316
3675.000000	99.700197
3674.000000	99.697018
3673.000000	99.693906
3672.000000	99.692573
3671.000000	99.691727
3670.000000	99.693648
3669.000000	99.702543
3668.000000	99.714241
3667.000000	99.722784
3666.000000	99.726854
3665.000000	99.727619
3664.000000	99.726469
3663.000000	99.723746
3662.000000	99.719000
3661.000000	99.712946
3660.000000	99.709256
3659.000000	99.711549
3658.000000	99.718516
3657.000000	99.723138
3656.000000	99.720278
3655.000000	99.712107
3654.000000	99.704969
3653.000000	99.702829
3652.000000	99.703558
3651.000000	99.701883
3650.000000	99.696849
3649.000000	99.692032
3648.000000	99.687781
3647.000000	99.683196
3646.000000	99.680076
3645.000000	99.680239
3644.000000	99.682752
3643.000000	99.685322
3642.000000	99.687050
3641.000000	99.688621
3640.000000	99.689612
3639.000000	99.687654
3638.000000	99.682235
3637.000000	99.676753
3636.000000	99.674792
3635.000000	99.675642
3634.000000	99.676305
3633.000000	99.676947
3632.000000	99.680976
3631.000000	99.688534
3630.000000	99.692863
3629.000000	99.691619
3628.000000	99.690156
3627.000000	99.689042
3626.000000	99.687007
3625.000000	99.684561
3624.000000	99.683035
3623.000000	99.684262
3622.000000	99.688967
3621.000000	99.695612
3620.000000	99.702448
3619.000000	99.708891
3618.000000	99.712641
3617.000000	99.710384
3616.000000	99.702227
3615.000000	99.690650
3614.000000	99.678591
3613.000000	99.669079
3612.000000	99.663650
3611.000000	99.661394
3610.000000	99.660198
3609.000000	99.659575
3608.000000	99.661547
3607.000000	99.666603
3606.000000	99.671545
3605.000000	99.672919
3604.000000	99.670234
3603.000000	99.665263
3602.000000	99.660300
3601.000000	99.656752
3600.000000	99.655068
3599.000000	99.654502
3598.000000	99.653858
3597.000000	99.652203
3596.000000	99.649483
3595.000000	99.646621
3594.000000	99.645602
3593.000000	99.648035
3592.000000	99.653700
3591.000000	99.660703
3590.000000	99.665637
3589.000000	99.665313
3588.000000	99.661088
3587.000000	99.658435
3586.000000	99.658979
3585.000000	99.659958
3584.000000	99.659670
3583.000000	99.658076
3582.000000	99.655621
3581.000000	99.652943
3580.000000	99.650954
3579.000000	99.650148
3578.000000	99.649805
3577.000000	99.648398
3576.000000	99.644861
3575.000000	99.639842
3574.000000	99.635372
3573.000000	99.633345
3572.000000	99.634100
3571.000000	99.636394
3570.000000	99.637585
3569.000000	99.634048
3568.000000	99.624763
3567.000000	99.614465
3566.000000	99.608424
3565.000000	99.606504
3564.000000	99.606155
3563.000000	99.605726
3562.000000	99.605089
3561.000000	99.605752
3560.000000	99.609553
3559.000000	99.616215
3558.000000	99.622570
3557.000000	99.624755
3556.000000	99.621004
3555.000000	99.612697
3554.000000	99.603609
3553.000000	99.598154
3552.000000	99.598472
3551.000000	99.602100
3550.000000	99.603799
3549.000000	99.600074
3548.000000	99.591904
3547.000000	99.584075
3546.000000	99.581282
3545.000000	99.584106
3544.000000	99.589403
3543.000000	99.593914
3542.000000	99.596012
3541.000000	99.595542
3540.000000	99.593567
3539.000000	99.591972
3538.000000	99.592301
3537.000000	99.594232
3536.000000	99.595515
3535.000000	99.593708
3534.000000	99.588723
3533.000000	99.583160
3532.000000	99.579962
3531.000000	99.579530
3530.000000	99.579331
3529.000000	99.576717
3528.000000	99.571986
3527.000000	99.567889
3526.000000	99.566380
3525.000000	99.567021
3524.000000	99.568146
3523.000000	99.568395
3522.000000	99.567277
3521.000000	99.565509
3520.000000	99.565017
3519.000000	99.567441
3518.000000	99.572334
3517.000000	99.576964
3516.000000	99.578454
3515.000000	99.575923
3514.000000	99.570793
3513.000000	99.565359
3512.000000	99.561385
3511.000000	99.559610
3510.000000	99.559882
3509.000000	99.561090
3508.000000	99.561357
3507.000000	99.558964
3506.000000	99.553588
3505.000000	99.546775
3504.000000	99.541490
3503.000000	99.540088
3502.000000	99.542120
3501.000000	99.544765
3500.000000	99.545464
3499.000000	99.543835
3498.000000	99.541803
3497.000000	99.542335
3496.000000	99.546643
3495.000000	99.552071
3494.000000	99.553877
3493.000000	99.550053
3492.000000	99.543484
3491.000000	99.538702
3490.000000	99.537332
3489.000000	99.537349
3488.000000	99.535958
3487.000000	99.531742
3486.000000	99.524459
3485.000000	99.514749
3484.000000	99.504972
3483.000000	99.499037
3482.000000	99.499892
3481.000000	99.506818
3480.000000	99.515841
3479.000000	99.522823
3478.000000	99.526039
3477.000000	99.526425
3476.000000	99.526043
3475.000000	99.525998
3474.000000	99.525634
3473.000000	99.524162
3472.000000	99.522516
3471.000000	99.522409
3470.000000	99.523461
3469.000000	99.522644
3468.000000	99.517419
3467.000000	99.509061
3466.000000	99.502180
3465.000000	99.501034
3464.000000	99.506528
3463.000000	99.515870
3462.000000	99.524435
3461.000000	99.528450
3460.000000	99.527026
3459.000000	99.522098
3458.000000	99.516466
3457.000000	99.511914
3456.000000	99.509014
3455.000000	99.507773
3454.000000	99.507854
3453.000000	99.508342
3452.000000	99.508122
3451.000000	99.506710
3450.000000	99.504604
3449.000000	99.502983
3448.000000	99.503051
3447.000000	99.504840
3446.000000	99.506131
3445.000000	99.503884
3444.000000	99.497629
3443.000000	99.490815
3442.000000	99.487956
3441.000000	99.490163
3440.000000	99.494149
3439.000000	99.495558
3438.000000	99.492673
3437.000000	99.486930
3436.000000	99.481126
3435.000000	99.477643
3434.000000	99.477611
3433.000000	99.480494
3432.000000	99.484215
3431.000000	99.486166
3430.000000	99.484776
3429.000000	99.480781
3428.000000	99.477068
3427.000000	99.476726
3426.000000	99.480550
3425.000000	99.486132
3424.000000	99.489501
3423.000000	99.487854
3422.000000	99.481242
3421.000000	99.472408
3420.000000	99.465000
3419.000000	99.461151
3418.000000	99.460138
3417.000000	99.459293
3416.000000	99.456354
3415.000000	99.451205
3414.000000	99.445712
3413.000000	99.442155
3412.000000	99.441625
3411.000000	99.443285
3410.000000	99.445059
3409.000000	99.445662
3408.000000	99.446136
3407.000000	99.448610
3406.000000	99.453312
3405.000000	99.457711
3404.000000	99.459255
3403.000000	99.458091
3402.000000	99.456089
3401.000000	99.453896
3400.000000	99.450460
3399.000000	99.445457
3398.000000	99.440714
3397.000000	99.438293
3396.000000	99.437959
3395.000000	99.437720
3394.000000	99.436625
3393.000000	99.435913
3392.000000	99.437093
3391.000000	99.439684
3390.000000	99.441652
3389.000000	99.441501
3388.000000	99.438963
3387.000000	99.433995
3386.000000	99.426526
3385.000000	99.417750
3384.000000	99.410468
3383.000000	99.406727
3382.000000	99.405538
3381.000000	99.404052
3380.000000	99.400914
3379.000000	99.397474
3378.000000	99.395595
3377.000000	99.395442
3376.000000	99.395841
3375.000000	99.395970
3374.000000	99.395932
3373.000000	99.396070
3372.000000	99.396249
3371.000000	99.395627
3370.000000	99.392866
3369.000000	99.387048
3368.000000	99.378981
3367.000000	99.371355
3366.000000	99.366821
3365.000000	99.365699
3364.000000	99.365898
3363.000000	99.365053
3362.000000	99.362439
3361.000000	99.358874
3360.000000	99.355262
3359.000000	99.351683
3358.000000	99.347980
3357.000000	99.344849
3356.000000	99.343628
3355.000000	99.344620
3354.000000	99.346173
3353.000000	99.346350
3352.000000	99.345414
3351.000000	99.345543
3350.000000	99.347659
3349.000000	99.349539
3348.000000	99.348096
3347.000000	99.343141
3346.000000	99.337944
3345.000000	99.336033
3344.000000	99.337999
3343.000000	99.341297
3342.000000	99.342359
3341.000000	99.338776
3340.000000	99.330647
3339.000000	99.320895
3338.000000	99.313909
3337.000000	99.312456
3336.000000	99.315003
3335.000000	99.316506
3334.000000	99.312772
3333.000000	99.304362
3332.000000	99.295948
3331.000000	99.291993
3330.000000	99.293405
3329.000000	99.298004
3328.000000	99.302973
3327.000000	99.306109
3326.000000	99.305879
3325.000000	99.302079
3324.000000	99.296638
3323.000000	99.292336
3322.000000	99.290174
3321.000000	99.289087
3320.000000	99.288498
3319.000000	99.289634
3318.000000	99.293176
3317.000000	99.296699
3316.000000	99.296323
3315.000000	99.290972
3314.000000	99.283627
3313.000000	99.277976
3312.000000	99.274925
3311.000000	99.272854
3310.000000	99.270375
3309.000000	99.267870
3308.000000	99.266400
3307.000000	99.265974
3306.000000	99.265353
3305.000000	99.263385
3304.000000	99.260179
3303.000000	99.256680
3302.000000	99.253183
3301.000000	99.248716
3300.000000	99.242301
3299.000000	99.234601
3298.000000	99.227868
3297.000000	99.224299
3296.000000	99.224673
3295.000000	99.228327
3294.000000	99.233817
3293.000000	99.239333
3292.000000	99.243017
3291.000000	99.243702
3290.000000	99.241686
3289.000000	99.238630
3288.000000	99.236251
3287.000000	99.234786
3286.000000	99.232900
3285.000000	99.229497
3284.000000	99.225482
3283.000000	99.223037
3282.000000	99.222956
3281.000000	99.223536
3280.000000	99.222776
3279.000000	99.220964
3278.000000	99.220177
3277.000000	99.221373
3276.000000	99.222880
3275.000000	99.222108
3274.000000	99.218160
3273.000000	99.212508
3272.000000	99.207638
3271.000000	99.205268
3270.000000	99.205405
3269.000000	99.206585
3268.000000	99.207151
3267.000000	99.206669
3266.000000	99.206299
3265.000000	99.207799
3264.000000	99.212035
3263.000000	99.218291
3262.000000	99.224739
3261.000000	99.229554
3260.000000	99.231771
3259.000000	99.231334
3258.000000	99.228671
3257.000000	99.224527
3256.000000	99.220154
3255.000000	99.217025
3254.000000	99.215894
3253.000000	99.216434
3252.000000	99.218158
3251.000000	99.221217
3250.000000	99.225613
3249.000000	99.229976
3248.000000	99.232239
3247.000000	99.231858
3246.000000	99.230704
3245.000000	99.231261
3244.000000	99.234092
3243.000000	99.237377
3242.000000	99.238560
3241.000000	99.236429
3240.000000	99.232287
3239.000000	99.229451
3238.000000	99.230851
3237.000000	99.236273
3236.000000	99.242139
3235.000000	99.244597
3234.000000	99.242719
3233.000000	99.238490
3232.000000	99.234405
3231.000000	99.231827
3230.000000	99.231316
3229.000000	99.233260
3228.000000	99.237613
3227.000000	99.243467
3226.000000	99.249196
3225.000000	99.252974
3224.000000	99.253493
3223.000000	99.250934
3222.000000	99.247327
3221.000000	99.245221
3220.000000	99.245446
3219.000000	99.246371
3218.000000	99.245822
3217.000000	99.243461
3216.000000	99.241083
3215.000000	99.240760
3214.000000	99.242664
3213.000000	99.244597
3212.000000	99.243792
3211.000000	99.239663
3210.000000	99.234753
3209.000000	99.232523
3208.000000	99.234238
3207.000000	99.238344
3206.000000	99.242625
3205.000000	99.245991
3204.000000	99.248161
3203.000000	99.248919
3202.000000	99.248467
3201.000000	99.247719
3200.000000	99.247300
3199.000000	99.246608
3198.000000	99.244703
3197.000000	99.241786
3196.000000	99.239140
3195.000000	99.237886
3194.000000	99.238613
3193.000000	99.241791
3192.000000	99.247297
3191.000000	99.253342
3190.000000	99.257003
3189.000000	99.256627
3188.000000	99.253376
3187.000000	99.249940
3186.000000	99.248056
3185.000000	99.247568
3184.000000	99.247562
3183.000000	99.247772
3182.000000	99.248650
3181.000000	99.250377
3180.000000	99.252324
3179.000000	99.253761
3178.000000	99.254820
3177.000000	99.256222
3176.000000	99.258088
3175.000000	99.259689
3174.000000	99.260619
3173.000000	99.261430
3172.000000	99.262528
3171.000000	99.263078
3170.000000	99.262049
3169.000000	99.260123
3168.000000	99.259483
3167.000000	99.261454
3166.000000	99.265109
3165.000000	99.268414
3164.000000	99.270104
3163.000000	99.270275
3162.000000	99.269915
3161.000000	99.270210
3160.000000	99.271692
3159.000000	99.273439
3158.000000	99.273484
3157.000000	99.270562
3156.000000	99.265418
3155.000000	99.260237
3154.000000	99.257124
3153.000000	99.257293
3152.000000	99.261071
3151.000000	99.267878
3150.000000	99.276048
3149.000000	99.283118
3148.000000	99.286569
3147.000000	99.284699
3146.000000	99.277667
3145.000000	99.268293
3144.000000	99.261405
3143.000000	99.260969
3142.000000	99.267059
3141.000000	99.275716
3140.000000	99.282339
3139.000000	99.285419
3138.000000	99.287118
3137.000000	99.290304
3136.000000	99.295326
3135.000000	99.299693
3134.000000	99.300779
3133.000000	99.298554
3132.000000	99.295723
3131.000000	99.295494
3130.000000	99.299217
3129.000000	99.305442
3128.000000	99.310686
3127.000000	99.311729
3126.000000	99.308204
3125.000000	99.303013
3124.000000	99.299722
3123.000000	99.299407
3122.000000	99.300358
3121.000000	99.300480
3120.000000	99.299086
3119.000000	99.296341
3118.000000	99.292406
3117.000000	99.288086
3116.000000	99.285526
3115.000000	99.286837
3114.000000	99.291744
3113.000000	99.297236
3112.000000	99.299897
3111.000000	99.298511
3110.000000	99.294660
3109.000000	99.291223
3108.000000	99.290337
3107.000000	99.292195
3106.000000	99.295098
3105.000000	99.296599
3104.000000	99.295161
3103.000000	99.291383
3102.000000	99.287787
3101.000000	99.286965
3100.000000	99.289183
3099.000000	99.291746
3098.000000	99.291147
3097.000000	99.286272
3096.000000	99.279525
3095.000000	99.274826
3094.000000	99.274522
3093.000000	99.278043
3092.000000	99.282869
3091.000000	99.286398
3090.000000	99.287366
3089.000000	99.286210
3088.000000	99.284336
3087.000000	99.282881
3086.000000	99.282145
3085.000000	99.281959
3084.000000	99.282125
3083.000000	99.282253
3082.000000	99.281561
3081.000000	99.279339
3080.000000	99.275590
3079.000000	99.271167
3078.000000	99.267521
3077.000000	99.266211
3076.000000	99.267924
3075.000000	99.271414
3074.000000	99.273867
3073.000000	99.273216
3072.000000	99.270303
3071.000000	99.268224
3070.000000	99.269251
3069.000000	99.272599
3068.000000	99.275297
3067.000000	99.274997
3066.000000	99.271854
3065.000000	99.267936
3064.000000	99.265129
3063.000000	99.263824
3062.000000	99.263400
3061.000000	99.263424
3060.000000	99.263872
3059.000000	99.264536
3058.000000	99.265092
3057.000000	99.265997
3056.000000	99.268516
3055.000000	99.273171
3054.000000	99.278485
3053.000000	99.281891
3052.000000	99.281869
3051.000000	99.279105
3050.000000	99.275994
3049.000000	99.275226
3048.000000	99.278086
3047.000000	99.283183
3046.000000	99.286976
3045.000000	99.286409
3044.000000	99.281484
3043.000000	99.275294
3042.000000	99.271641
3041.000000	99.272588
3040.000000	99.277690
3039.000000	99.284669
3038.000000	99.290652
3037.000000	99.293370
3036.000000	99.291912
3035.000000	99.286905
3034.000000	99.280294
3033.000000	99.274676
3032.000000	99.272079
3031.000000	99.272874
3030.000000	99.276122
3029.000000	99.280985
3028.000000	99.287052
3027.000000	99.293002
3026.000000	99.295996
3025.000000	99.293564
3024.000000	99.286020
3023.000000	99.276427
3022.000000	99.268468
3021.000000	99.264762
3020.000000	99.266302
3019.000000	99.271940
3018.000000	99.278203
3017.000000	99.280927
3016.000000	99.278090
3015.000000	99.271138
3014.000000	99.263621
3013.000000	99.258575
3012.000000	99.256540
3011.000000	99.254989
3010.000000	99.250028
3009.000000	99.239897
3008.000000	99.227228
3007.000000	99.217115
3006.000000	99.212621
3005.000000	99.212540
3004.000000	99.213374
3003.000000	99.212570
3002.000000	99.209744
3001.000000	99.206110
3000.000000	99.203498
2999.000000	99.203046
2998.000000	99.203780
2997.000000	99.202996
2996.000000	99.198972
2995.000000	99.192968
2994.000000	99.187491
2993.000000	99.182585
2992.000000	99.174899
2991.000000	99.160931
2990.000000	99.140763
2989.000000	99.118315
2988.000000	99.098331
2987.000000	99.083176
2986.000000	99.071802
2985.000000	99.060961
2984.000000	99.047424
2983.000000	99.030071
2982.000000	99.010603
2981.000000	98.992178
2980.000000	98.976654
2979.000000	98.962940
2978.000000	98.948125
2977.000000	98.930107
2976.000000	98.908713
2975.000000	98.884427
2974.000000	98.856894
2973.000000	98.825279
2972.000000	98.789729
2971.000000	98.751734
2970.000000	98.713114
2969.000000	98.675067
2968.000000	98.638112
2967.000000	98.602256
2966.000000	98.566969
2965.000000	98.531513
2964.000000	98.495818
2963.000000	98.460901
2962.000000	98.427955
2961.000000	98.396890
2960.000000	98.366142
2959.000000	98.334347
2958.000000	98.302251
2957.000000	98.272567
2956.000000	98.247805
2955.000000	98.228638
2954.000000	98.214653
2953.000000	98.206091
2952.000000	98.203647
2951.000000	98.206385
2950.000000	98.210585
2949.000000	98.211401
2948.000000	98.205412
2947.000000	98.191450
2946.000000	98.169484
2945.000000	98.139376
2944.000000	98.100977
2943.000000	98.054822
2942.000000	98.002341
2941.000000	97.944932
2940.000000	97.882840
2939.000000	97.815230
2938.000000	97.741466
2937.000000	97.662026
2936.000000	97.577536
2935.000000	97.487482
2934.000000	97.390921
2933.000000	97.288509
2932.000000	97.182998
2931.000000	97.077401
2930.000000	96.973487
2929.000000	96.872066
2928.000000	96.773895
2927.000000	96.680175
2926.000000	96.593442
2925.000000	96.518945
2924.000000	96.463692
2923.000000	96.432773
2922.000000	96.426186
2921.000000	96.439838
2920.000000	96.469676
2919.000000	96.514506
2918.000000	96.575799
2917.000000	96.655359
2916.000000	96.753201
2915.000000	96.866841
2914.000000	96.991844
2913.000000	97.122597
2912.000000	97.252104
2911.000000	97.372226
2910.000000	97.476024
2909.000000	97.561529
2908.000000	97.633012
2907.000000	97.697314
2906.000000	97.758573
2905.000000	97.816362
2904.000000	97.868381
2903.000000	97.913755
2902.000000	97.953682
2901.000000	97.989693
2900.000000	98.022727
2899.000000	98.053935
2898.000000	98.085469
2897.000000	98.119583
2896.000000	98.156492
2895.000000	98.193582
2894.000000	98.227453
2893.000000	98.256823
2892.000000	98.283192
2891.000000	98.308953
2890.000000	98.335452
2889.000000	98.362608
2888.000000	98.389164
2887.000000	98.412918
2886.000000	98.431870
2885.000000	98.446088
2884.000000	98.457986
2883.000000	98.469965
2882.000000	98.482004
2881.000000	98.491909
2880.000000	98.497354
2879.000000	98.497179
2878.000000	98.491552
2877.000000	98.481940
2876.000000	98.470540
2875.000000	98.458726
2874.000000	98.446050
2873.000000	98.431469
2872.000000	98.415492
2871.000000	98.400456
2870.000000	98.388603
2869.000000	98.380021
2868.000000	98.372112
2867.000000	98.360541
2866.000000	98.341336
2865.000000	98.313090
2864.000000	98.277065
2863.000000	98.234749
2862.000000	98.185488
2861.000000	98.126915
2860.000000	98.057116
2859.000000	97.975730
2858.000000	97.883942
2857.000000	97.785176
2856.000000	97.685865
2855.000000	97.594113
2854.000000	97.517329
2853.000000	97.461250
2852.000000	97.430857
2851.000000	97.431082
2850.000000	97.465688
2849.000000	97.535558
2848.000000	97.637360
2847.000000	97.763130
2846.000000	97.901581
2845.000000	98.041189
2844.000000	98.172728
2843.000000	98.290126
2842.000000	98.390529
2841.000000	98.474828
2840.000000	98.547535
2839.000000	98.613771
2838.000000	98.675561
2837.000000	98.731495
2836.000000	98.779564
2835.000000	98.819206
2834.000000	98.850900
2833.000000	98.875559
2832.000000	98.895046
2831.000000	98.911958
2830.000000	98.927875
2829.000000	98.942522
2828.000000	98.955137
2827.000000	98.965963
2826.000000	98.975968
2825.000000	98.985758
2824.000000	98.995371
2823.000000	99.004640
2822.000000	99.013454
2821.000000	99.022182
2820.000000	99.031870
2819.000000	99.043201
2818.000000	99.055085
2817.000000	99.065270
2816.000000	99.072778
2815.000000	99.078779
2814.000000	99.084518
2813.000000	99.089394
2812.000000	99.092042
2811.000000	99.092629
2810.000000	99.093046
2809.000000	99.095037
2808.000000	99.098886
2807.000000	99.103746
2806.000000	99.108558
2805.000000	99.112664
2804.000000	99.116045
2803.000000	99.119105
2802.000000	99.122123
2801.000000	99.125042
2800.000000	99.127826
2799.000000	99.130615
2798.000000	99.133358
2797.000000	99.135735
2796.000000	99.137698
2795.000000	99.139701
2794.000000	99.142148
2793.000000	99.144976
2792.000000	99.147965
2791.000000	99.151047
2790.000000	99.154140
2789.000000	99.157171
2788.000000	99.160481
2787.000000	99.164582
2786.000000	99.169038
2785.000000	99.172094
2784.000000	99.172188
2783.000000	99.169904
2782.000000	99.168047
2781.000000	99.169468
2780.000000	99.174523
2779.000000	99.180470
2778.000000	99.183600
2777.000000	99.182490
2776.000000	99.179300
2775.000000	99.177588
2774.000000	99.179021
2773.000000	99.182644
2772.000000	99.186860
2771.000000	99.191019
2770.000000	99.194979
2769.000000	99.198261
2768.000000	99.200325
2767.000000	99.201096
2766.000000	99.200909
2765.000000	99.200432
2764.000000	99.200810
2763.000000	99.202978
2762.000000	99.206371
2761.000000	99.209104
2760.000000	99.210155
2759.000000	99.210826
2758.000000	99.213298
2757.000000	99.217999
2756.000000	99.222958
2755.000000	99.225645
2754.000000	99.225144
2753.000000	99.222725
2752.000000	99.220632
2751.000000	99.220142
2750.000000	99.220641
2749.000000	99.220663
2748.000000	99.219670
2747.000000	99.218388
2746.000000	99.217550
2745.000000	99.217152
2744.000000	99.217059
2743.000000	99.217494
2742.000000	99.218429
2741.000000	99.219024
2740.000000	99.218179
2739.000000	99.215476
2738.000000	99.211684
2737.000000	99.208880
2736.000000	99.209717
2735.000000	99.215260
2734.000000	99.223103
2733.000000	99.228866
2732.000000	99.230494
2731.000000	99.230224
2730.000000	99.231508
2729.000000	99.234731
2728.000000	99.237092
2727.000000	99.236242
2726.000000	99.232820
2725.000000	99.229542
2724.000000	99.228730
2723.000000	99.230878
2722.000000	99.234802
2721.000000	99.238741
2720.000000	99.241489
2719.000000	99.242646
2718.000000	99.242122
2717.000000	99.240114
2716.000000	99.237637
2715.000000	99.236120
2714.000000	99.235808
2713.000000	99.235298
2712.000000	99.233467
2711.000000	99.231242
2710.000000	99.230592
2709.000000	99.232203
2708.000000	99.235111
2707.000000	99.238284
2706.000000	99.241442
2705.000000	99.244364
2704.000000	99.246597
2703.000000	99.248195
2702.000000	99.249955
2701.000000	99.252509
2700.000000	99.255627
2699.000000	99.258525
2698.000000	99.260296
2697.000000	99.259963
2696.000000	99.256960
2695.000000	99.252121
2694.000000	99.247784
2693.000000	99.246280
2692.000000	99.248188
2691.000000	99.251935
2690.000000	99.254870
2689.000000	99.254831
2688.000000	99.251462
2687.000000	99.246724
2686.000000	99.243908
2685.000000	99.245352
2684.000000	99.250498
2683.000000	99.256122
2682.000000	99.258789
2681.000000	99.257511
2680.000000	99.254265
2679.000000	99.251926
2678.000000	99.251698
2677.000000	99.252569
2676.000000	99.252918
2675.000000	99.252184
2674.000000	99.250988
2673.000000	99.250366
2672.000000	99.251236
2671.000000	99.253990
2670.000000	99.257881
2669.000000	99.261070
2668.000000	99.262014
2667.000000	99.260825
2666.000000	99.258708
2665.000000	99.256134
2664.000000	99.252328
2663.000000	99.246834
2662.000000	99.240941
2661.000000	99.236897
2660.000000	99.235828
2659.000000	99.236807
2658.000000	99.238011
2657.000000	99.238493
2656.000000	99.238746
2655.000000	99.239737
2654.000000	99.241775
2653.000000	99.244554
2652.000000	99.248025
2651.000000	99.252602
2650.000000	99.258209
2649.000000	99.263642
2648.000000	99.267517
2647.000000	99.269609
2646.000000	99.270502
2645.000000	99.270084
2644.000000	99.267595
2643.000000	99.263630
2642.000000	99.260898
2641.000000	99.261824
2640.000000	99.265862
2639.000000	99.270368
2638.000000	99.273855
2637.000000	99.276957
2636.000000	99.280144
2635.000000	99.282265
2634.000000	99.282385
2633.000000	99.281753
2632.000000	99.282542
2631.000000	99.285247
2630.000000	99.288699
2629.000000	99.292187
2628.000000	99.296077
2627.000000	99.300515
2626.000000	99.305014
2625.000000	99.309384
2624.000000	99.313631
2623.000000	99.316791
2622.000000	99.317543
2621.000000	99.316481
2620.000000	99.316031
2619.000000	99.317200
2618.000000	99.317900
2617.000000	99.315797
2616.000000	99.311616
2615.000000	99.308310
2614.000000	99.308003
2613.000000	99.310857
2612.000000	99.315532
2611.000000	99.319062
2610.000000	99.317725
2609.000000	99.310657
2608.000000	99.302295
2607.000000	99.298813
2606.000000	99.301889
2605.000000	99.307973
2604.000000	99.313567
2603.000000	99.318737
2602.000000	99.324669
2601.000000	99.330315
2600.000000	99.333717
2599.000000	99.335380
2598.000000	99.338130
2597.000000	99.343498
2596.000000	99.349620
2595.000000	99.353227
2594.000000	99.352949
2593.000000	99.349996
2592.000000	99.345923
2591.000000	99.340970
2590.000000	99.335358
2589.000000	99.331283
2588.000000	99.331673
2587.000000	99.336536
2586.000000	99.342359
2585.000000	99.346191
2584.000000	99.348920
2583.000000	99.353130
2582.000000	99.359040
2581.000000	99.364342
2580.000000	99.367119
2579.000000	99.367272
2578.000000	99.365849
2577.000000	99.364702
2576.000000	99.365872
2575.000000	99.369221
2574.000000	99.371459
2573.000000	99.369770
2572.000000	99.365731
2571.000000	99.363260
2570.000000	99.363388
2569.000000	99.364009
2568.000000	99.364553
2567.000000	99.367579
2566.000000	99.374977
2565.000000	99.385310
2564.000000	99.395577
2563.000000	99.403070
2562.000000	99.404955
2561.000000	99.399371
2560.000000	99.388559
2559.000000	99.378202
2558.000000	99.371819
2557.000000	99.367829
2556.000000	99.363578
2555.000000	99.359811
2554.000000	99.359064
2553.000000	99.361768
2552.000000	99.366486
2551.000000	99.372427
2550.000000	99.379105
2549.000000	99.384242
2548.000000	99.384565
2547.000000	99.378917
2546.000000	99.369478
2545.000000	99.360427
2544.000000	99.356293
2543.000000	99.360188
2542.000000	99.371387
2541.000000	99.384530
2540.000000	99.392562
2539.000000	99.390850
2538.000000	99.378875
2537.000000	99.359735
2536.000000	99.339380
2535.000000	99.324721
2534.000000	99.319843
2533.000000	99.323495
2532.000000	99.331002
2531.000000	99.338412
2530.000000	99.344097
2529.000000	99.347519
2528.000000	99.348290
2527.000000	99.346486
2526.000000	99.342596
2525.000000	99.337121
2524.000000	99.331274
2523.000000	99.327861
2522.000000	99.329890
2521.000000	99.337252
2520.000000	99.345157
2519.000000	99.346566
2518.000000	99.336993
2517.000000	99.318167
2516.000000	99.297738
2515.000000	99.284683
2514.000000	99.283265
2513.000000	99.290351
2512.000000	99.298583
2511.000000	99.302493
2510.000000	99.301580
2509.000000	99.298048
2508.000000	99.292894
2507.000000	99.285615
2506.000000	99.277642
2505.000000	99.273876
2504.000000	99.278831
2503.000000	99.291411
2502.000000	99.305507
2501.000000	99.316312
2500.000000	99.324159
2499.000000	99.331374
2498.000000	99.337410
2497.000000	99.339312
2496.000000	99.336081
2495.000000	99.330376
2494.000000	99.326219
2493.000000	99.326431
2492.000000	99.331583
2491.000000	99.339397
2490.000000	99.345551
2489.000000	99.347239
2488.000000	99.345957
2487.000000	99.344974
2486.000000	99.344498
2485.000000	99.341854
2484.000000	99.336680
2483.000000	99.333173
2482.000000	99.335935
2481.000000	99.345569
2480.000000	99.359098
2479.000000	99.372878
2478.000000	99.383972
2477.000000	99.390650
2476.000000	99.393627
2475.000000	99.395956
2474.000000	99.400263
2473.000000	99.406299
2472.000000	99.411728
2471.000000	99.414424
2470.000000	99.413524
2469.000000	99.409465
2468.000000	99.403936
2467.000000	99.399084
2466.000000	99.395912
2465.000000	99.393989
2464.000000	99.393103
2463.000000	99.394262
2462.000000	99.398314
2461.000000	99.404060
2460.000000	99.408290
2459.000000	99.407724
2458.000000	99.401478
2457.000000	99.392735
2456.000000	99.387751
2455.000000	99.391560
2454.000000	99.403608
2453.000000	99.417712
2452.000000	99.426357
2451.000000	99.425128
2450.000000	99.414877
2449.000000	99.401721
2448.000000	99.394072
2447.000000	99.396562
2446.000000	99.405875
2445.000000	99.414426
2444.000000	99.418726
2443.000000	99.422238
2442.000000	99.429458
2441.000000	99.439502
2440.000000	99.446928
2439.000000	99.447364
2438.000000	99.441004
2437.000000	99.432016
2436.000000	99.425732
2435.000000	99.425226
2434.000000	99.429169
2433.000000	99.433227
2432.000000	99.434152
2431.000000	99.432335
2430.000000	99.430666
2429.000000	99.431967
2428.000000	99.437043
2427.000000	99.443264
2426.000000	99.445305
2425.000000	99.439928
2424.000000	99.430883
2423.000000	99.426465
2422.000000	99.430406
2421.000000	99.437267
2420.000000	99.438798
2419.000000	99.433171
2418.000000	99.425657
2417.000000	99.421432
2416.000000	99.420777
2415.000000	99.421482
2414.000000	99.423038
2413.000000	99.426638
2412.000000	99.431911
2411.000000	99.435596
2410.000000	99.434466
2409.000000	99.429433
2408.000000	99.425877
2407.000000	99.428731
2406.000000	99.436939
2405.000000	99.443482
2404.000000	99.441686
2403.000000	99.431908
2402.000000	99.421900
2401.000000	99.420157
2400.000000	99.428218
2399.000000	99.439245
2398.000000	99.444971
2397.000000	99.444054
2396.000000	99.442352
2395.000000	99.444648
2394.000000	99.448177
2393.000000	99.446411
2392.000000	99.437854
2391.000000	99.428519
2390.000000	99.425447
2389.000000	99.429681
2388.000000	99.436287
2387.000000	99.439306
2386.000000	99.436815
2385.000000	99.432030
2384.000000	99.430150
2383.000000	99.433642
2382.000000	99.439668
2381.000000	99.443587
2380.000000	99.443983
2379.000000	99.443227
2378.000000	99.443731
2377.000000	99.444944
2376.000000	99.444315
2375.000000	99.440156
2374.000000	99.434521
2373.000000	99.433144
2372.000000	99.440878
2371.000000	99.455249
2370.000000	99.467196
2369.000000	99.470086
2368.000000	99.463906
2367.000000	99.451587
2366.000000	99.436501
2365.000000	99.425249
2364.000000	99.425542
2363.000000	99.434912
2362.000000	99.440627
2361.000000	99.436569
2360.000000	99.430074
2359.000000	99.432824
2358.000000	99.446081
2357.000000	99.459565
2356.000000	99.461291
2355.000000	99.445453
2354.000000	99.422825
2353.000000	99.411487
2352.000000	99.416675
2351.000000	99.426992
2350.000000	99.430047
2349.000000	99.424992
2348.000000	99.418037
2347.000000	99.417021
2346.000000	99.421651
2345.000000	99.420033
2344.000000	99.404526
2343.000000	99.383568
2342.000000	99.375174
2341.000000	99.386097
2340.000000	99.404575
2339.000000	99.414191
2338.000000	99.410712
2337.000000	99.401207
2336.000000	99.393298
2335.000000	99.391098
2334.000000	99.398932
2333.000000	99.418094
2332.000000	99.440171
2331.000000	99.452779
2330.000000	99.449626
2329.000000	99.435234
2328.000000	99.414182
2327.000000	99.389289
2326.000000	99.365085
2325.000000	99.348319
2324.000000	99.344638
2323.000000	99.352026
2322.000000	99.363292
2321.000000	99.369454
2320.000000	99.366005
2319.000000	99.354534
2318.000000	99.339917
2317.000000	99.328032
2316.000000	99.323353
2315.000000	99.328526
2314.000000	99.341252
2313.000000	99.355056
2312.000000	99.363288
2311.000000	99.364861
2310.000000	99.364061
2309.000000	99.365980
2308.000000	99.372425
2307.000000	99.381368
2306.000000	99.389437
2305.000000	99.394060
2304.000000	99.395303
2303.000000	99.394464
2302.000000	99.392877
2301.000000	99.392240
2300.000000	99.395447
2299.000000	99.404517
2298.000000	99.416107
2297.000000	99.422770
2296.000000	99.418677
2295.000000	99.405349
2294.000000	99.390588
2293.000000	99.383586
2292.000000	99.389220
2291.000000	99.403967
2290.000000	99.417245
2289.000000	99.419277
2288.000000	99.409662
2287.000000	99.396136
2286.000000	99.386003
2285.000000	99.381324
2284.000000	99.382341
2283.000000	99.389232
2282.000000	99.399097
2281.000000	99.405976
2280.000000	99.408078
2279.000000	99.410657
2278.000000	99.418007
2277.000000	99.426208
2276.000000	99.428057
2275.000000	99.423050
2274.000000	99.417717
2273.000000	99.417640
2272.000000	99.422215
2271.000000	99.426712
2270.000000	99.427082
2269.000000	99.423941
2268.000000	99.423375
2267.000000	99.431364
2266.000000	99.445492
2265.000000	99.455375
2264.000000	99.454247
2263.000000	99.447680
2262.000000	99.447190
2261.000000	99.456930
2260.000000	99.469697
2259.000000	99.474613
2258.000000	99.466997
2257.000000	99.451817
2256.000000	99.439357
2255.000000	99.435742
2254.000000	99.437151
2253.000000	99.436022
2252.000000	99.432380
2251.000000	99.434170
2250.000000	99.444982
2249.000000	99.457437
2248.000000	99.462711
2247.000000	99.462271
2246.000000	99.464861
2245.000000	99.474057
2244.000000	99.483517
2243.000000	99.484577
2242.000000	99.475966
2241.000000	99.465703
2240.000000	99.463837
2239.000000	99.472275
2238.000000	99.482677
2237.000000	99.486171
2236.000000	99.483337
2235.000000	99.481032
2234.000000	99.482333
2233.000000	99.486073
2232.000000	99.493498
2231.000000	99.505757
2230.000000	99.514634
2229.000000	99.507082
2228.000000	99.483143
2227.000000	99.460234
2226.000000	99.454829
2225.000000	99.467094
2224.000000	99.486513
2223.000000	99.503414
2222.000000	99.510647
2221.000000	99.504401
2220.000000	99.491005
2219.000000	99.484102
2218.000000	99.487693
2217.000000	99.490305
2216.000000	99.483497
2215.000000	99.476777
2214.000000	99.483853
2213.000000	99.502428
2212.000000	99.519586
2211.000000	99.530957
2210.000000	99.540398
2209.000000	99.543752
2208.000000	99.527965
2207.000000	99.488619
2206.000000	99.439047
2205.000000	99.399962
2204.000000	99.385720
2203.000000	99.399578
2202.000000	99.434388
2201.000000	99.475466
2200.000000	99.508359
2199.000000	99.526688
2198.000000	99.531161
2197.000000	99.524438
2196.000000	99.511435
2195.000000	99.501031
2194.000000	99.501237
2193.000000	99.512878
2192.000000	99.530407
2191.000000	99.546314
2190.000000	99.552310
2189.000000	99.542700
2188.000000	99.523041
2187.000000	99.509537
2186.000000	99.511846
2185.000000	99.520044
2184.000000	99.516308
2183.000000	99.497752
2182.000000	99.479987
2181.000000	99.479119
2180.000000	99.497305
2179.000000	99.525179
2178.000000	99.550980
2177.000000	99.565805
2176.000000	99.566427
2175.000000	99.556078
2174.000000	99.540748
2173.000000	99.525326
2172.000000	99.513785
2171.000000	99.509424
2170.000000	99.512433
2169.000000	99.518945
2168.000000	99.522931
2167.000000	99.516817
2166.000000	99.492489
2165.000000	99.449441
2164.000000	99.403487
2163.000000	99.378543
2162.000000	99.386748
2161.000000	99.422643
2160.000000	99.475709
2159.000000	99.538196
2158.000000	99.596839
2157.000000	99.633719
2156.000000	99.645786
2155.000000	99.649237
2154.000000	99.659622
2153.000000	99.677418
2152.000000	99.692524
2151.000000	99.693843
2150.000000	99.674871
2149.000000	99.640239
2148.000000	99.608472
2147.000000	99.599029
2146.000000	99.614636
2145.000000	99.642342
2144.000000	99.669932
2143.000000	99.691526
2142.000000	99.699190
2141.000000	99.684760
2140.000000	99.654689
2139.000000	99.629935
2138.000000	99.623755
2137.000000	99.628002
2136.000000	99.626157
2135.000000	99.612778
2134.000000	99.594975
2133.000000	99.582321
2132.000000	99.581221
2131.000000	99.592336
2130.000000	99.607295
2129.000000	99.612105
2128.000000	99.599208
2127.000000	99.574027
2126.000000	99.547697
2125.000000	99.527406
2124.000000	99.515316
2123.000000	99.510827
2122.000000	99.509847
2121.000000	99.506161
2120.000000	99.498319
2119.000000	99.492255
2118.000000	99.493417
2117.000000	99.499397
2116.000000	99.503789
2115.000000	99.504515
2114.000000	99.504505
2113.000000	99.506756
2112.000000	99.512374
2111.000000	99.521076
2110.000000	99.529826
2109.000000	99.532781
2108.000000	99.526391
2107.000000	99.513593
2106.000000	99.500880
2105.000000	99.493503
2104.000000	99.494870
2103.000000	99.506508
2102.000000	99.525226
2101.000000	99.543177
2100.000000	99.554556
2099.000000	99.560135
2098.000000	99.562784
2097.000000	99.561994
2096.000000	99.556164
2095.000000	99.546829
2094.000000	99.536686
2093.000000	99.526481
2092.000000	99.517670
2091.000000	99.514957
2090.000000	99.521099
2089.000000	99.530055
2088.000000	99.529852
2087.000000	99.514002
2086.000000	99.488348
2085.000000	99.466549
2084.000000	99.459046
2083.000000	99.465201
2082.000000	99.475858
2081.000000	99.483330
2080.000000	99.487793
2079.000000	99.493389
2078.000000	99.501363
2077.000000	99.510644
2076.000000	99.521392
2075.000000	99.531695
2074.000000	99.533125
2073.000000	99.518794
2072.000000	99.496174
2071.000000	99.481980
2070.000000	99.482359
2069.000000	99.486881
2068.000000	99.485457
2067.000000	99.482072
2066.000000	99.485948
2065.000000	99.496793
2064.000000	99.506729
2063.000000	99.512753
2062.000000	99.518646
2061.000000	99.525667
2060.000000	99.526862
2059.000000	99.511580
2058.000000	99.476345
2057.000000	99.434067
2056.000000	99.409718
2055.000000	99.418596
2054.000000	99.448011
2053.000000	99.468556
2052.000000	99.465102
2051.000000	99.448185
2050.000000	99.434487
2049.000000	99.427381
2048.000000	99.421553
2047.000000	99.417166
2046.000000	99.420010
2045.000000	99.433002
2044.000000	99.454617
2043.000000	99.480237
2042.000000	99.500558
2041.000000	99.507135
2040.000000	99.504725
2039.000000	99.507073
2038.000000	99.515437
2037.000000	99.514269
2036.000000	99.496297
2035.000000	99.479683
2034.000000	99.487626
2033.000000	99.520152
2032.000000	99.557741
2031.000000	99.585018
2030.000000	99.599317
2029.000000	99.604433
2028.000000	99.608604
2027.000000	99.623392
2026.000000	99.655779
2025.000000	99.702936
2024.000000	99.755041
2023.000000	99.796595
2022.000000	99.806501
2021.000000	99.771327
2020.000000	99.703942
2019.000000	99.636252
2018.000000	99.591179
2017.000000	99.570973
2016.000000	99.567743
2015.000000	99.571937
2014.000000	99.572263
2013.000000	99.563664
2012.000000	99.558124
2011.000000	99.572502
2010.000000	99.604340
2009.000000	99.635113
2008.000000	99.657538
2007.000000	99.679788
2006.000000	99.699417
2005.000000	99.699575
2004.000000	99.679589
2003.000000	99.662443
2002.000000	99.662351
2001.000000	99.664656
2000.000000	99.648742
1999.000000	99.617406
1998.000000	99.592201
1997.000000	99.589575
1996.000000	99.607922
1995.000000	99.629370
1994.000000	99.629608
1993.000000	99.598344
1992.000000	99.557810
1991.000000	99.542486
1990.000000	99.554565
1989.000000	99.561919
1988.000000	99.541994
1987.000000	99.505148
1986.000000	99.469724
1985.000000	99.437215
1984.000000	99.405512
1983.000000	99.385890
1982.000000	99.387733
1981.000000	99.400081
1980.000000	99.409855
1979.000000	99.429511
1978.000000	99.481773
1977.000000	99.556993
1976.000000	99.611723
1975.000000	99.617041
1974.000000	99.587180
1973.000000	99.560115
1972.000000	99.563984
1971.000000	99.597974
1970.000000	99.637908
1969.000000	99.662514
1968.000000	99.676104
1967.000000	99.698247
1966.000000	99.731941
1965.000000	99.759995
1964.000000	99.772915
1963.000000	99.776115
1962.000000	99.767050
1961.000000	99.729848
1960.000000	99.663025
1959.000000	99.593122
1958.000000	99.548291
1957.000000	99.533398
1956.000000	99.538563
1955.000000	99.556288
1954.000000	99.579076
1953.000000	99.593095
1952.000000	99.588526
1951.000000	99.570968
1950.000000	99.554228
1949.000000	99.545789
1948.000000	99.545256
1947.000000	99.550955
1946.000000	99.561171
1945.000000	99.573933
1944.000000	99.590233
1943.000000	99.612000
1942.000000	99.632779
1941.000000	99.640155
1940.000000	99.632577
1939.000000	99.622153
1938.000000	99.619011
1937.000000	99.622308
1936.000000	99.627058
1935.000000	99.631789
1934.000000	99.635069
1933.000000	99.632617
1932.000000	99.623169
1931.000000	99.611496
1930.000000	99.602706
1929.000000	99.597354
1928.000000	99.596803
1927.000000	99.606050
1926.000000	99.626551
1925.000000	99.651176
1924.000000	99.668887
1923.000000	99.673647
1922.000000	99.666118
1921.000000	99.650223
1920.000000	99.631931
1919.000000	99.617946
1918.000000	99.611735
1917.000000	99.610553
1916.000000	99.609740
1915.000000	99.608596
1914.000000	99.607162
1913.000000	99.602861
1912.000000	99.593497
1911.000000	99.580225
1910.000000	99.567248
1909.000000	99.560341
1908.000000	99.565522
1907.000000	99.582926
1906.000000	99.602776
1905.000000	99.613470
1904.000000	99.614074
1903.000000	99.614487
1902.000000	99.619917
1901.000000	99.622264
1900.000000	99.613180
1899.000000	99.597247
1898.000000	99.585661
1897.000000	99.583473
1896.000000	99.587791
1895.000000	99.595326
1894.000000	99.605017
1893.000000	99.614757
1892.000000	99.621634
1891.000000	99.624243
1890.000000	99.622635
1889.000000	99.618824
1888.000000	99.617392
1887.000000	99.622203
1886.000000	99.631313
1885.000000	99.638273
1884.000000	99.640416
1883.000000	99.642108
1882.000000	99.646764
1881.000000	99.650216
1880.000000	99.647435
1879.000000	99.640636
1878.000000	99.635905
1877.000000	99.636576
1876.000000	99.642046
1875.000000	99.649088
1874.000000	99.652513
1873.000000	99.648333
1872.000000	99.639740
1871.000000	99.636464
1870.000000	99.644920
1869.000000	99.659714
1868.000000	99.669316
1867.000000	99.671432
1866.000000	99.673484
1865.000000	99.680136
1864.000000	99.689440
1863.000000	99.696418
1862.000000	99.695894
1861.000000	99.685762
1860.000000	99.670910
1859.000000	99.660448
1858.000000	99.658343
1857.000000	99.660326
1856.000000	99.662347
1855.000000	99.666517
1854.000000	99.675374
1853.000000	99.683932
1852.000000	99.685298
1851.000000	99.680767
1850.000000	99.676703
1849.000000	99.676924
1848.000000	99.680896
1847.000000	99.686847
1846.000000	99.692143
1845.000000	99.692528
1844.000000	99.688132
1843.000000	99.686419
1842.000000	99.692251
1841.000000	99.702032
1840.000000	99.709832
1839.000000	99.711871
1838.000000	99.707618
1837.000000	99.700136
1836.000000	99.694529
1835.000000	99.694474
1834.000000	99.698683
1833.000000	99.703377
1832.000000	99.708827
1831.000000	99.717548
1830.000000	99.725590
1829.000000	99.724301
1828.000000	99.712915
1827.000000	99.700173
1826.000000	99.692512
1825.000000	99.690418
1824.000000	99.692843
1823.000000	99.698786
1822.000000	99.706200
1821.000000	99.711987
1820.000000	99.715411
1819.000000	99.718225
1818.000000	99.721273
1817.000000	99.723978
1816.000000	99.726360
1815.000000	99.730233
1814.000000	99.735346
1813.000000	99.737956
1812.000000	99.734835
1811.000000	99.725671
1810.000000	99.713267
1809.000000	99.701170
1808.000000	99.691366
1807.000000	99.683592
1806.000000	99.674552
1805.000000	99.660126
1804.000000	99.639330
1803.000000	99.615375
1802.000000	99.590740
1801.000000	99.565689
1800.000000	99.542487
1799.000000	99.524438
1798.000000	99.511862
1797.000000	99.500969
1796.000000	99.488066
1795.000000	99.473809
1794.000000	99.461022
1793.000000	99.453920
1792.000000	99.460392
1791.000000	99.483937
1790.000000	99.516751
1789.000000	99.547807
1788.000000	99.571886
1787.000000	99.590260
1786.000000	99.606338
1785.000000	99.620678
1784.000000	99.631055
1783.000000	99.638108
1782.000000	99.643135
1781.000000	99.644850
1780.000000	99.644585
1779.000000	99.646199
1778.000000	99.651028
1777.000000	99.655066
1776.000000	99.655450
1775.000000	99.655331
1774.000000	99.657102
1773.000000	99.656764
1772.000000	99.653584
1771.000000	99.653950
1770.000000	99.658912
1769.000000	99.661701
1768.000000	99.655656
1767.000000	99.642478
1766.000000	99.630016
1765.000000	99.623227
1764.000000	99.621953
1763.000000	99.622847
1762.000000	99.619739
1761.000000	99.608708
1760.000000	99.593692
1759.000000	99.581286
1758.000000	99.572133
1757.000000	99.558560
1756.000000	99.537277
1755.000000	99.514316
1754.000000	99.493399
1753.000000	99.468979
1752.000000	99.433218
1751.000000	99.387514
1750.000000	99.342101
1749.000000	99.302551
1748.000000	99.267781
1747.000000	99.238304
1746.000000	99.211571
1745.000000	99.180933
1744.000000	99.143712
1743.000000	99.104006
1742.000000	99.066777
1741.000000	99.032402
1740.000000	98.999841
1739.000000	98.972256
1738.000000	98.951401
1737.000000	98.936193
1736.000000	98.928476
1735.000000	98.936116
1734.000000	98.965485
1733.000000	99.003656
1732.000000	99.038243
1731.000000	99.077335
1730.000000	99.126119
1729.000000	99.175438
1728.000000	99.216038
1727.000000	99.247785
1726.000000	99.272871
1725.000000	99.290741
1724.000000	99.303094
1723.000000	99.313321
1722.000000	99.322712
1721.000000	99.329317
1720.000000	99.333598
1719.000000	99.337519
1718.000000	99.340545
1717.000000	99.340916
1716.000000	99.338028
1715.000000	99.336065
1714.000000	99.337795
1713.000000	99.338887
1712.000000	99.336193
1711.000000	99.333197
1710.000000	99.333925
1709.000000	99.335648
1708.000000	99.334409
1707.000000	99.331797
1706.000000	99.332793
1705.000000	99.338497
1704.000000	99.342457
1703.000000	99.341949
1702.000000	99.338952
1701.000000	99.330536
1700.000000	99.316768
1699.000000	99.306653
1698.000000	99.304597
1697.000000	99.305674
1696.000000	99.303459
1695.000000	99.298499
1694.000000	99.294704
1693.000000	99.290275
1692.000000	99.280227
1691.000000	99.260495
1690.000000	99.231669
1689.000000	99.197330
1688.000000	99.163480
1687.000000	99.134455
1686.000000	99.107835
1685.000000	99.073591
1684.000000	99.035874
1683.000000	99.015060
1682.000000	99.007875
1681.000000	98.998915
1680.000000	98.983734
1679.000000	98.965169
1678.000000	98.947495
1677.000000	98.928136
1676.000000	98.904336
1675.000000	98.881981
1674.000000	98.868235
1673.000000	98.859806
1672.000000	98.851729
1671.000000	98.842367
1670.000000	98.833224
1669.000000	98.826745
1668.000000	98.824291
1667.000000	98.824872
1666.000000	98.823392
1665.000000	98.815076
1664.000000	98.798710
1663.000000	98.778292
1662.000000	98.759096
1661.000000	98.740082
1660.000000	98.721311
1659.000000	98.704675
1658.000000	98.688740
1657.000000	98.668142
1656.000000	98.644996
1655.000000	98.626059
1654.000000	98.614436
1653.000000	98.609783
1652.000000	98.606095
1651.000000	98.601506
1650.000000	98.598241
1649.000000	98.593119
1648.000000	98.582071
1647.000000	98.578288
1646.000000	98.594905
1645.000000	98.621222
1644.000000	98.642791
1643.000000	98.659954
1642.000000	98.674265
1641.000000	98.684195
1640.000000	98.689047
1639.000000	98.690897
1638.000000	98.693012
1637.000000	98.697234
1636.000000	98.709715
1635.000000	98.734632
1634.000000	98.759801
1633.000000	98.776994
1632.000000	98.788637
1631.000000	98.798101
1630.000000	98.807606
1629.000000	98.816904
1628.000000	98.826531
1627.000000	98.838185
1626.000000	98.850851
1625.000000	98.862795
1624.000000	98.877669
1623.000000	98.901021
1622.000000	98.927720
1621.000000	98.945808
1620.000000	98.955016
1619.000000	98.963468
1618.000000	98.975803
1617.000000	98.991208
1616.000000	99.009621
1615.000000	99.031991
1614.000000	99.053979
1613.000000	99.069893
1612.000000	99.079219
1611.000000	99.088186
1610.000000	99.101015
1609.000000	99.113984
1608.000000	99.123603
1607.000000	99.132662
1606.000000	99.142461
1605.000000	99.148900
1604.000000	99.151791
1603.000000	99.155984
1602.000000	99.162061
1601.000000	99.163976
1600.000000	99.158277
1599.000000	99.148508
1598.000000	99.138358
1597.000000	99.128410
1596.000000	99.119766
1595.000000	99.114217
1594.000000	99.109279
1593.000000	99.099597
1592.000000	99.085478
1591.000000	99.072901
1590.000000	99.064025
1589.000000	99.054452
1588.000000	99.041389
1587.000000	99.026051
1586.000000	99.007215
1585.000000	98.979498
1584.000000	98.943015
1583.000000	98.906240
1582.000000	98.873861
1581.000000	98.842746
1580.000000	98.811782
1579.000000	98.786318
1578.000000	98.769651
1577.000000	98.759964
1576.000000	98.759938
1575.000000	98.774594
1574.000000	98.795560
1573.000000	98.811590
1572.000000	98.822339
1571.000000	98.833082
1570.000000	98.848165
1569.000000	98.863238
1568.000000	98.874422
1567.000000	98.885166
1566.000000	98.896194
1565.000000	98.901294
1564.000000	98.897576
1563.000000	98.889986
1562.000000	98.880799
1561.000000	98.868213
1560.000000	98.843275
1559.000000	98.813234
1558.000000	98.798427
1557.000000	98.783224
1556.000000	98.761429
1555.000000	98.743937
1554.000000	98.725255
1553.000000	98.700652
1552.000000	98.666328
1551.000000	98.622665
1550.000000	98.567905
1549.000000	98.506225
1548.000000	98.443105
1547.000000	98.376880
1546.000000	98.296408
1545.000000	98.194600
1544.000000	98.084947
1543.000000	97.987128
1542.000000	97.901657
1541.000000	97.820621
1540.000000	97.764759
1539.000000	97.751851
1538.000000	97.750072
1537.000000	97.736367
1536.000000	97.716412
1535.000000	97.697098
1534.000000	97.678805
1533.000000	97.656389
1532.000000	97.631625
1531.000000	97.606457
1530.000000	97.576908
1529.000000	97.535878
1528.000000	97.480908
1527.000000	97.415866
1526.000000	97.344111
1525.000000	97.269212
1524.000000	97.198325
1523.000000	97.132606
1522.000000	97.059676
1521.000000	96.977133
1520.000000	96.905221
1519.000000	96.851732
1518.000000	96.797699
1517.000000	96.725134
1516.000000	96.643769
1515.000000	96.573263
1514.000000	96.509271
1513.000000	96.436905
1512.000000	96.354792
1511.000000	96.273846
1510.000000	96.196854
1509.000000	96.112260
1508.000000	96.005067
1507.000000	95.886629
1506.000000	95.792367
1505.000000	95.723205
1504.000000	95.664730
1503.000000	95.610963
1502.000000	95.550320
1501.000000	95.475557
1500.000000	95.389690
1499.000000	95.301630
1498.000000	95.207874
1497.000000	95.103334
1496.000000	95.004080
1495.000000	94.927189
1494.000000	94.862987
1493.000000	94.792186
1492.000000	94.707230
1491.000000	94.611180
1490.000000	94.511674
1489.000000	94.419756
1488.000000	94.344614
1487.000000	94.283409
1486.000000	94.224109
1485.000000	94.155812
1484.000000	94.078772
1483.000000	93.998483
1482.000000	93.913639
1481.000000	93.823172
1480.000000	93.734133
1479.000000	93.651746
1478.000000	93.567339
1477.000000	93.469576
1476.000000	93.361333
1475.000000	93.253183
1474.000000	93.139378
1473.000000	93.007422
1472.000000	92.877904
1471.000000	92.778170
1470.000000	92.698050
1469.000000	92.617910
1468.000000	92.535390
1467.000000	92.456534
1466.000000	92.381453
1465.000000	92.304819
1464.000000	92.233651
1463.000000	92.177206
1462.000000	92.128361
1461.000000	92.073887
1460.000000	92.007062
1459.000000	91.927218
1458.000000	91.831611
1457.000000	91.736904
1456.000000	91.678070
1455.000000	91.651413
1454.000000	91.625966
1453.000000	91.588173
1452.000000	91.543635
1451.000000	91.501804
1450.000000	91.458598
1449.000000	91.404475
1448.000000	91.342759
1447.000000	91.287516
1446.000000	91.240396
1445.000000	91.191083
1444.000000	91.138575
1443.000000	91.089375
1442.000000	91.044349
1441.000000	90.997850
1440.000000	90.947946
1439.000000	90.896095
1438.000000	90.838894
1437.000000	90.773899
1436.000000	90.713750
1435.000000	90.668636
1434.000000	90.626356
1433.000000	90.573413
1432.000000	90.510159
1431.000000	90.443646
1430.000000	90.374573
1429.000000	90.301022
1428.000000	90.229928
1427.000000	90.167934
1426.000000	90.107129
1425.000000	90.033269
1424.000000	89.950239
1423.000000	89.875403
1422.000000	89.808434
1421.000000	89.729649
1420.000000	89.625714
1419.000000	89.510858
1418.000000	89.412498
1417.000000	89.335377
1416.000000	89.268467
1415.000000	89.203264
1414.000000	89.130549
1413.000000	89.045592
1412.000000	88.956608
1411.000000	88.875581
1410.000000	88.801202
1409.000000	88.726504
1408.000000	88.655987
1407.000000	88.599682
1406.000000	88.556775
1405.000000	88.520652
1404.000000	88.497553
1403.000000	88.494044
1402.000000	88.497309
1401.000000	88.488691
1400.000000	88.465532
1399.000000	88.440263
1398.000000	88.417958
1397.000000	88.391985
1396.000000	88.364064
1395.000000	88.347365
1394.000000	88.346767
1393.000000	88.357201
1392.000000	88.380540
1391.000000	88.420671
1390.000000	88.471902
1389.000000	88.528092
1388.000000	88.596470
1387.000000	88.685982
1386.000000	88.786047
1385.000000	88.882605
1384.000000	88.982230
1383.000000	89.097032
1382.000000	89.224571
1381.000000	89.356934
1380.000000	89.496886
1379.000000	89.649178
1378.000000	89.804637
1377.000000	89.952595
1376.000000	90.100661
1375.000000	90.265831
1374.000000	90.448424
1373.000000	90.632025
1372.000000	90.808253
1371.000000	90.980866
1370.000000	91.151898
1369.000000	91.319931
1368.000000	91.484985
1367.000000	91.644218
1366.000000	91.793007
1365.000000	91.937602
1364.000000	92.097108
1363.000000	92.283159
1362.000000	92.481174
1361.000000	92.668340
1360.000000	92.840218
1359.000000	93.002032
1358.000000	93.154305
1357.000000	93.298671
1356.000000	93.441951
1355.000000	93.585618
1354.000000	93.721319
1353.000000	93.844478
1352.000000	93.960785
1351.000000	94.074522
1350.000000	94.182007
1349.000000	94.280236
1348.000000	94.373521
1347.000000	94.465406
1346.000000	94.553715
1345.000000	94.637224
1344.000000	94.718040
1343.000000	94.794498
1342.000000	94.861804
1341.000000	94.922542
1340.000000	94.987806
1339.000000	95.061640
1338.000000	95.133929
1337.000000	95.197187
1336.000000	95.255675
1335.000000	95.313681
1334.000000	95.369263
1333.000000	95.421634
1332.000000	95.474776
1331.000000	95.530544
1330.000000	95.585768
1329.000000	95.638880
1328.000000	95.691975
1327.000000	95.744521
1326.000000	95.792506
1325.000000	95.835324
1324.000000	95.876890
1323.000000	95.917745
1322.000000	95.953904
1321.000000	95.984927
1320.000000	96.015980
1319.000000	96.050364
1318.000000	96.086794
1317.000000	96.125303
1316.000000	96.167718
1315.000000	96.211293
1314.000000	96.250098
1313.000000	96.284295
1312.000000	96.320177
1311.000000	96.359766
1310.000000	96.398403
1309.000000	96.433876
1308.000000	96.469578
1307.000000	96.507272
1306.000000	96.543980
1305.000000	96.577672
1304.000000	96.609992
1303.000000	96.641167
1302.000000	96.668770
1301.000000	96.693079
1300.000000	96.718232
1299.000000	96.746736
1298.000000	96.777678
1297.000000	96.810315
1296.000000	96.843915
1295.000000	96.874386
1294.000000	96.897197
1293.000000	96.913634
1292.000000	96.928532
1291.000000	96.942557
1290.000000	96.952846
1289.000000	96.960875
1288.000000	96.972456
1287.000000	96.989107
1286.000000	97.005895
1285.000000	97.019171
1284.000000	97.030632
1283.000000	97.042485
1282.000000	97.053945
1281.000000	97.063680
1280.000000	97.071914
1279.000000	97.079754
1278.000000	97.089560
1277.000000	97.104910
1276.000000	97.126050
1275.000000	97.146984
1274.000000	97.161600
1273.000000	97.171144
1272.000000	97.180896
1271.000000	97.191440
1270.000000	97.199216
1269.000000	97.204159
1268.000000	97.209891
1267.000000	97.216906
1266.000000	97.222182
1265.000000	97.225743
1264.000000	97.231454
1263.000000	97.240710
1262.000000	97.250616
1261.000000	97.258823
1260.000000	97.265236
1259.000000	97.269205
1258.000000	97.269983
1257.000000	97.269543
1256.000000	97.270043
1255.000000	97.269486
1254.000000	97.264798
1253.000000	97.258229
1252.000000	97.255305
1251.000000	97.257056
1250.000000	97.259314
1249.000000	97.259234
1248.000000	97.257513
1247.000000	97.254379
1246.000000	97.248679
1245.000000	97.241420
1244.000000	97.235529
1243.000000	97.231740
1242.000000	97.228658
1241.000000	97.226430
1240.000000	97.225890
1239.000000	97.224660
1238.000000	97.219122
1237.000000	97.210351
1236.000000	97.203399
1235.000000	97.200752
1234.000000	97.201094
1233.000000	97.204203
1232.000000	97.212093
1231.000000	97.224575
1230.000000	97.238526
1229.000000	97.252680
1228.000000	97.268800
1227.000000	97.287532
1226.000000	97.307237
1225.000000	97.327601
1224.000000	97.350366
1223.000000	97.375390
1222.000000	97.399736
1221.000000	97.421465
1220.000000	97.441260
1219.000000	97.460236
1218.000000	97.479228
1217.000000	97.499875
1216.000000	97.522789
1215.000000	97.544896
1214.000000	97.562154
1213.000000	97.574848
1212.000000	97.586654
1211.000000	97.598740
1210.000000	97.608429
1209.000000	97.613162
1208.000000	97.612405
1207.000000	97.606080
1206.000000	97.595008
1205.000000	97.582832
1204.000000	97.573976
1203.000000	97.569705
1202.000000	97.568652
1201.000000	97.570344
1200.000000	97.575043
1199.000000	97.580953
1198.000000	97.585174
1197.000000	97.587418
1196.000000	97.589810
1195.000000	97.593280
1194.000000	97.596799
1193.000000	97.599342
1192.000000	97.600055
1191.000000	97.597742
1190.000000	97.593179
1189.000000	97.590426
1188.000000	97.592417
1187.000000	97.596178
1186.000000	97.595492
1185.000000	97.587462
1184.000000	97.573517
1183.000000	97.556184
1182.000000	97.538953
1181.000000	97.527319
1180.000000	97.524658
1179.000000	97.527079
1178.000000	97.526823
1177.000000	97.520812
1176.000000	97.512220
1175.000000	97.504456
1174.000000	97.497790
1173.000000	97.491754
1172.000000	97.487106
1171.000000	97.484763
1170.000000	97.485255
1169.000000	97.489271
1168.000000	97.496424
1167.000000	97.503916
1166.000000	97.509144
1165.000000	97.513092
1164.000000	97.518843
1163.000000	97.527622
1162.000000	97.538622
1161.000000	97.551397
1160.000000	97.565598
1159.000000	97.579844
1158.000000	97.593884
1157.000000	97.610192
1156.000000	97.630301
1155.000000	97.651247
1154.000000	97.669205
1153.000000	97.685140
1152.000000	97.703230
1151.000000	97.725300
1150.000000	97.750410
1149.000000	97.778108
1148.000000	97.807874
1147.000000	97.836810
1146.000000	97.862307
1145.000000	97.886000
1144.000000	97.911203
1143.000000	97.937661
1142.000000	97.962515
1141.000000	97.984867
1140.000000	98.005526
1139.000000	98.023926
1138.000000	98.039333
1137.000000	98.053693
1136.000000	98.069404
1135.000000	98.085818
1134.000000	98.101506
1133.000000	98.117575
1132.000000	98.134600
1131.000000	98.148389
1130.000000	98.153707
1129.000000	98.151102
1128.000000	98.145931
1127.000000	98.142368
1126.000000	98.142209
1125.000000	98.147176
1124.000000	98.157467
1123.000000	98.169091
1122.000000	98.177076
1121.000000	98.180529
1120.000000	98.181149
1119.000000	98.178891
1118.000000	98.173186
1117.000000	98.166428
1116.000000	98.161799
1115.000000	98.159161
1114.000000	98.156989
1113.000000	98.156293
1112.000000	98.158450
1111.000000	98.161315
1110.000000	98.162031
1109.000000	98.161826
1108.000000	98.164047
1107.000000	98.169371
1106.000000	98.177044
1105.000000	98.187825
1104.000000	98.200855
1103.000000	98.210429
1102.000000	98.211268
1101.000000	98.204992
1100.000000	98.196539
1099.000000	98.187100
1098.000000	98.175942
1097.000000	98.165009
1096.000000	98.155845
1095.000000	98.145372
1094.000000	98.131929
1093.000000	98.122144
1092.000000	98.123238
1091.000000	98.130362
1090.000000	98.130052
1089.000000	98.116093
1088.000000	98.093999
1087.000000	98.070379
1086.000000	98.046914
1085.000000	98.026050
1084.000000	98.013850
1083.000000	98.012758
1082.000000	98.016732
1081.000000	98.017273
1080.000000	98.011695
1079.000000	98.004358
1078.000000	98.003026
1077.000000	98.013907
1076.000000	98.035508
1075.000000	98.057215
1074.000000	98.068808
1073.000000	98.071550
1072.000000	98.074993
1071.000000	98.083472
1070.000000	98.091898
1069.000000	98.095404
1068.000000	98.096383
1067.000000	98.099774
1066.000000	98.106935
1065.000000	98.116754
1064.000000	98.128321
1063.000000	98.139673
1062.000000	98.147392
1061.000000	98.150089
1060.000000	98.150025
1059.000000	98.150046
1058.000000	98.151380
1057.000000	98.154827
1056.000000	98.160882
1055.000000	98.167817
1054.000000	98.172898
1053.000000	98.176871
1052.000000	98.184630
1051.000000	98.199460
1050.000000	98.218010
1049.000000	98.232053
1048.000000	98.234709
1047.000000	98.225929
1046.000000	98.213653
1045.000000	98.208041
1044.000000	98.212303
1043.000000	98.220228
1042.000000	98.224306
1041.000000	98.224455
1040.000000	98.225753
1039.000000	98.230007
1038.000000	98.233873
1037.000000	98.234451
1036.000000	98.232717
1035.000000	98.231392
1034.000000	98.232557
1033.000000	98.237122
1032.000000	98.244060
1031.000000	98.250559
1030.000000	98.254929
1029.000000	98.258229
1028.000000	98.261116
1027.000000	98.261283
1026.000000	98.257151
1025.000000	98.251995
1024.000000	98.251276
1023.000000	98.257510
1022.000000	98.270344
1021.000000	98.288764
1020.000000	98.309213
1019.000000	98.324236
1018.000000	98.328251
1017.000000	98.323666
1016.000000	98.317226
1015.000000	98.312318
1014.000000	98.309227
1013.000000	98.310691
1012.000000	98.321055
1011.000000	98.339926
1010.000000	98.361542
1009.000000	98.380924
1008.000000	98.396978
1007.000000	98.409842
1006.000000	98.419733
1005.000000	98.428751
1004.000000	98.440302
1003.000000	98.455795
1002.000000	98.474084
1001.000000	98.493938
1000.000000	98.514852
999.000000	98.536380
998.000000	98.558938
997.000000	98.583722
996.000000	98.609210
995.000000	98.629710
994.000000	98.640953
993.000000	98.645901
992.000000	98.651666
991.000000	98.661970
990.000000	98.675392
989.000000	98.689406
988.000000	98.703002
987.000000	98.716726
986.000000	98.732830
985.000000	98.753312
984.000000	98.775114
983.000000	98.790258
982.000000	98.794400
981.000000	98.792553
980.000000	98.792575
979.000000	98.796001
978.000000	98.799669
977.000000	98.802803
976.000000	98.806878
975.000000	98.811185
974.000000	98.814507
973.000000	98.819061
972.000000	98.826646
971.000000	98.832781
970.000000	98.831640
969.000000	98.826168
968.000000	98.826423
967.000000	98.837673
966.000000	98.855929
965.000000	98.875650
964.000000	98.895368
963.000000	98.914271
962.000000	98.929449
961.000000	98.939580
960.000000	98.947618
959.000000	98.957690
958.000000	98.972105
957.000000	98.991849
956.000000	99.016652
955.000000	99.043739
954.000000	99.069329
953.000000	99.091713
952.000000	99.110605
951.000000	99.124519
950.000000	99.132455
949.000000	99.137400
948.000000	99.144392
947.000000	99.155271
946.000000	99.168096
945.000000	99.180431
944.000000	99.190118
943.000000	99.195080
942.000000	99.196957
941.000000	99.202794
940.000000	99.217536
939.000000	99.236220
938.000000	99.249174
937.000000	99.254703
936.000000	99.260630
935.000000	99.273114
934.000000	99.289711
933.000000	99.304132
932.000000	99.312889
931.000000	99.316100
930.000000	99.316692
929.000000	99.320210
928.000000	99.331377
927.000000	99.349217
926.000000	99.368402
925.000000	99.385140
924.000000	99.398555
923.000000	99.407332
922.000000	99.410060
921.000000	99.409210
920.000000	99.410342
919.000000	99.416573
918.000000	99.426952
917.000000	99.439794
916.000000	99.453484
915.000000	99.464764
914.000000	99.471257
913.000000	99.475934
912.000000	99.484394
911.000000	99.497613
910.000000	99.511352
909.000000	99.522265
908.000000	99.530098
907.000000	99.534660
906.000000	99.536233
905.000000	99.538740
904.000000	99.546897
903.000000	99.560005
902.000000	99.573780
901.000000	99.587776
900.000000	99.605270
899.000000	99.626138
898.000000	99.646605
897.000000	99.666048
896.000000	99.686937
895.000000	99.707394
894.000000	99.721476
893.000000	99.728974
892.000000	99.737788
891.000000	99.754345
890.000000	99.776607
889.000000	99.796307
888.000000	99.800585
887.000000	99.768905
886.000000	99.678058
885.000000	99.512586
884.000000	99.262559
883.000000	98.911171
882.000000	98.429711
881.000000	97.790492
880.000000	96.978165
879.000000	95.992463
878.000000	94.853969
877.000000	93.604362
876.000000	92.291434
875.000000	90.962543
874.000000	89.722574
873.000000	88.816761
872.000000	88.606050
871.000000	89.341084
870.000000	90.905143
869.000000	92.827087
868.000000	94.580860
867.000000	95.884611
866.000000	96.748919
865.000000	97.315859
864.000000	97.706529
863.000000	97.989508
862.000000	98.207242
861.000000	98.385384
860.000000	98.530081
859.000000	98.639744
858.000000	98.721984
857.000000	98.789430
856.000000	98.847974
855.000000	98.899813
854.000000	98.950820
853.000000	99.002820
852.000000	99.039901
851.000000	99.037264
850.000000	98.990985
849.000000	98.933555
848.000000	98.913150
847.000000	98.955207
846.000000	99.044399
845.000000	99.142412
844.000000	99.219531
843.000000	99.269547
842.000000	99.300813
841.000000	99.321853
840.000000	99.338070
839.000000	99.354801
838.000000	99.375408
837.000000	99.397216
836.000000	99.415512
835.000000	99.431580
834.000000	99.451044
833.000000	99.474098
832.000000	99.494134
831.000000	99.507983
830.000000	99.520370
829.000000	99.534402
828.000000	99.544629
827.000000	99.546056
826.000000	99.544241
825.000000	99.547925
824.000000	99.555457
823.000000	99.558301
822.000000	99.556387
821.000000	99.559897
820.000000	99.575207
819.000000	99.597264
818.000000	99.617471
817.000000	99.632234
816.000000	99.641639
815.000000	99.646111
814.000000	99.648378
813.000000	99.654145
812.000000	99.665651
811.000000	99.676332
810.000000	99.676209
809.000000	99.663230
808.000000	99.647139
807.000000	99.641207
806.000000	99.650530
805.000000	99.667989
804.000000	99.681381
803.000000	99.684323
802.000000	99.679635
801.000000	99.672957
800.000000	99.665884
799.000000	99.656809
798.000000	99.645806
797.000000	99.635552
796.000000	99.628744
795.000000	99.627236
794.000000	99.631885
793.000000	99.640036
792.000000	99.645050
791.000000	99.642979
790.000000	99.639416
789.000000	99.644975
788.000000	99.662371
787.000000	99.681153
786.000000	99.687332
785.000000	99.677175
784.000000	99.660247
783.000000	99.649651
782.000000	99.650069
781.000000	99.655165
780.000000	99.656682
779.000000	99.654781
778.000000	99.656431
777.000000	99.663487
776.000000	99.667527
775.000000	99.660243
774.000000	99.645116
773.000000	99.633711
772.000000	99.632407
771.000000	99.637636
770.000000	99.642643
769.000000	99.643721
768.000000	99.640590
767.000000	99.636182
766.000000	99.636568
765.000000	99.646164
764.000000	99.662088
763.000000	99.677025
762.000000	99.687322
761.000000	99.693839
760.000000	99.695701
759.000000	99.689900
758.000000	99.678993
757.000000	99.672973
756.000000	99.679560
755.000000	99.696213
754.000000	99.714392
753.000000	99.728299
752.000000	99.736978
751.000000	99.741404
750.000000	99.743015
749.000000	99.743308
748.000000	99.741873
747.000000	99.735474
746.000000	99.721214
745.000000	99.700725
744.000000	99.681013
743.000000	99.671332
742.000000	99.677320
741.000000	99.695488
740.000000	99.714546
739.000000	99.725399
738.000000	99.728534
737.000000	99.728379
736.000000	99.723081
735.000000	99.706427
734.000000	99.680009
733.000000	99.655726
732.000000	99.642997
731.000000	99.638429
730.000000	99.631430
729.000000	99.615903
728.000000	99.594790
727.000000	99.574826
726.000000	99.556993
725.000000	99.534067
724.000000	99.498722
723.000000	99.452255
722.000000	99.400955
721.000000	99.343074
720.000000	99.263600
719.000000	99.142337
718.000000	98.959339
717.000000	98.690386
716.000000	98.316345
715.000000	97.863629
714.000000	97.436796
713.000000	97.182634
712.000000	97.194531
711.000000	97.444141
710.000000	97.809367
709.000000	98.164153
708.000000	98.443839
707.000000	98.646119
706.000000	98.790968
705.000000	98.891859
704.000000	98.957588
703.000000	99.002470
702.000000	99.044734
701.000000	99.093823
700.000000	99.142961
699.000000	99.180345
698.000000	99.203475
697.000000	99.220366
696.000000	99.240343
695.000000	99.266372
694.000000	99.298213
693.000000	99.334115
692.000000	99.366443
691.000000	99.386647
690.000000	99.394704
689.000000	99.400622
688.000000	99.414512
687.000000	99.436301
686.000000	99.459578
685.000000	99.477179
684.000000	99.480938
683.000000	99.467179
682.000000	99.442562
681.000000	99.416716
680.000000	99.389968
679.000000	99.360097
678.000000	99.337930
677.000000	99.335681
676.000000	99.348977
675.000000	99.363053
674.000000	99.373596
673.000000	99.389147
672.000000	99.416400
671.000000	99.459338
670.000000	99.523713
669.000000	99.607147
668.000000	99.655019
667.000000	99.610799
666.000000	99.529438
665.000000	99.452294
664.000000	99.389063
663.000000	99.345232
662.000000	99.317472
661.000000	99.304021
660.000000	99.308290
659.000000	99.332553
658.000000	99.366102
657.000000	99.387775
656.000000	99.390869
655.000000	99.389268
654.000000	99.391467
653.000000	99.387698
652.000000	99.372568
651.000000	99.359157
650.000000	99.361734
649.000000	99.376083
648.000000	99.388696
647.000000	99.392689
646.000000	99.386214
645.000000	99.371358
644.000000	99.357868
643.000000	99.356241
642.000000	99.365228
641.000000	99.372431
640.000000	99.371287
639.000000	99.368535
638.000000	99.369397
637.000000	99.368043
636.000000	99.359757
635.000000	99.349819
634.000000	99.344788
633.000000	99.343870
632.000000	99.343810
631.000000	99.345571
630.000000	99.350828
629.000000	99.357812
628.000000	99.366143
627.000000	99.378695
626.000000	99.392571
625.000000	99.398263
624.000000	99.390309
623.000000	99.372325
622.000000	99.350589
621.000000	99.329064
620.000000	99.312389
619.000000	99.305876
618.000000	99.308600
617.000000	99.311853
616.000000	99.307741
615.000000	99.295227
614.000000	99.276964
613.000000	99.257416
612.000000	99.245700
611.000000	99.250394
610.000000	99.267462
609.000000	99.281954
608.000000	99.286513
607.000000	99.289687
606.000000	99.298273
605.000000	99.304351
604.000000	99.297425
603.000000	99.281487
602.000000	99.272295
601.000000	99.281014
600.000000	99.307484
599.000000	99.344687
598.000000	99.380916
597.000000	99.400785
596.000000	99.393616
595.000000	99.362928
594.000000	99.323314
593.000000	99.287309
592.000000	99.260048
591.000000	99.245401
590.000000	99.247825
589.000000	99.265940
588.000000	99.290559
587.000000	99.309763
586.000000	99.314038
585.000000	99.299576
584.000000	99.271460
583.000000	99.243703
582.000000	99.231714
581.000000	99.242000
580.000000	99.268575
579.000000	99.298785
578.000000	99.321604
577.000000	99.333089
576.000000	99.336396
575.000000	99.334811
574.000000	99.324433
573.000000	99.299467
572.000000	99.266702
571.000000	99.247410
570.000000	99.257795
569.000000	99.288743
568.000000	99.313434
567.000000	99.310517
566.000000	99.274215
565.000000	99.211229
564.000000	99.139942
563.000000	99.089426
562.000000	99.081808
561.000000	99.112617
560.000000	99.158482
559.000000	99.201587
558.000000	99.236712
557.000000	99.258595
556.000000	99.257545
555.000000	99.232870
554.000000	99.200578
553.000000	99.179517
552.000000	99.175619
551.000000	99.183012
550.000000	99.193301
549.000000	99.201160
548.000000	99.206997
547.000000	99.215985
546.000000	99.229326
545.000000	99.236952
544.000000	99.228586
543.000000	99.211723
542.000000	99.207826
541.000000	99.226272
540.000000	99.249234
539.000000	99.246997
538.000000	99.202475
537.000000	99.120567
536.000000	99.025047
535.000000	98.953574
534.000000	98.939927
533.000000	98.984009
532.000000	99.044846
531.000000	99.076465
530.000000	99.072594
529.000000	99.065906
528.000000	99.082560
527.000000	99.111425
526.000000	99.121705
525.000000	99.104881
524.000000	99.082207
523.000000	99.069457
522.000000	99.059148
521.000000	99.041475
520.000000	99.027265
519.000000	99.041349
518.000000	99.093728
517.000000	99.165675
516.000000	99.229069
515.000000	99.267265
514.000000	99.275107
513.000000	99.254875
512.000000	99.220845
511.000000	99.198465
510.000000	99.206224
509.000000	99.239022
508.000000	99.274707
507.000000	99.296394
506.000000	99.303276
505.000000	99.301332
504.000000	99.292682
503.000000	99.278800
502.000000	99.269182
501.000000	99.275576
500.000000	99.296168
499.000000	99.316288
498.000000	99.324033
497.000000	99.320292
496.000000	99.312865
495.000000	99.303475
494.000000	99.287691
493.000000	99.266901
492.000000	99.250653
491.000000	99.243030
490.000000	99.236162
489.000000	99.225255
488.000000	99.217115
487.000000	99.216016
486.000000	99.213564
485.000000	99.208472
484.000000	99.228798
483.000000	99.304728
482.000000	99.414684
481.000000	99.487745
480.000000	99.468841
479.000000	99.367796
478.000000	99.247429
477.000000	99.174385
476.000000	99.177560
475.000000	99.241877
474.000000	99.326975
473.000000	99.395074
472.000000	99.438505
471.000000	99.474745
470.000000	99.508434
469.000000	99.525252
468.000000	99.518123
467.000000	99.496144
466.000000	99.463997
465.000000	99.414184
464.000000	99.354474
463.000000	99.316505
462.000000	99.319505
461.000000	99.343644
460.000000	99.365756
459.000000	99.396697
458.000000	99.451521
457.000000	99.503445
456.000000	99.520265
455.000000	99.520244
454.000000	99.543617
453.000000	99.602726
452.000000	99.675970
451.000000	99.733217
450.000000	99.762004
