PE IR       SUBTECH     SPECTRUM    ASCII       PEDS        4.00        
   -1
AG10-F006_1.ASC
23/09/08
10:38:40.00
23/09/08
11:14:38.00
uco
Sample 006 By uco Date Friday, September 08 2023
450.000000
#HDR
-1
-1
#GR
cm-1
%T
1.0
0.0
4000.000000
-1.000000
3551
8
99.731651
87.492135
#DATA
4000.000000	99.639358
3999.000000	99.639647
3998.000000	99.643069
3997.000000	99.643773
3996.000000	99.643049
3995.000000	99.641282
3994.000000	99.639948
3993.000000	99.640012
3992.000000	99.640643
3991.000000	99.639802
3990.000000	99.636202
3989.000000	99.630500
3988.000000	99.624555
3987.000000	99.619836
3986.000000	99.616654
3985.000000	99.614560
3984.000000	99.613226
3983.000000	99.612840
3982.000000	99.613705
3981.000000	99.615532
3980.000000	99.617342
3979.000000	99.618281
3978.000000	99.618597
3977.000000	99.619607
3976.000000	99.622429
3975.000000	99.626606
3974.000000	99.630299
3973.000000	99.631844
3972.000000	99.630817
3971.000000	99.627737
3970.000000	99.623165
3969.000000	99.617700
3968.000000	99.612406
3967.000000	99.608816
3966.000000	99.608097
3965.000000	99.610002
3964.000000	99.612673
3963.000000	99.613701
3962.000000	99.611929
3961.000000	99.608492
3960.000000	99.605767
3959.000000	99.605461
3958.000000	99.607347
3957.000000	99.609665
3956.000000	99.610302
3955.000000	99.608142
3954.000000	99.603979
3953.000000	99.599825
3952.000000	99.597270
3951.000000	99.596406
3950.000000	99.596240
3949.000000	99.596050
3948.000000	99.596465
3947.000000	99.599301
3946.000000	99.605914
3945.000000	99.614529
3944.000000	99.619920
3943.000000	99.617459
3942.000000	99.607404
3941.000000	99.594507
3940.000000	99.583760
3939.000000	99.577677
3938.000000	99.576551
3937.000000	99.580259
3936.000000	99.587986
3935.000000	99.596790
3934.000000	99.602640
3933.000000	99.603742
3932.000000	99.602376
3931.000000	99.601758
3930.000000	99.602288
3929.000000	99.602701
3928.000000	99.602625
3927.000000	99.601717
3926.000000	99.598263
3925.000000	99.592229
3924.000000	99.587462
3923.000000	99.587181
3922.000000	99.589574
3921.000000	99.590233
3920.000000	99.587741
3919.000000	99.585014
3918.000000	99.584941
3917.000000	99.586933
3916.000000	99.588138
3915.000000	99.586936
3914.000000	99.583268
3913.000000	99.578523
3912.000000	99.574781
3911.000000	99.574293
3910.000000	99.577188
3909.000000	99.582159
3908.000000	99.587719
3907.000000	99.592117
3906.000000	99.591954
3905.000000	99.584383
3904.000000	99.573291
3903.000000	99.567865
3902.000000	99.572435
3901.000000	99.581469
3900.000000	99.586388
3899.000000	99.584942
3898.000000	99.581079
3897.000000	99.578203
3896.000000	99.576426
3895.000000	99.576174
3894.000000	99.578276
3893.000000	99.581601
3892.000000	99.581508
3891.000000	99.576016
3890.000000	99.568612
3889.000000	99.565942
3888.000000	99.569903
3887.000000	99.573380
3886.000000	99.571138
3885.000000	99.569970
3884.000000	99.577835
3883.000000	99.592688
3882.000000	99.603984
3881.000000	99.603349
3880.000000	99.593780
3879.000000	99.584475
3878.000000	99.581182
3877.000000	99.583594
3876.000000	99.584976
3875.000000	99.578894
3874.000000	99.569644
3873.000000	99.569079
3872.000000	99.580063
3871.000000	99.590195
3870.000000	99.589270
3869.000000	99.584889
3868.000000	99.589050
3867.000000	99.601563
3866.000000	99.610932
3865.000000	99.610152
3864.000000	99.604929
3863.000000	99.602790
3862.000000	99.602532
3861.000000	99.600174
3860.000000	99.592910
3859.000000	99.579893
3858.000000	99.563461
3857.000000	99.551412
3856.000000	99.551165
3855.000000	99.554677
3854.000000	99.547934
3853.000000	99.544895
3852.000000	99.557922
3851.000000	99.575435
3850.000000	99.585767
3849.000000	99.587484
3848.000000	99.586713
3847.000000	99.590173
3846.000000	99.598680
3845.000000	99.607416
3844.000000	99.609085
3843.000000	99.601042
3842.000000	99.588399
3841.000000	99.579452
3840.000000	99.577239
3839.000000	99.580265
3838.000000	99.586241
3837.000000	99.593711
3836.000000	99.602361
3835.000000	99.612274
3834.000000	99.622063
3833.000000	99.628149
3832.000000	99.628192
3831.000000	99.624369
3830.000000	99.621116
3829.000000	99.620463
3828.000000	99.618644
3827.000000	99.610365
3826.000000	99.597007
3825.000000	99.588561
3824.000000	99.593597
3823.000000	99.607440
3822.000000	99.613391
3821.000000	99.606698
3820.000000	99.599004
3819.000000	99.597842
3818.000000	99.599771
3817.000000	99.592621
3816.000000	99.575158
3815.000000	99.563676
3814.000000	99.567373
3813.000000	99.577198
3812.000000	99.581138
3811.000000	99.578850
3810.000000	99.579757
3809.000000	99.588224
3808.000000	99.594586
3807.000000	99.589300
3806.000000	99.577919
3805.000000	99.573949
3804.000000	99.583132
3803.000000	99.596675
3802.000000	99.602108
3801.000000	99.603358
3800.000000	99.609109
3799.000000	99.617797
3798.000000	99.621508
3797.000000	99.614939
3796.000000	99.603345
3795.000000	99.596470
3794.000000	99.597660
3793.000000	99.602444
3792.000000	99.606164
3791.000000	99.607769
3790.000000	99.608162
3789.000000	99.607818
3788.000000	99.607005
3787.000000	99.606127
3786.000000	99.605380
3785.000000	99.605141
3784.000000	99.606766
3783.000000	99.611678
3782.000000	99.618240
3781.000000	99.621009
3780.000000	99.615300
3779.000000	99.604453
3778.000000	99.596133
3777.000000	99.594084
3776.000000	99.595510
3775.000000	99.596303
3774.000000	99.596450
3773.000000	99.598746
3772.000000	99.601973
3771.000000	99.600939
3770.000000	99.595485
3769.000000	99.592565
3768.000000	99.597051
3767.000000	99.606444
3766.000000	99.614313
3765.000000	99.617211
3764.000000	99.616904
3763.000000	99.615936
3762.000000	99.612494
3761.000000	99.603793
3760.000000	99.592777
3759.000000	99.586066
3758.000000	99.583042
3757.000000	99.578527
3756.000000	99.572344
3755.000000	99.568745
3754.000000	99.568849
3753.000000	99.568787
3752.000000	99.566220
3751.000000	99.564231
3750.000000	99.563549
3749.000000	99.560424
3748.000000	99.558418
3747.000000	99.564890
3746.000000	99.573573
3745.000000	99.570255
3744.000000	99.565252
3743.000000	99.576682
3742.000000	99.599568
3741.000000	99.618907
3740.000000	99.628320
3739.000000	99.632710
3738.000000	99.635079
3737.000000	99.628716
3736.000000	99.612288
3735.000000	99.598905
3734.000000	99.597180
3733.000000	99.599627
3732.000000	99.597937
3731.000000	99.593823
3730.000000	99.593580
3729.000000	99.599215
3728.000000	99.606600
3727.000000	99.611654
3726.000000	99.616519
3725.000000	99.623988
3724.000000	99.631095
3723.000000	99.633547
3722.000000	99.631959
3721.000000	99.630773
3720.000000	99.631734
3719.000000	99.631539
3718.000000	99.625449
3717.000000	99.614455
3716.000000	99.605768
3715.000000	99.604924
3714.000000	99.609213
3713.000000	99.610482
3712.000000	99.606259
3711.000000	99.604408
3710.000000	99.610271
3709.000000	99.620198
3708.000000	99.628291
3707.000000	99.632080
3706.000000	99.633391
3705.000000	99.635559
3704.000000	99.639591
3703.000000	99.643096
3702.000000	99.644071
3701.000000	99.643742
3700.000000	99.644599
3699.000000	99.646750
3698.000000	99.646446
3697.000000	99.639876
3696.000000	99.628746
3695.000000	99.618015
3694.000000	99.610073
3693.000000	99.605263
3692.000000	99.604758
3691.000000	99.609733
3690.000000	99.617116
3689.000000	99.621736
3688.000000	99.621876
3687.000000	99.621047
3686.000000	99.623054
3685.000000	99.625892
3684.000000	99.625716
3683.000000	99.623063
3682.000000	99.621001
3681.000000	99.618137
3680.000000	99.611671
3679.000000	99.605101
3678.000000	99.604853
3677.000000	99.606266
3676.000000	99.601499
3675.000000	99.599051
3674.000000	99.605000
3673.000000	99.616059
3672.000000	99.625054
3671.000000	99.622116
3670.000000	99.610739
3669.000000	99.607180
3668.000000	99.614579
3667.000000	99.624438
3666.000000	99.630522
3665.000000	99.631840
3664.000000	99.630643
3663.000000	99.628834
3662.000000	99.626126
3661.000000	99.622079
3660.000000	99.619143
3659.000000	99.619663
3658.000000	99.620960
3657.000000	99.616268
3656.000000	99.605662
3655.000000	99.596679
3654.000000	99.595363
3653.000000	99.601655
3652.000000	99.609390
3651.000000	99.611275
3650.000000	99.608974
3649.000000	99.611072
3648.000000	99.615952
3647.000000	99.615640
3646.000000	99.609496
3645.000000	99.602685
3644.000000	99.598619
3643.000000	99.597435
3642.000000	99.597796
3641.000000	99.598197
3640.000000	99.596330
3639.000000	99.590028
3638.000000	99.581172
3637.000000	99.575046
3636.000000	99.573734
3635.000000	99.572180
3634.000000	99.565023
3633.000000	99.555158
3632.000000	99.551186
3631.000000	99.555222
3630.000000	99.556811
3629.000000	99.552897
3628.000000	99.554565
3627.000000	99.563025
3626.000000	99.571895
3625.000000	99.577824
3624.000000	99.582605
3623.000000	99.590819
3622.000000	99.603526
3621.000000	99.614804
3620.000000	99.617659
3619.000000	99.612426
3618.000000	99.604041
3617.000000	99.595422
3616.000000	99.587962
3615.000000	99.581618
3614.000000	99.575603
3613.000000	99.569957
3612.000000	99.564969
3611.000000	99.560482
3610.000000	99.556110
3609.000000	99.552900
3608.000000	99.553827
3607.000000	99.558982
3606.000000	99.563753
3605.000000	99.564078
3604.000000	99.560191
3603.000000	99.554492
3602.000000	99.548982
3601.000000	99.544736
3600.000000	99.543336
3599.000000	99.545140
3598.000000	99.548097
3597.000000	99.549112
3596.000000	99.547095
3595.000000	99.543778
3594.000000	99.542757
3593.000000	99.545746
3592.000000	99.551326
3591.000000	99.557246
3590.000000	99.560498
3589.000000	99.557517
3588.000000	99.549609
3587.000000	99.544430
3586.000000	99.545307
3585.000000	99.548565
3584.000000	99.550687
3583.000000	99.550418
3582.000000	99.547617
3581.000000	99.542002
3580.000000	99.533495
3579.000000	99.522852
3578.000000	99.511817
3577.000000	99.502590
3576.000000	99.496752
3575.000000	99.494502
3574.000000	99.494206
3573.000000	99.493547
3572.000000	99.491466
3571.000000	99.489673
3570.000000	99.490489
3569.000000	99.492945
3568.000000	99.493902
3567.000000	99.492966
3566.000000	99.491337
3565.000000	99.488983
3564.000000	99.486776
3563.000000	99.486012
3562.000000	99.486783
3561.000000	99.488320
3560.000000	99.489503
3559.000000	99.489127
3558.000000	99.486243
3557.000000	99.481161
3556.000000	99.475565
3555.000000	99.471069
3554.000000	99.467557
3553.000000	99.464060
3552.000000	99.460617
3551.000000	99.457686
3550.000000	99.454305
3549.000000	99.448407
3548.000000	99.439521
3547.000000	99.431066
3546.000000	99.428343
3545.000000	99.433216
3544.000000	99.442066
3543.000000	99.449248
3542.000000	99.450800
3541.000000	99.446313
3540.000000	99.438804
3539.000000	99.432394
3538.000000	99.428838
3537.000000	99.426241
3536.000000	99.422113
3535.000000	99.416790
3534.000000	99.413512
3533.000000	99.415024
3532.000000	99.421148
3531.000000	99.428713
3530.000000	99.433211
3529.000000	99.431421
3528.000000	99.424029
3527.000000	99.415516
3526.000000	99.410316
3525.000000	99.409132
3524.000000	99.409246
3523.000000	99.408063
3522.000000	99.405791
3521.000000	99.404787
3520.000000	99.406746
3519.000000	99.410433
3518.000000	99.412343
3517.000000	99.409369
3516.000000	99.401400
3515.000000	99.391268
3514.000000	99.382681
3513.000000	99.377784
3512.000000	99.376642
3511.000000	99.378498
3510.000000	99.382916
3509.000000	99.389126
3508.000000	99.395210
3507.000000	99.398896
3506.000000	99.399091
3505.000000	99.396253
3504.000000	99.392218
3503.000000	99.389139
3502.000000	99.387677
3501.000000	99.386332
3500.000000	99.382896
3499.000000	99.376514
3498.000000	99.368695
3497.000000	99.362497
3496.000000	99.359683
3495.000000	99.358823
3494.000000	99.357242
3493.000000	99.354697
3492.000000	99.353576
3491.000000	99.355257
3490.000000	99.357679
3489.000000	99.357350
3488.000000	99.353144
3487.000000	99.346959
3486.000000	99.341039
3485.000000	99.336026
3484.000000	99.331796
3483.000000	99.328823
3482.000000	99.328096
3481.000000	99.329845
3480.000000	99.332959
3479.000000	99.335566
3478.000000	99.335918
3477.000000	99.332992
3476.000000	99.326891
3475.000000	99.319024
3474.000000	99.311832
3473.000000	99.308052
3472.000000	99.309312
3471.000000	99.314620
3470.000000	99.320446
3469.000000	99.323115
3468.000000	99.321572
3467.000000	99.317977
3466.000000	99.315662
3465.000000	99.316669
3464.000000	99.320805
3463.000000	99.326133
3462.000000	99.330205
3461.000000	99.331357
3460.000000	99.329359
3459.000000	99.324922
3458.000000	99.318889
3457.000000	99.312068
3456.000000	99.305724
3455.000000	99.301246
3454.000000	99.299153
3453.000000	99.298682
3452.000000	99.298764
3451.000000	99.298784
3450.000000	99.298335
3449.000000	99.297208
3448.000000	99.296337
3447.000000	99.297559
3446.000000	99.300727
3445.000000	99.302311
3444.000000	99.298534
3443.000000	99.289507
3442.000000	99.279442
3441.000000	99.272742
3440.000000	99.270493
3439.000000	99.270605
3438.000000	99.270430
3437.000000	99.268918
3436.000000	99.267246
3435.000000	99.267522
3434.000000	99.270285
3433.000000	99.273098
3432.000000	99.272711
3431.000000	99.268724
3430.000000	99.264189
3429.000000	99.262403
3428.000000	99.263747
3427.000000	99.266087
3426.000000	99.267262
3425.000000	99.266485
3424.000000	99.263797
3423.000000	99.259261
3422.000000	99.253245
3421.000000	99.246999
3420.000000	99.242095
3419.000000	99.238988
3418.000000	99.236734
3417.000000	99.234528
3416.000000	99.233142
3415.000000	99.234260
3414.000000	99.238250
3413.000000	99.243045
3412.000000	99.245580
3411.000000	99.244136
3410.000000	99.239348
3409.000000	99.233547
3408.000000	99.229343
3407.000000	99.228230
3406.000000	99.229925
3405.000000	99.232858
3404.000000	99.235268
3403.000000	99.235738
3402.000000	99.233324
3401.000000	99.227978
3400.000000	99.221037
3399.000000	99.214703
3398.000000	99.210631
3397.000000	99.208855
3396.000000	99.207943
3395.000000	99.206185
3394.000000	99.203027
3393.000000	99.199755
3392.000000	99.198533
3391.000000	99.200311
3390.000000	99.203942
3389.000000	99.207506
3388.000000	99.209729
3387.000000	99.209657
3386.000000	99.206020
3385.000000	99.198331
3384.000000	99.188423
3383.000000	99.179503
3382.000000	99.173571
3381.000000	99.170527
3380.000000	99.169533
3379.000000	99.169875
3378.000000	99.170403
3377.000000	99.169571
3376.000000	99.166740
3375.000000	99.162809
3374.000000	99.159138
3373.000000	99.156467
3372.000000	99.154998
3371.000000	99.154567
3370.000000	99.154099
3369.000000	99.151741
3368.000000	99.146472
3367.000000	99.139500
3366.000000	99.133560
3365.000000	99.130857
3364.000000	99.131685
3363.000000	99.134334
3362.000000	99.136033
3361.000000	99.134795
3360.000000	99.131019
3359.000000	99.126879
3358.000000	99.123850
3357.000000	99.121438
3356.000000	99.118598
3355.000000	99.115484
3354.000000	99.113050
3353.000000	99.111729
3352.000000	99.111388
3351.000000	99.112029
3350.000000	99.113407
3349.000000	99.114248
3348.000000	99.112901
3347.000000	99.108861
3346.000000	99.103163
3345.000000	99.097389
3344.000000	99.092795
3343.000000	99.090009
3342.000000	99.088695
3341.000000	99.087423
3340.000000	99.084690
3339.000000	99.080445
3338.000000	99.076330
3337.000000	99.074179
3336.000000	99.074161
3335.000000	99.074244
3334.000000	99.071604
3333.000000	99.065199
3332.000000	99.057308
3331.000000	99.051976
3330.000000	99.051282
3329.000000	99.053371
3328.000000	99.054599
3327.000000	99.053123
3326.000000	99.049921
3325.000000	99.046916
3324.000000	99.045112
3323.000000	99.044278
3322.000000	99.043395
3321.000000	99.041465
3320.000000	99.038737
3319.000000	99.037045
3318.000000	99.037915
3317.000000	99.040208
3316.000000	99.040749
3315.000000	99.037832
3314.000000	99.033264
3313.000000	99.030152
3312.000000	99.029284
3311.000000	99.028432
3310.000000	99.024995
3309.000000	99.018690
3308.000000	99.011528
3307.000000	99.005779
3306.000000	99.002342
3305.000000	99.000689
3304.000000	98.999574
3303.000000	98.997396
3302.000000	98.992568
3301.000000	98.984665
3300.000000	98.975653
3299.000000	98.969108
3298.000000	98.967342
3297.000000	98.969393
3296.000000	98.972418
3295.000000	98.974887
3294.000000	98.977631
3293.000000	98.981733
3292.000000	98.986350
3291.000000	98.989242
3290.000000	98.989028
3289.000000	98.986225
3288.000000	98.982082
3287.000000	98.977126
3286.000000	98.971435
3285.000000	98.966079
3284.000000	98.963233
3283.000000	98.964086
3282.000000	98.966971
3281.000000	98.968611
3280.000000	98.967358
3279.000000	98.964408
3278.000000	98.961790
3277.000000	98.960031
3276.000000	98.958313
3275.000000	98.956140
3274.000000	98.953889
3273.000000	98.952190
3272.000000	98.951630
3271.000000	98.952804
3270.000000	98.955781
3269.000000	98.959428
3268.000000	98.961980
3267.000000	98.962426
3266.000000	98.961222
3265.000000	98.960042
3264.000000	98.961120
3263.000000	98.966293
3262.000000	98.975545
3261.000000	98.986170
3260.000000	98.993830
3259.000000	98.995180
3258.000000	98.989886
3257.000000	98.980606
3256.000000	98.971378
3255.000000	98.965439
3254.000000	98.963762
3253.000000	98.965445
3252.000000	98.969515
3251.000000	98.975810
3250.000000	98.983919
3249.000000	98.992048
3248.000000	98.997954
3247.000000	99.000740
3246.000000	99.001068
3245.000000	98.999927
3244.000000	98.997948
3243.000000	98.995702
3242.000000	98.993626
3241.000000	98.991731
3240.000000	98.990204
3239.000000	98.990292
3238.000000	98.993511
3237.000000	98.999713
3236.000000	99.006824
3235.000000	99.012706
3234.000000	99.016331
3233.000000	99.017030
3232.000000	99.014178
3231.000000	99.008665
3230.000000	99.003751
3229.000000	99.002984
3228.000000	99.007111
3227.000000	99.013422
3226.000000	99.018173
3225.000000	99.019500
3224.000000	99.018535
3223.000000	99.018036
3222.000000	99.019458
3221.000000	99.021212
3220.000000	99.020222
3219.000000	99.015533
3218.000000	99.009743
3217.000000	99.006450
3216.000000	99.007143
3215.000000	99.010845
3214.000000	99.015628
3213.000000	99.019625
3212.000000	99.021565
3211.000000	99.021586
3210.000000	99.021141
3209.000000	99.021295
3208.000000	99.021617
3207.000000	99.021424
3206.000000	99.021210
3205.000000	99.021676
3204.000000	99.022169
3203.000000	99.021654
3202.000000	99.020871
3201.000000	99.021863
3200.000000	99.025310
3199.000000	99.029670
3198.000000	99.033061
3197.000000	99.034520
3196.000000	99.033386
3195.000000	99.029292
3194.000000	99.023572
3193.000000	99.019264
3192.000000	99.018481
3191.000000	99.020318
3190.000000	99.022164
3189.000000	99.022477
3188.000000	99.021708
3187.000000	99.021176
3186.000000	99.021833
3185.000000	99.023655
3184.000000	99.025672
3183.000000	99.026936
3182.000000	99.027709
3181.000000	99.029089
3180.000000	99.031212
3179.000000	99.032779
3178.000000	99.032906
3177.000000	99.032669
3176.000000	99.033992
3175.000000	99.037515
3174.000000	99.042249
3173.000000	99.046708
3172.000000	99.049675
3171.000000	99.050506
3170.000000	99.049689
3169.000000	99.048878
3168.000000	99.049415
3167.000000	99.050943
3166.000000	99.052118
3165.000000	99.052440
3164.000000	99.052648
3163.000000	99.053601
3162.000000	99.055518
3161.000000	99.058072
3160.000000	99.060323
3159.000000	99.060583
3158.000000	99.057530
3157.000000	99.052065
3156.000000	99.047618
3155.000000	99.047934
3154.000000	99.054434
3153.000000	99.065382
3152.000000	99.077108
3151.000000	99.086094
3150.000000	99.090662
3149.000000	99.091244
3148.000000	99.088984
3147.000000	99.084295
3146.000000	99.077265
3145.000000	99.069472
3144.000000	99.064240
3143.000000	99.063982
3142.000000	99.067561
3141.000000	99.071257
3140.000000	99.072739
3139.000000	99.073493
3138.000000	99.076989
3137.000000	99.084599
3136.000000	99.093684
3135.000000	99.099531
3134.000000	99.099139
3133.000000	99.093510
3132.000000	99.087022
3131.000000	99.084650
3130.000000	99.088900
3129.000000	99.098103
3128.000000	99.107486
3127.000000	99.112763
3126.000000	99.113368
3125.000000	99.112037
3124.000000	99.111510
3123.000000	99.112215
3122.000000	99.113025
3121.000000	99.113041
3120.000000	99.111916
3119.000000	99.109205
3118.000000	99.104752
3117.000000	99.099717
3116.000000	99.096298
3115.000000	99.095990
3114.000000	99.098379
3113.000000	99.101521
3112.000000	99.103249
3111.000000	99.102505
3110.000000	99.100286
3109.000000	99.099245
3108.000000	99.101584
3107.000000	99.106877
3106.000000	99.112165
3105.000000	99.114389
3104.000000	99.112570
3103.000000	99.107877
3102.000000	99.102388
3101.000000	99.098275
3100.000000	99.097148
3099.000000	99.098976
3098.000000	99.101672
3097.000000	99.102726
3096.000000	99.101601
3095.000000	99.100183
3094.000000	99.100748
3093.000000	99.103976
3092.000000	99.108919
3091.000000	99.114012
3090.000000	99.117581
3089.000000	99.118091
3088.000000	99.115048
3087.000000	99.109846
3086.000000	99.105080
3085.000000	99.102622
3084.000000	99.102561
3083.000000	99.103948
3082.000000	99.105989
3081.000000	99.108135
3080.000000	99.109582
3079.000000	99.109604
3078.000000	99.108520
3077.000000	99.107522
3076.000000	99.107112
3075.000000	99.106165
3074.000000	99.103210
3073.000000	99.098575
3072.000000	99.094764
3071.000000	99.094372
3070.000000	99.097576
3069.000000	99.101631
3068.000000	99.102814
3067.000000	99.099288
3066.000000	99.092729
3065.000000	99.087331
3064.000000	99.086681
3063.000000	99.091123
3062.000000	99.097827
3061.000000	99.103167
3060.000000	99.104966
3059.000000	99.103148
3058.000000	99.099361
3057.000000	99.096086
3056.000000	99.095169
3055.000000	99.096466
3054.000000	99.098122
3053.000000	99.098527
3052.000000	99.097716
3051.000000	99.096784
3050.000000	99.096652
3049.000000	99.097851
3048.000000	99.100740
3047.000000	99.104905
3046.000000	99.108564
3045.000000	99.109597
3044.000000	99.107513
3043.000000	99.104093
3042.000000	99.101958
3041.000000	99.102681
3040.000000	99.106081
3039.000000	99.110792
3038.000000	99.115231
3037.000000	99.118219
3036.000000	99.118971
3035.000000	99.116917
3034.000000	99.112160
3033.000000	99.106201
3032.000000	99.101514
3031.000000	99.099753
3030.000000	99.100641
3029.000000	99.102985
3028.000000	99.106110
3027.000000	99.109539
3026.000000	99.111813
3025.000000	99.110958
3024.000000	99.106480
3023.000000	99.100216
3022.000000	99.094955
3021.000000	99.092790
3020.000000	99.094738
3019.000000	99.100655
3018.000000	99.108515
3017.000000	99.114266
3016.000000	99.113766
3015.000000	99.105779
3014.000000	99.093469
3013.000000	99.082814
3012.000000	99.078737
3011.000000	99.081394
3010.000000	99.085838
3009.000000	99.085972
3008.000000	99.079563
3007.000000	99.069646
3006.000000	99.061212
3005.000000	99.056921
3004.000000	99.055794
3003.000000	99.055108
3002.000000	99.052913
3001.000000	99.049236
3000.000000	99.045683
2999.000000	99.043919
2998.000000	99.043912
2997.000000	99.043534
2996.000000	99.040247
2995.000000	99.033320
2994.000000	99.024097
2993.000000	99.014028
2992.000000	99.002881
2991.000000	98.989183
2990.000000	98.972184
2989.000000	98.952993
2988.000000	98.933892
2987.000000	98.916825
2986.000000	98.902435
2985.000000	98.889811
2984.000000	98.876579
2983.000000	98.859837
2982.000000	98.838175
2981.000000	98.813293
2980.000000	98.788988
2979.000000	98.767865
2978.000000	98.748999
2977.000000	98.729074
2976.000000	98.705340
2975.000000	98.677164
2974.000000	98.645155
2973.000000	98.609958
2972.000000	98.572335
2971.000000	98.533661
2970.000000	98.495525
2969.000000	98.458740
2968.000000	98.423242
2967.000000	98.388965
2966.000000	98.356242
2965.000000	98.324920
2964.000000	98.293480
2963.000000	98.259970
2962.000000	98.223960
2961.000000	98.186930
2960.000000	98.150414
2959.000000	98.114582
2958.000000	98.079525
2957.000000	98.047218
2956.000000	98.020922
2955.000000	98.002457
2954.000000	97.990872
2953.000000	97.983798
2952.000000	97.979003
2951.000000	97.974632
2950.000000	97.969110
2949.000000	97.961616
2948.000000	97.951816
2947.000000	97.938567
2946.000000	97.919661
2945.000000	97.893388
2944.000000	97.859722
2943.000000	97.819158
2942.000000	97.771308
2941.000000	97.715561
2940.000000	97.652546
2939.000000	97.583771
2938.000000	97.509858
2937.000000	97.430190
2936.000000	97.344020
2935.000000	97.251248
2934.000000	97.152430
2933.000000	97.048944
2932.000000	96.943050
2931.000000	96.836786
2930.000000	96.730951
2929.000000	96.625879
2928.000000	96.523136
2927.000000	96.425728
2926.000000	96.336821
2925.000000	96.259379
2924.000000	96.196562
2923.000000	96.151248
2922.000000	96.124618
2921.000000	96.116216
2920.000000	96.126237
2919.000000	96.156898
2918.000000	96.211366
2917.000000	96.291407
2916.000000	96.395981
2915.000000	96.521009
2914.000000	96.659522
2913.000000	96.802688
2912.000000	96.941539
2911.000000	97.068779
2910.000000	97.179701
2909.000000	97.272906
2908.000000	97.350956
2907.000000	97.419272
2906.000000	97.483017
2905.000000	97.544176
2904.000000	97.601706
2903.000000	97.653839
2902.000000	97.699994
2901.000000	97.740572
2900.000000	97.776561
2899.000000	97.809702
2898.000000	97.842248
2897.000000	97.875942
2896.000000	97.910912
2895.000000	97.945701
2894.000000	97.978538
2893.000000	98.008727
2892.000000	98.036968
2891.000000	98.064391
2890.000000	98.091439
2889.000000	98.117870
2888.000000	98.143519
2887.000000	98.168388
2886.000000	98.191845
2885.000000	98.212353
2884.000000	98.228489
2883.000000	98.239997
2882.000000	98.247531
2881.000000	98.251805
2880.000000	98.253335
2879.000000	98.252544
2878.000000	98.249377
2877.000000	98.242909
2876.000000	98.232136
2875.000000	98.217385
2874.000000	98.200645
2873.000000	98.184301
2872.000000	98.169851
2871.000000	98.157765
2870.000000	98.147873
2869.000000	98.139330
2868.000000	98.130423
2867.000000	98.118840
2866.000000	98.102258
2865.000000	98.078689
2864.000000	98.046426
2863.000000	98.004130
2862.000000	97.950995
2861.000000	97.886778
2860.000000	97.811705
2859.000000	97.726593
2858.000000	97.633227
2857.000000	97.534598
2856.000000	97.434684
2855.000000	97.338052
2854.000000	97.250324
2853.000000	97.178817
2852.000000	97.132224
2851.000000	97.119038
2850.000000	97.145156
2849.000000	97.212058
2848.000000	97.315915
2847.000000	97.447875
2846.000000	97.595917
2845.000000	97.747864
2844.000000	97.893665
2843.000000	98.026353
2842.000000	98.142007
2841.000000	98.239605
2840.000000	98.321014
2839.000000	98.389699
2838.000000	98.448686
2837.000000	98.499719
2836.000000	98.544256
2835.000000	98.584464
2834.000000	98.622334
2833.000000	98.657902
2832.000000	98.689215
2831.000000	98.714509
2830.000000	98.734087
2829.000000	98.749863
2828.000000	98.763300
2827.000000	98.774228
2826.000000	98.781839
2825.000000	98.786499
2824.000000	98.790417
2823.000000	98.796565
2822.000000	98.806984
2821.000000	98.821729
2820.000000	98.838802
2819.000000	98.854999
2818.000000	98.867517
2817.000000	98.875583
2816.000000	98.880828
2815.000000	98.885871
2814.000000	98.892254
2813.000000	98.899473
2812.000000	98.905685
2811.000000	98.909309
2810.000000	98.910313
2809.000000	98.910294
2808.000000	98.911263
2807.000000	98.914279
2806.000000	98.919255
2805.000000	98.925699
2804.000000	98.932998
2803.000000	98.939942
2802.000000	98.945000
2801.000000	98.947765
2800.000000	98.949522
2799.000000	98.951632
2798.000000	98.953826
2797.000000	98.955024
2796.000000	98.955436
2795.000000	98.956653
2794.000000	98.959606
2793.000000	98.963663
2792.000000	98.968065
2791.000000	98.973137
2790.000000	98.979295
2789.000000	98.985539
2788.000000	98.989916
2787.000000	98.991485
2786.000000	98.991360
2785.000000	98.991766
2784.000000	98.994096
2783.000000	98.997662
2782.000000	99.000261
2781.000000	99.000268
2780.000000	98.998326
2779.000000	98.996711
2778.000000	98.997102
2777.000000	98.999359
2776.000000	99.002442
2775.000000	99.005800
2774.000000	99.009485
2773.000000	99.013479
2772.000000	99.017420
2771.000000	99.020788
2770.000000	99.023079
2769.000000	99.024176
2768.000000	99.024810
2767.000000	99.026187
2766.000000	99.028638
2765.000000	99.030975
2764.000000	99.031816
2763.000000	99.031497
2762.000000	99.032051
2761.000000	99.035008
2760.000000	99.039594
2759.000000	99.043518
2758.000000	99.045477
2757.000000	99.046387
2756.000000	99.047868
2755.000000	99.049966
2754.000000	99.051176
2753.000000	99.050754
2752.000000	99.050060
2751.000000	99.050987
2750.000000	99.053715
2749.000000	99.056753
2748.000000	99.058707
2747.000000	99.059023
2746.000000	99.057358
2745.000000	99.053530
2744.000000	99.048409
2743.000000	99.043942
2742.000000	99.041764
2741.000000	99.042098
2740.000000	99.043964
2739.000000	99.045871
2738.000000	99.046590
2737.000000	99.046342
2736.000000	99.047291
2735.000000	99.051609
2734.000000	99.058491
2733.000000	99.064194
2732.000000	99.065834
2731.000000	99.064305
2730.000000	99.062640
2729.000000	99.062331
2728.000000	99.062429
2727.000000	99.061790
2726.000000	99.060788
2725.000000	99.060628
2724.000000	99.061947
2723.000000	99.064552
2722.000000	99.067950
2721.000000	99.071531
2720.000000	99.074291
2719.000000	99.074891
2718.000000	99.072591
2717.000000	99.068491
2716.000000	99.065396
2715.000000	99.065614
2714.000000	99.068758
2713.000000	99.072374
2712.000000	99.074727
2711.000000	99.076045
2710.000000	99.076931
2709.000000	99.077020
2708.000000	99.076236
2707.000000	99.076243
2706.000000	99.079033
2705.000000	99.084214
2704.000000	99.088992
2703.000000	99.091014
2702.000000	99.090441
2701.000000	99.089208
2700.000000	99.089142
2699.000000	99.090828
2698.000000	99.093322
2697.000000	99.094612
2696.000000	99.093184
2695.000000	99.089772
2694.000000	99.087103
2693.000000	99.087470
2692.000000	99.090724
2691.000000	99.094670
2690.000000	99.096870
2689.000000	99.095838
2688.000000	99.091414
2687.000000	99.085043
2686.000000	99.079521
2685.000000	99.077424
2684.000000	99.079190
2683.000000	99.082967
2682.000000	99.086603
2681.000000	99.089481
2680.000000	99.092211
2679.000000	99.094947
2678.000000	99.096756
2677.000000	99.096737
2676.000000	99.095161
2675.000000	99.093075
2674.000000	99.091135
2673.000000	99.089376
2672.000000	99.087961
2671.000000	99.087410
2670.000000	99.087834
2669.000000	99.088478
2668.000000	99.088482
2667.000000	99.087903
2666.000000	99.087495
2665.000000	99.087452
2664.000000	99.086799
2663.000000	99.084426
2662.000000	99.080670
2661.000000	99.077404
2660.000000	99.076181
2659.000000	99.076506
2658.000000	99.076615
2657.000000	99.076050
2656.000000	99.076631
2655.000000	99.080192
2654.000000	99.085958
2653.000000	99.091198
2652.000000	99.094229
2651.000000	99.095696
2650.000000	99.096926
2649.000000	99.098319
2648.000000	99.099835
2647.000000	99.101788
2646.000000	99.104065
2645.000000	99.105346
2644.000000	99.104499
2643.000000	99.102583
2642.000000	99.102306
2641.000000	99.105225
2640.000000	99.110195
2639.000000	99.114859
2638.000000	99.118069
2637.000000	99.120457
2636.000000	99.123013
2635.000000	99.125602
2634.000000	99.127030
2633.000000	99.126566
2632.000000	99.125384
2631.000000	99.126192
2630.000000	99.130929
2629.000000	99.138704
2628.000000	99.146441
2627.000000	99.151847
2626.000000	99.155498
2625.000000	99.159578
2624.000000	99.164758
2623.000000	99.169088
2622.000000	99.170353
2621.000000	99.168739
2620.000000	99.166129
2619.000000	99.163113
2618.000000	99.158240
2617.000000	99.151030
2616.000000	99.144498
2615.000000	99.143115
2614.000000	99.148400
2613.000000	99.157409
2612.000000	99.165393
2611.000000	99.169145
2610.000000	99.168251
2609.000000	99.164651
2608.000000	99.161412
2607.000000	99.160783
2606.000000	99.162744
2605.000000	99.165997
2604.000000	99.170341
2603.000000	99.176891
2602.000000	99.185359
2601.000000	99.192402
2600.000000	99.194258
2599.000000	99.190898
2598.000000	99.186586
2597.000000	99.185941
2596.000000	99.189995
2595.000000	99.196413
2594.000000	99.202827
2593.000000	99.208737
2592.000000	99.213693
2591.000000	99.215181
2590.000000	99.210512
2589.000000	99.201076
2588.000000	99.192723
2587.000000	99.190415
2586.000000	99.193747
2585.000000	99.199009
2584.000000	99.204272
2583.000000	99.210372
2582.000000	99.217671
2581.000000	99.224459
2580.000000	99.228717
2579.000000	99.229679
2578.000000	99.227632
2577.000000	99.224172
2576.000000	99.222691
2575.000000	99.225977
2574.000000	99.232233
2573.000000	99.235352
2572.000000	99.230437
2571.000000	99.218358
2570.000000	99.204709
2569.000000	99.195888
2568.000000	99.196270
2567.000000	99.206489
2566.000000	99.222446
2565.000000	99.237161
2564.000000	99.245397
2563.000000	99.246469
2562.000000	99.242709
2561.000000	99.236999
2560.000000	99.232362
2559.000000	99.231544
2558.000000	99.234666
2557.000000	99.238103
2556.000000	99.237560
2555.000000	99.232212
2554.000000	99.225083
2553.000000	99.220086
2552.000000	99.219409
2551.000000	99.222561
2550.000000	99.226650
2549.000000	99.228210
2548.000000	99.225901
2547.000000	99.221263
2546.000000	99.216612
2545.000000	99.213318
2544.000000	99.212529
2543.000000	99.215616
2542.000000	99.222357
2541.000000	99.229863
2540.000000	99.234969
2539.000000	99.236949
2538.000000	99.236617
2537.000000	99.233819
2536.000000	99.227660
2535.000000	99.218690
2534.000000	99.209135
2533.000000	99.201235
2532.000000	99.196537
2531.000000	99.196060
2530.000000	99.199250
2529.000000	99.203008
2528.000000	99.203771
2527.000000	99.201011
2526.000000	99.197231
2525.000000	99.194216
2524.000000	99.191035
2523.000000	99.186492
2522.000000	99.181966
2521.000000	99.179990
2520.000000	99.180263
2519.000000	99.178599
2518.000000	99.170746
2517.000000	99.157340
2516.000000	99.144708
2515.000000	99.140286
2514.000000	99.146555
2513.000000	99.158848
2512.000000	99.168904
2511.000000	99.170997
2510.000000	99.165297
2509.000000	99.156223
2508.000000	99.148148
2507.000000	99.142784
2506.000000	99.140208
2505.000000	99.141010
2504.000000	99.146222
2503.000000	99.155264
2502.000000	99.165642
2501.000000	99.175696
2500.000000	99.186295
2499.000000	99.198082
2498.000000	99.207581
2497.000000	99.208482
2496.000000	99.198151
2495.000000	99.182005
2494.000000	99.170482
2493.000000	99.171276
2492.000000	99.183978
2491.000000	99.201241
2490.000000	99.214950
2489.000000	99.222436
2488.000000	99.227213
2487.000000	99.233475
2486.000000	99.240438
2485.000000	99.243127
2484.000000	99.238635
2483.000000	99.230023
2482.000000	99.223714
2481.000000	99.224533
2480.000000	99.233399
2479.000000	99.247753
2478.000000	99.262592
2477.000000	99.272531
2476.000000	99.275257
2475.000000	99.273298
2474.000000	99.271295
2473.000000	99.271546
2472.000000	99.273123
2471.000000	99.274700
2470.000000	99.276372
2469.000000	99.278116
2468.000000	99.278211
2467.000000	99.275084
2466.000000	99.270286
2465.000000	99.267898
2464.000000	99.270435
2463.000000	99.276671
2462.000000	99.284066
2461.000000	99.291402
2460.000000	99.297273
2459.000000	99.297588
2458.000000	99.288244
2457.000000	99.271207
2456.000000	99.255203
2455.000000	99.248281
2454.000000	99.250819
2453.000000	99.257019
2452.000000	99.261588
2451.000000	99.263188
2450.000000	99.263020
2449.000000	99.262939
2448.000000	99.265051
2447.000000	99.270921
2446.000000	99.280335
2445.000000	99.291259
2444.000000	99.300772
2443.000000	99.305891
2442.000000	99.305200
2441.000000	99.301096
2440.000000	99.298787
2439.000000	99.300901
2438.000000	99.304091
2437.000000	99.303200
2436.000000	99.297994
2435.000000	99.293282
2434.000000	99.292916
2433.000000	99.296277
2432.000000	99.300536
2431.000000	99.303865
2430.000000	99.306067
2429.000000	99.308254
2428.000000	99.312428
2427.000000	99.319384
2426.000000	99.326704
2425.000000	99.330722
2424.000000	99.330810
2423.000000	99.329724
2422.000000	99.329194
2421.000000	99.327412
2420.000000	99.321964
2419.000000	99.313587
2418.000000	99.305597
2417.000000	99.300468
2416.000000	99.298139
2415.000000	99.297400
2414.000000	99.297946
2413.000000	99.300606
2412.000000	99.305409
2411.000000	99.310165
2410.000000	99.312434
2409.000000	99.313011
2408.000000	99.315551
2407.000000	99.321685
2406.000000	99.328317
2405.000000	99.331230
2404.000000	99.329631
2403.000000	99.325591
2402.000000	99.321147
2401.000000	99.318346
2400.000000	99.319957
2399.000000	99.326621
2398.000000	99.334328
2397.000000	99.337978
2396.000000	99.337010
2395.000000	99.334640
2394.000000	99.332293
2393.000000	99.328269
2392.000000	99.321700
2391.000000	99.314629
2390.000000	99.309584
2389.000000	99.307730
2388.000000	99.309696
2387.000000	99.314884
2386.000000	99.320336
2385.000000	99.322757
2384.000000	99.322371
2383.000000	99.322558
2382.000000	99.324583
2381.000000	99.326660
2380.000000	99.328157
2379.000000	99.331318
2378.000000	99.337198
2377.000000	99.342073
2376.000000	99.340619
2375.000000	99.331753
2374.000000	99.320909
2373.000000	99.316127
2372.000000	99.321220
2371.000000	99.330883
2370.000000	99.334837
2369.000000	99.329179
2368.000000	99.319378
2367.000000	99.311839
2366.000000	99.306655
2365.000000	99.301791
2364.000000	99.299294
2363.000000	99.300750
2362.000000	99.303204
2361.000000	99.305252
2360.000000	99.310526
2359.000000	99.323014
2358.000000	99.340153
2357.000000	99.354240
2356.000000	99.356115
2355.000000	99.340595
2354.000000	99.317167
2353.000000	99.302087
2352.000000	99.299116
2351.000000	99.297796
2350.000000	99.289895
2349.000000	99.277934
2348.000000	99.270464
2347.000000	99.275504
2346.000000	99.289460
2345.000000	99.295724
2344.000000	99.285189
2343.000000	99.268630
2342.000000	99.261997
2341.000000	99.267440
2340.000000	99.274375
2339.000000	99.274782
2338.000000	99.271883
2337.000000	99.271092
2336.000000	99.271511
2335.000000	99.270937
2334.000000	99.273815
2333.000000	99.284620
2332.000000	99.297175
2331.000000	99.300375
2330.000000	99.290410
2329.000000	99.273197
2328.000000	99.254828
2327.000000	99.238768
2326.000000	99.227830
2325.000000	99.223959
2324.000000	99.227379
2323.000000	99.235198
2322.000000	99.241183
2321.000000	99.236657
2320.000000	99.218804
2319.000000	99.196276
2318.000000	99.181911
2317.000000	99.180537
2316.000000	99.187291
2315.000000	99.197278
2314.000000	99.209676
2313.000000	99.223481
2312.000000	99.234274
2311.000000	99.239451
2310.000000	99.242046
2309.000000	99.246928
2308.000000	99.255387
2307.000000	99.264797
2306.000000	99.271938
2305.000000	99.275298
2304.000000	99.276273
2303.000000	99.277534
2302.000000	99.279848
2301.000000	99.281118
2300.000000	99.280462
2299.000000	99.280686
2298.000000	99.283153
2297.000000	99.283276
2296.000000	99.274829
2295.000000	99.259416
2294.000000	99.246277
2293.000000	99.242510
2292.000000	99.246894
2291.000000	99.254160
2290.000000	99.260847
2289.000000	99.264598
2288.000000	99.262010
2287.000000	99.251139
2286.000000	99.235772
2285.000000	99.224404
2284.000000	99.224737
2283.000000	99.238186
2282.000000	99.258698
2281.000000	99.276328
2280.000000	99.284146
2279.000000	99.282465
2278.000000	99.276186
2277.000000	99.269220
2276.000000	99.262750
2275.000000	99.258100
2274.000000	99.258495
2273.000000	99.267175
2272.000000	99.284189
2271.000000	99.304758
2270.000000	99.320403
2269.000000	99.324098
2268.000000	99.317076
2267.000000	99.309307
2266.000000	99.310240
2265.000000	99.319606
2264.000000	99.329623
2263.000000	99.335157
2262.000000	99.338414
2261.000000	99.343987
2260.000000	99.352772
2259.000000	99.361536
2258.000000	99.366674
2257.000000	99.367432
2256.000000	99.366042
2255.000000	99.363946
2254.000000	99.358108
2253.000000	99.344071
2252.000000	99.324054
2251.000000	99.308469
2250.000000	99.306316
2249.000000	99.316197
2248.000000	99.330005
2247.000000	99.343488
2246.000000	99.358827
2245.000000	99.377422
2244.000000	99.394116
2243.000000	99.400389
2242.000000	99.392247
2241.000000	99.374740
2240.000000	99.358364
2239.000000	99.349266
2238.000000	99.343523
2237.000000	99.333805
2236.000000	99.320998
2235.000000	99.314549
2234.000000	99.320531
2233.000000	99.334660
2232.000000	99.348834
2231.000000	99.358832
2230.000000	99.362621
2229.000000	99.357938
2228.000000	99.347742
2227.000000	99.343199
2226.000000	99.354560
2225.000000	99.380829
2224.000000	99.412142
2223.000000	99.439001
2222.000000	99.455080
2221.000000	99.455976
2220.000000	99.442047
2219.000000	99.420124
2218.000000	99.397533
2217.000000	99.377138
2216.000000	99.361708
2215.000000	99.357834
2214.000000	99.368727
2213.000000	99.385992
2212.000000	99.395548
2211.000000	99.391052
2210.000000	99.376639
2209.000000	99.359011
2208.000000	99.342504
2207.000000	99.330156
2206.000000	99.324191
2205.000000	99.324971
2204.000000	99.331723
2203.000000	99.343076
2202.000000	99.355515
2201.000000	99.364727
2200.000000	99.370431
2199.000000	99.375081
2198.000000	99.375672
2197.000000	99.363746
2196.000000	99.338558
2195.000000	99.313972
2194.000000	99.306295
2193.000000	99.319142
2192.000000	99.343472
2191.000000	99.365964
2190.000000	99.372315
2189.000000	99.352179
2188.000000	99.311825
2187.000000	99.275987
2186.000000	99.266545
2185.000000	99.281963
2184.000000	99.304418
2183.000000	99.322920
2182.000000	99.340467
2181.000000	99.362783
2180.000000	99.391362
2179.000000	99.424794
2178.000000	99.456487
2177.000000	99.473712
2176.000000	99.470244
2175.000000	99.458159
2174.000000	99.456312
2173.000000	99.467991
2172.000000	99.480007
2171.000000	99.482588
2170.000000	99.479694
2169.000000	99.479680
2168.000000	99.483915
2167.000000	99.486130
2166.000000	99.477040
2165.000000	99.448659
2164.000000	99.400539
2163.000000	99.344461
2162.000000	99.301693
2161.000000	99.295810
2160.000000	99.343358
2159.000000	99.439656
2158.000000	99.549844
2157.000000	99.629033
2156.000000	99.659524
2155.000000	99.656590
2154.000000	99.640707
2153.000000	99.620463
2152.000000	99.599723
2151.000000	99.584215
2150.000000	99.574248
2149.000000	99.560576
2148.000000	99.537022
2147.000000	99.512318
2146.000000	99.502065
2145.000000	99.511738
2144.000000	99.532664
2143.000000	99.551760
2142.000000	99.560116
2141.000000	99.555642
2140.000000	99.543514
2139.000000	99.532616
2138.000000	99.527770
2137.000000	99.526665
2136.000000	99.525476
2135.000000	99.524221
2134.000000	99.524143
2133.000000	99.523158
2132.000000	99.517381
2131.000000	99.505790
2130.000000	99.491749
2129.000000	99.481100
2128.000000	99.478511
2127.000000	99.483315
2126.000000	99.488988
2125.000000	99.489039
2124.000000	99.483139
2123.000000	99.475032
2122.000000	99.465707
2121.000000	99.452557
2120.000000	99.434996
2119.000000	99.416816
2118.000000	99.402845
2117.000000	99.396728
2116.000000	99.400844
2115.000000	99.413399
2114.000000	99.425870
2113.000000	99.429016
2112.000000	99.422871
2111.000000	99.415759
2110.000000	99.412802
2109.000000	99.411743
2108.000000	99.410777
2107.000000	99.412831
2106.000000	99.418752
2105.000000	99.423213
2104.000000	99.421988
2103.000000	99.418131
2102.000000	99.417047
2101.000000	99.419909
2100.000000	99.425178
2099.000000	99.431542
2098.000000	99.436210
2097.000000	99.435780
2096.000000	99.432301
2095.000000	99.432471
2094.000000	99.436695
2093.000000	99.435560
2092.000000	99.422922
2091.000000	99.406887
2090.000000	99.401380
2089.000000	99.409323
2088.000000	99.418978
2087.000000	99.416453
2086.000000	99.398662
2085.000000	99.375241
2084.000000	99.359878
2083.000000	99.358426
2082.000000	99.365226
2081.000000	99.372018
2080.000000	99.377573
2079.000000	99.384171
2078.000000	99.388116
2077.000000	99.383414
2076.000000	99.374371
2075.000000	99.373523
2074.000000	99.384302
2073.000000	99.396244
2072.000000	99.401571
2071.000000	99.405551
2070.000000	99.414967
2069.000000	99.426684
2068.000000	99.434793
2067.000000	99.439362
2066.000000	99.439996
2065.000000	99.429737
2064.000000	99.405231
2063.000000	99.376370
2062.000000	99.357212
2061.000000	99.352507
2060.000000	99.357125
2059.000000	99.361728
2058.000000	99.356081
2057.000000	99.336959
2056.000000	99.317913
2055.000000	99.319080
2054.000000	99.339189
2053.000000	99.350592
2052.000000	99.333168
2051.000000	99.300704
2050.000000	99.282446
2049.000000	99.289198
2048.000000	99.311270
2047.000000	99.342173
2046.000000	99.383146
2045.000000	99.426022
2044.000000	99.454729
2043.000000	99.465197
2042.000000	99.466084
2041.000000	99.460966
2040.000000	99.446330
2039.000000	99.426771
2038.000000	99.416703
2037.000000	99.425765
2036.000000	99.452194
2035.000000	99.488201
2034.000000	99.521936
2033.000000	99.539341
2032.000000	99.537913
2031.000000	99.533495
2030.000000	99.541942
2029.000000	99.562593
2028.000000	99.589087
2027.000000	99.623473
2026.000000	99.664327
2025.000000	99.692486
2024.000000	99.689297
2023.000000	99.661633
2022.000000	99.631687
2021.000000	99.609576
2020.000000	99.591116
2019.000000	99.575685
2018.000000	99.570902
2017.000000	99.581310
2016.000000	99.602260
2015.000000	99.622921
2014.000000	99.627740
2013.000000	99.602554
2012.000000	99.552138
2011.000000	99.505092
2010.000000	99.490223
2009.000000	99.512180
2008.000000	99.554085
2007.000000	99.595908
2006.000000	99.622597
2005.000000	99.625793
2004.000000	99.612321
2003.000000	99.601564
2002.000000	99.604034
2001.000000	99.608384
2000.000000	99.596474
1999.000000	99.564950
1998.000000	99.525232
1997.000000	99.491851
1996.000000	99.477109
1995.000000	99.486677
1994.000000	99.510996
1993.000000	99.527058
1992.000000	99.519728
1991.000000	99.497468
1990.000000	99.477481
1989.000000	99.465548
1988.000000	99.459402
1987.000000	99.457288
1986.000000	99.452227
1985.000000	99.430302
1984.000000	99.387413
1983.000000	99.337766
1982.000000	99.294835
1981.000000	99.255908
1980.000000	99.221668
1979.000000	99.219499
1978.000000	99.280249
1977.000000	99.388881
1976.000000	99.486945
1975.000000	99.534437
1974.000000	99.541118
1973.000000	99.536312
1972.000000	99.536135
1971.000000	99.541616
1970.000000	99.549944
1969.000000	99.560608
1968.000000	99.576998
1967.000000	99.604495
1966.000000	99.643325
1965.000000	99.684080
1964.000000	99.712561
1963.000000	99.715143
1962.000000	99.681204
1961.000000	99.612605
1960.000000	99.532602
1959.000000	99.472781
1958.000000	99.448044
1957.000000	99.451261
1956.000000	99.470328
1955.000000	99.500148
1954.000000	99.535227
1953.000000	99.562234
1952.000000	99.568656
1951.000000	99.555153
1950.000000	99.535753
1949.000000	99.527215
1948.000000	99.537995
1947.000000	99.562710
1946.000000	99.586760
1945.000000	99.601029
1944.000000	99.610267
1943.000000	99.620565
1942.000000	99.622304
1941.000000	99.601904
1940.000000	99.568219
1939.000000	99.546557
1938.000000	99.548317
1937.000000	99.559630
1936.000000	99.561664
1935.000000	99.553501
1934.000000	99.547556
1933.000000	99.550983
1932.000000	99.558824
1931.000000	99.560827
1930.000000	99.550570
1929.000000	99.529930
1928.000000	99.510828
1927.000000	99.507518
1926.000000	99.523383
1925.000000	99.548237
1924.000000	99.568104
1923.000000	99.576720
1922.000000	99.576262
1921.000000	99.571655
1920.000000	99.567496
1919.000000	99.565148
1918.000000	99.559733
1917.000000	99.545669
1916.000000	99.528066
1915.000000	99.520291
1914.000000	99.527304
1913.000000	99.538458
1912.000000	99.538345
1911.000000	99.522845
1910.000000	99.503303
1909.000000	99.495597
1908.000000	99.506591
1907.000000	99.527779
1906.000000	99.541166
1905.000000	99.534119
1904.000000	99.511172
1903.000000	99.490353
1902.000000	99.484551
1901.000000	99.490530
1900.000000	99.499570
1899.000000	99.510291
1898.000000	99.525268
1897.000000	99.542195
1896.000000	99.554770
1895.000000	99.561038
1894.000000	99.564756
1893.000000	99.569405
1892.000000	99.575393
1891.000000	99.580382
1890.000000	99.579585
1889.000000	99.570472
1888.000000	99.559014
1887.000000	99.554795
1886.000000	99.558467
1885.000000	99.560317
1884.000000	99.553115
1883.000000	99.541569
1882.000000	99.535002
1881.000000	99.535316
1880.000000	99.538719
1879.000000	99.543908
1878.000000	99.552431
1877.000000	99.564643
1876.000000	99.578164
1875.000000	99.588323
1874.000000	99.589603
1873.000000	99.580227
1872.000000	99.567411
1871.000000	99.563576
1870.000000	99.574213
1869.000000	99.590687
1868.000000	99.600424
1867.000000	99.603770
1866.000000	99.609208
1865.000000	99.618016
1864.000000	99.625062
1863.000000	99.627048
1862.000000	99.623722
1861.000000	99.615620
1860.000000	99.605567
1859.000000	99.598985
1858.000000	99.598122
1857.000000	99.598777
1856.000000	99.596999
1855.000000	99.594921
1854.000000	99.596043
1853.000000	99.598111
1852.000000	99.597664
1851.000000	99.596787
1850.000000	99.598235
1849.000000	99.600824
1848.000000	99.602802
1847.000000	99.606270
1846.000000	99.612968
1845.000000	99.618149
1844.000000	99.615140
1843.000000	99.606382
1842.000000	99.600978
1841.000000	99.602777
1840.000000	99.610472
1839.000000	99.621478
1838.000000	99.631632
1837.000000	99.636792
1836.000000	99.637152
1835.000000	99.637719
1834.000000	99.641363
1833.000000	99.645843
1832.000000	99.649044
1831.000000	99.649593
1830.000000	99.643938
1829.000000	99.632232
1828.000000	99.623025
1827.000000	99.624457
1826.000000	99.633593
1825.000000	99.640042
1824.000000	99.639221
1823.000000	99.636193
1822.000000	99.635486
1821.000000	99.635339
1820.000000	99.634257
1819.000000	99.634218
1818.000000	99.636508
1817.000000	99.639348
1816.000000	99.640876
1815.000000	99.643016
1814.000000	99.647337
1813.000000	99.651384
1812.000000	99.651759
1811.000000	99.646762
1810.000000	99.637313
1809.000000	99.625100
1808.000000	99.611536
1807.000000	99.598770
1806.000000	99.587806
1805.000000	99.577023
1804.000000	99.563674
1803.000000	99.545763
1802.000000	99.520041
1801.000000	99.484750
1800.000000	99.446516
1799.000000	99.415877
1798.000000	99.396938
1797.000000	99.384542
1796.000000	99.372338
1795.000000	99.360938
1794.000000	99.355046
1793.000000	99.358919
1792.000000	99.375295
1791.000000	99.401917
1790.000000	99.431806
1789.000000	99.458172
1788.000000	99.479323
1787.000000	99.499745
1786.000000	99.524084
1785.000000	99.549165
1784.000000	99.566833
1783.000000	99.576268
1782.000000	99.581315
1781.000000	99.582286
1780.000000	99.579963
1779.000000	99.578192
1778.000000	99.580470
1777.000000	99.584815
1776.000000	99.588401
1775.000000	99.593046
1774.000000	99.599348
1773.000000	99.601807
1772.000000	99.598255
1771.000000	99.595275
1770.000000	99.596074
1769.000000	99.594745
1768.000000	99.585529
1767.000000	99.572504
1766.000000	99.563497
1765.000000	99.559003
1764.000000	99.553448
1763.000000	99.542772
1762.000000	99.527691
1761.000000	99.512890
1760.000000	99.502973
1759.000000	99.498005
1758.000000	99.492680
1757.000000	99.478738
1756.000000	99.457723
1755.000000	99.439814
1754.000000	99.427346
1753.000000	99.410637
1752.000000	99.380004
1751.000000	99.338930
1750.000000	99.299668
1749.000000	99.264938
1748.000000	99.228712
1747.000000	99.190869
1746.000000	99.152598
1745.000000	99.110975
1744.000000	99.065189
1743.000000	99.019912
1742.000000	98.979196
1741.000000	98.941035
1740.000000	98.903087
1739.000000	98.871396
1738.000000	98.851483
1737.000000	98.841123
1736.000000	98.836553
1735.000000	98.841106
1734.000000	98.860111
1733.000000	98.886604
1732.000000	98.916848
1731.000000	98.957713
1730.000000	99.007482
1729.000000	99.053649
1728.000000	99.089265
1727.000000	99.119199
1726.000000	99.148623
1725.000000	99.175740
1724.000000	99.197501
1723.000000	99.213484
1722.000000	99.225695
1721.000000	99.234359
1720.000000	99.240073
1719.000000	99.243632
1718.000000	99.245089
1717.000000	99.246040
1716.000000	99.247457
1715.000000	99.251196
1714.000000	99.256556
1713.000000	99.257722
1712.000000	99.253682
1711.000000	99.251651
1710.000000	99.257319
1709.000000	99.266334
1708.000000	99.271807
1707.000000	99.273283
1706.000000	99.274902
1705.000000	99.277909
1704.000000	99.277787
1703.000000	99.273526
1702.000000	99.265639
1701.000000	99.248654
1700.000000	99.221033
1699.000000	99.198572
1698.000000	99.192733
1697.000000	99.190080
1696.000000	99.174281
1695.000000	99.151105
1694.000000	99.137773
1693.000000	99.134547
1692.000000	99.129429
1691.000000	99.115706
1690.000000	99.093833
1689.000000	99.064136
1688.000000	99.028857
1687.000000	98.994544
1686.000000	98.964716
1685.000000	98.932845
1684.000000	98.892908
1683.000000	98.858813
1682.000000	98.840659
1681.000000	98.826642
1680.000000	98.804971
1679.000000	98.775350
1678.000000	98.743618
1677.000000	98.710396
1676.000000	98.676258
1675.000000	98.648803
1674.000000	98.632127
1673.000000	98.619166
1672.000000	98.603709
1671.000000	98.587013
1670.000000	98.576962
1669.000000	98.575207
1668.000000	98.575185
1667.000000	98.573181
1666.000000	98.566033
1665.000000	98.551042
1664.000000	98.530004
1663.000000	98.509245
1662.000000	98.491114
1661.000000	98.469464
1660.000000	98.445124
1659.000000	98.424294
1658.000000	98.409435
1657.000000	98.392569
1656.000000	98.371895
1655.000000	98.351785
1654.000000	98.346063
1653.000000	98.353355
1652.000000	98.347683
1651.000000	98.338212
1650.000000	98.335100
1649.000000	98.327583
1648.000000	98.313221
1647.000000	98.311830
1646.000000	98.334049
1645.000000	98.360192
1644.000000	98.376338
1643.000000	98.386530
1642.000000	98.394221
1641.000000	98.400257
1640.000000	98.404665
1639.000000	98.409344
1638.000000	98.417659
1637.000000	98.432470
1636.000000	98.455531
1635.000000	98.480866
1634.000000	98.499188
1633.000000	98.513201
1632.000000	98.525949
1631.000000	98.538192
1630.000000	98.552527
1629.000000	98.568636
1628.000000	98.584686
1627.000000	98.599850
1626.000000	98.613564
1625.000000	98.626206
1624.000000	98.643341
1623.000000	98.670571
1622.000000	98.700516
1621.000000	98.719571
1620.000000	98.727781
1619.000000	98.734458
1618.000000	98.747531
1617.000000	98.768434
1616.000000	98.793174
1615.000000	98.819828
1614.000000	98.845628
1613.000000	98.864661
1612.000000	98.875928
1611.000000	98.887265
1610.000000	98.903812
1609.000000	98.920372
1608.000000	98.931508
1607.000000	98.940019
1606.000000	98.948620
1605.000000	98.954896
1604.000000	98.959512
1603.000000	98.966101
1602.000000	98.972804
1601.000000	98.973147
1600.000000	98.966836
1599.000000	98.960960
1598.000000	98.958885
1597.000000	98.957491
1596.000000	98.955201
1595.000000	98.954309
1594.000000	98.953319
1593.000000	98.945628
1592.000000	98.929844
1591.000000	98.912305
1590.000000	98.896486
1589.000000	98.878394
1588.000000	98.855785
1587.000000	98.832149
1586.000000	98.808312
1585.000000	98.778363
1584.000000	98.740896
1583.000000	98.703968
1582.000000	98.672302
1581.000000	98.642218
1580.000000	98.611926
1579.000000	98.586865
1578.000000	98.570968
1577.000000	98.562456
1576.000000	98.561322
1575.000000	98.572348
1574.000000	98.591830
1573.000000	98.608969
1572.000000	98.620682
1571.000000	98.633764
1570.000000	98.655471
1569.000000	98.677185
1568.000000	98.689696
1567.000000	98.698276
1566.000000	98.707231
1565.000000	98.710989
1564.000000	98.706641
1563.000000	98.696823
1562.000000	98.684136
1561.000000	98.668680
1560.000000	98.650908
1559.000000	98.636467
1558.000000	98.622657
1557.000000	98.599824
1556.000000	98.578008
1555.000000	98.563521
1554.000000	98.544298
1553.000000	98.516438
1552.000000	98.479129
1551.000000	98.434595
1550.000000	98.378986
1549.000000	98.312878
1548.000000	98.241160
1547.000000	98.166383
1546.000000	98.080279
1545.000000	97.973544
1544.000000	97.853999
1543.000000	97.741028
1542.000000	97.642572
1541.000000	97.557800
1540.000000	97.502346
1539.000000	97.484918
1538.000000	97.479336
1537.000000	97.466527
1536.000000	97.447003
1535.000000	97.428852
1534.000000	97.422057
1533.000000	97.418887
1532.000000	97.402601
1531.000000	97.369890
1530.000000	97.327950
1529.000000	97.280012
1528.000000	97.228214
1527.000000	97.174976
1526.000000	97.116522
1525.000000	97.046620
1524.000000	96.969745
1523.000000	96.896576
1522.000000	96.831012
1521.000000	96.766614
1520.000000	96.698967
1519.000000	96.633740
1518.000000	96.569980
1517.000000	96.498742
1516.000000	96.418541
1515.000000	96.334705
1514.000000	96.248905
1513.000000	96.159926
1512.000000	96.071769
1511.000000	95.987846
1510.000000	95.903035
1509.000000	95.809849
1508.000000	95.718102
1507.000000	95.659149
1506.000000	95.614997
1505.000000	95.538902
1504.000000	95.445650
1503.000000	95.354268
1502.000000	95.259226
1501.000000	95.158404
1500.000000	95.056450
1499.000000	94.964556
1498.000000	94.882526
1497.000000	94.804445
1496.000000	94.727907
1495.000000	94.651403
1494.000000	94.567970
1493.000000	94.472090
1492.000000	94.370785
1491.000000	94.283013
1490.000000	94.220110
1489.000000	94.167090
1488.000000	94.102413
1487.000000	94.023844
1486.000000	93.937374
1485.000000	93.841815
1484.000000	93.739770
1483.000000	93.641381
1482.000000	93.551050
1481.000000	93.462370
1480.000000	93.367669
1479.000000	93.268131
1478.000000	93.166801
1477.000000	93.061292
1476.000000	92.947281
1475.000000	92.828641
1474.000000	92.717643
1473.000000	92.626278
1472.000000	92.549834
1471.000000	92.463749
1470.000000	92.355696
1469.000000	92.233657
1468.000000	92.112522
1467.000000	92.008826
1466.000000	91.935048
1465.000000	91.889253
1464.000000	91.850321
1463.000000	91.793222
1462.000000	91.710860
1461.000000	91.608554
1460.000000	91.497829
1459.000000	91.397707
1458.000000	91.340135
1457.000000	91.342336
1456.000000	91.351576
1455.000000	91.314296
1454.000000	91.238824
1453.000000	91.150402
1452.000000	91.067096
1451.000000	90.994442
1450.000000	90.927278
1449.000000	90.867906
1448.000000	90.824474
1447.000000	90.790270
1446.000000	90.742585
1445.000000	90.673273
1444.000000	90.597988
1443.000000	90.531755
1442.000000	90.471833
1441.000000	90.404135
1440.000000	90.322829
1439.000000	90.238731
1438.000000	90.176264
1437.000000	90.159710
1436.000000	90.169038
1435.000000	90.145697
1434.000000	90.068970
1433.000000	89.964911
1432.000000	89.866118
1431.000000	89.790382
1430.000000	89.730218
1429.000000	89.668439
1428.000000	89.596068
1427.000000	89.513020
1426.000000	89.424019
1425.000000	89.339615
1424.000000	89.269064
1423.000000	89.196315
1422.000000	89.095625
1421.000000	88.972919
1420.000000	88.874698
1419.000000	88.837199
1418.000000	88.817642
1417.000000	88.755476
1416.000000	88.654743
1415.000000	88.543182
1414.000000	88.430437
1413.000000	88.319160
1412.000000	88.220211
1411.000000	88.140391
1410.000000	88.064973
1409.000000	87.978073
1408.000000	87.887202
1407.000000	87.814153
1406.000000	87.772078
1405.000000	87.758454
1404.000000	87.758099
1403.000000	87.745277
1402.000000	87.704743
1401.000000	87.652299
1400.000000	87.623858
1399.000000	87.627627
1398.000000	87.622197
1397.000000	87.581296
1396.000000	87.539464
1395.000000	87.539872
1394.000000	87.565092
1393.000000	87.567567
1392.000000	87.541854
1391.000000	87.511503
1390.000000	87.492135
1389.000000	87.497914
1388.000000	87.553402
1387.000000	87.660859
1386.000000	87.773271
1385.000000	87.852247
1384.000000	87.915300
1383.000000	87.994957
1382.000000	88.095001
1381.000000	88.202477
1380.000000	88.318442
1379.000000	88.449455
1378.000000	88.582581
1377.000000	88.704415
1376.000000	88.834240
1375.000000	89.007004
1374.000000	89.217480
1373.000000	89.416799
1372.000000	89.578428
1371.000000	89.721514
1370.000000	89.871537
1369.000000	90.035119
1368.000000	90.202891
1367.000000	90.358516
1366.000000	90.494640
1365.000000	90.628118
1364.000000	90.793704
1363.000000	91.008290
1362.000000	91.240298
1361.000000	91.444629
1360.000000	91.615680
1359.000000	91.773085
1358.000000	91.927402
1357.000000	92.080771
1356.000000	92.237729
1355.000000	92.398634
1354.000000	92.552791
1353.000000	92.692581
1352.000000	92.824128
1351.000000	92.955151
1350.000000	93.082845
1349.000000	93.201086
1348.000000	93.311918
1347.000000	93.419428
1346.000000	93.521341
1345.000000	93.614510
1344.000000	93.701029
1343.000000	93.783203
1342.000000	93.861690
1341.000000	93.942366
1340.000000	94.034469
1339.000000	94.133258
1338.000000	94.218291
1337.000000	94.280678
1336.000000	94.333085
1335.000000	94.388492
1334.000000	94.447156
1333.000000	94.506213
1332.000000	94.568678
1331.000000	94.636757
1330.000000	94.705758
1329.000000	94.771275
1328.000000	94.834654
1327.000000	94.896647
1326.000000	94.953576
1325.000000	95.004060
1324.000000	95.052597
1323.000000	95.101501
1322.000000	95.147820
1321.000000	95.191848
1320.000000	95.240043
1319.000000	95.294557
1318.000000	95.347766
1317.000000	95.393060
1316.000000	95.432713
1315.000000	95.471021
1314.000000	95.508605
1313.000000	95.547015
1312.000000	95.590211
1311.000000	95.637687
1310.000000	95.683581
1309.000000	95.725759
1308.000000	95.768443
1307.000000	95.813903
1306.000000	95.858498
1305.000000	95.898986
1304.000000	95.936518
1303.000000	95.971648
1302.000000	96.002847
1301.000000	96.031988
1300.000000	96.064670
1299.000000	96.102821
1298.000000	96.142799
1297.000000	96.181555
1296.000000	96.218411
1295.000000	96.250820
1294.000000	96.275850
1293.000000	96.296357
1292.000000	96.318157
1291.000000	96.340638
1290.000000	96.357667
1289.000000	96.368612
1288.000000	96.380163
1287.000000	96.395967
1286.000000	96.412442
1285.000000	96.426753
1284.000000	96.441178
1283.000000	96.457206
1282.000000	96.472348
1281.000000	96.484889
1280.000000	96.496336
1279.000000	96.508121
1278.000000	96.521118
1277.000000	96.538242
1276.000000	96.561139
1275.000000	96.584758
1274.000000	96.602158
1273.000000	96.614617
1272.000000	96.629723
1271.000000	96.649054
1270.000000	96.665770
1269.000000	96.675507
1268.000000	96.681383
1267.000000	96.686689
1266.000000	96.690841
1265.000000	96.694965
1264.000000	96.703716
1263.000000	96.718156
1262.000000	96.732834
1261.000000	96.742770
1260.000000	96.748067
1259.000000	96.750082
1258.000000	96.748755
1257.000000	96.745452
1256.000000	96.742997
1255.000000	96.741614
1254.000000	96.739518
1253.000000	96.737722
1252.000000	96.739057
1251.000000	96.742461
1250.000000	96.743582
1249.000000	96.741148
1248.000000	96.737490
1247.000000	96.733004
1246.000000	96.726161
1245.000000	96.719015
1244.000000	96.716037
1243.000000	96.716711
1242.000000	96.715665
1241.000000	96.711059
1240.000000	96.706405
1239.000000	96.703257
1238.000000	96.698663
1237.000000	96.691465
1236.000000	96.684949
1235.000000	96.681479
1234.000000	96.680275
1233.000000	96.681979
1232.000000	96.689651
1231.000000	96.703043
1230.000000	96.717436
1229.000000	96.730596
1228.000000	96.745581
1227.000000	96.764780
1226.000000	96.786262
1225.000000	96.808095
1224.000000	96.831439
1223.000000	96.856807
1222.000000	96.881834
1221.000000	96.904982
1220.000000	96.927737
1219.000000	96.951530
1218.000000	96.975882
1217.000000	97.000635
1216.000000	97.026254
1215.000000	97.051165
1214.000000	97.072541
1213.000000	97.090392
1212.000000	97.107022
1211.000000	97.122120
1210.000000	97.132496
1209.000000	97.136587
1208.000000	97.135460
1207.000000	97.129664
1206.000000	97.119558
1205.000000	97.108623
1204.000000	97.101746
1203.000000	97.099999
1202.000000	97.100786
1201.000000	97.102777
1200.000000	97.106628
1199.000000	97.111376
1198.000000	97.114661
1197.000000	97.116580
1196.000000	97.119107
1195.000000	97.122039
1194.000000	97.123800
1193.000000	97.125334
1192.000000	97.128555
1191.000000	97.131726
1190.000000	97.131612
1189.000000	97.129593
1188.000000	97.130035
1187.000000	97.132560
1186.000000	97.131343
1185.000000	97.122812
1184.000000	97.108952
1183.000000	97.092966
1182.000000	97.077070
1181.000000	97.064765
1180.000000	97.059415
1179.000000	97.058941
1178.000000	97.057013
1177.000000	97.051041
1176.000000	97.044475
1175.000000	97.040258
1174.000000	97.036656
1173.000000	97.031051
1172.000000	97.024230
1171.000000	97.019470
1170.000000	97.019881
1169.000000	97.027018
1168.000000	97.039166
1167.000000	97.051145
1166.000000	97.059380
1165.000000	97.066698
1164.000000	97.078389
1163.000000	97.094140
1162.000000	97.108149
1161.000000	97.117084
1160.000000	97.123590
1159.000000	97.132198
1158.000000	97.145808
1157.000000	97.165500
1156.000000	97.189341
1155.000000	97.211559
1154.000000	97.227545
1153.000000	97.239799
1152.000000	97.254979
1151.000000	97.276118
1150.000000	97.302045
1149.000000	97.332798
1148.000000	97.369560
1147.000000	97.409449
1146.000000	97.446478
1145.000000	97.478352
1144.000000	97.507443
1143.000000	97.535113
1142.000000	97.560158
1141.000000	97.582903
1140.000000	97.605691
1139.000000	97.628896
1138.000000	97.650554
1137.000000	97.670057
1136.000000	97.688337
1135.000000	97.705313
1134.000000	97.721176
1133.000000	97.738502
1132.000000	97.758457
1131.000000	97.776242
1130.000000	97.785505
1129.000000	97.786445
1128.000000	97.784804
1127.000000	97.784583
1126.000000	97.786697
1125.000000	97.792496
1124.000000	97.802429
1123.000000	97.812358
1122.000000	97.817537
1121.000000	97.819504
1120.000000	97.823027
1119.000000	97.827271
1118.000000	97.826352
1117.000000	97.818432
1116.000000	97.808007
1115.000000	97.799311
1114.000000	97.793287
1113.000000	97.790848
1112.000000	97.793106
1111.000000	97.798140
1110.000000	97.802948
1109.000000	97.808377
1108.000000	97.816886
1107.000000	97.826095
1106.000000	97.831086
1105.000000	97.832363
1104.000000	97.834531
1103.000000	97.837154
1102.000000	97.834110
1101.000000	97.823554
1100.000000	97.811754
1099.000000	97.804969
1098.000000	97.803274
1097.000000	97.802870
1096.000000	97.800164
1095.000000	97.792490
1094.000000	97.779915
1093.000000	97.766870
1092.000000	97.757442
1091.000000	97.749097
1090.000000	97.735488
1089.000000	97.714950
1088.000000	97.691002
1087.000000	97.665691
1086.000000	97.639171
1085.000000	97.615752
1084.000000	97.602821
1083.000000	97.601188
1082.000000	97.602109
1081.000000	97.596625
1080.000000	97.584309
1079.000000	97.571566
1078.000000	97.565575
1077.000000	97.570975
1076.000000	97.587496
1075.000000	97.609152
1074.000000	97.629244
1073.000000	97.646839
1072.000000	97.664921
1071.000000	97.682994
1070.000000	97.696798
1069.000000	97.705118
1068.000000	97.711157
1067.000000	97.716663
1066.000000	97.720175
1065.000000	97.721933
1064.000000	97.725247
1063.000000	97.731447
1062.000000	97.737639
1061.000000	97.740836
1060.000000	97.740959
1059.000000	97.739474
1058.000000	97.738723
1057.000000	97.742325
1056.000000	97.751824
1055.000000	97.762761
1054.000000	97.768452
1053.000000	97.768227
1052.000000	97.768365
1051.000000	97.774589
1050.000000	97.787173
1049.000000	97.803056
1048.000000	97.818395
1047.000000	97.829391
1046.000000	97.835024
1045.000000	97.838566
1044.000000	97.842797
1043.000000	97.845217
1042.000000	97.841840
1041.000000	97.834336
1040.000000	97.828798
1039.000000	97.828753
1038.000000	97.833433
1037.000000	97.840703
1036.000000	97.846735
1035.000000	97.845266
1034.000000	97.833919
1033.000000	97.820172
1032.000000	97.814559
1031.000000	97.818437
1030.000000	97.824674
1029.000000	97.829355
1028.000000	97.835518
1027.000000	97.845040
1026.000000	97.854684
1025.000000	97.862270
1024.000000	97.870477
1023.000000	97.881967
1022.000000	97.895587
1021.000000	97.909301
1020.000000	97.922393
1019.000000	97.933308
1018.000000	97.939641
1017.000000	97.941550
1016.000000	97.941351
1015.000000	97.939534
1014.000000	97.935623
1013.000000	97.933163
1012.000000	97.938525
1011.000000	97.953404
1010.000000	97.972689
1009.000000	97.991020
1008.000000	98.007704
1007.000000	98.024135
1006.000000	98.040519
1005.000000	98.056438
1004.000000	98.071901
1003.000000	98.087373
1002.000000	98.105123
1001.000000	98.129117
1000.000000	98.159549
999.000000	98.188705
998.000000	98.207823
997.000000	98.217966
996.000000	98.228837
995.000000	98.246543
994.000000	98.267627
993.000000	98.286268
992.000000	98.301806
991.000000	98.316845
990.000000	98.332420
989.000000	98.347958
988.000000	98.363679
987.000000	98.380807
986.000000	98.400434
985.000000	98.422472
984.000000	98.444283
983.000000	98.461367
982.000000	98.471901
981.000000	98.479587
980.000000	98.489152
979.000000	98.500111
978.000000	98.508145
977.000000	98.511380
976.000000	98.512062
975.000000	98.513499
974.000000	98.518833
973.000000	98.530705
972.000000	98.547422
971.000000	98.560758
970.000000	98.563196
969.000000	98.557419
968.000000	98.554340
967.000000	98.562132
966.000000	98.581061
965.000000	98.607692
964.000000	98.638353
963.000000	98.668154
962.000000	98.692340
961.000000	98.710641
960.000000	98.726858
959.000000	98.743927
958.000000	98.762944
957.000000	98.785863
956.000000	98.813904
955.000000	98.843101
954.000000	98.866734
953.000000	98.883029
952.000000	98.896341
951.000000	98.910299
950.000000	98.924447
949.000000	98.938124
948.000000	98.952441
947.000000	98.966826
946.000000	98.977690
945.000000	98.982604
944.000000	98.983226
943.000000	98.983548
942.000000	98.987721
941.000000	98.998950
940.000000	99.016882
939.000000	99.035971
938.000000	99.050043
937.000000	99.059050
936.000000	99.068272
935.000000	99.081421
934.000000	99.097789
933.000000	99.115125
932.000000	99.131309
931.000000	99.143734
930.000000	99.151467
929.000000	99.158054
928.000000	99.168398
927.000000	99.182906
926.000000	99.198135
925.000000	99.211911
924.000000	99.223779
923.000000	99.231781
922.000000	99.234067
921.000000	99.233460
920.000000	99.235944
919.000000	99.244767
918.000000	99.259570
917.000000	99.279551
916.000000	99.302211
915.000000	99.320726
914.000000	99.329396
913.000000	99.331910
912.000000	99.337914
911.000000	99.351311
910.000000	99.367640
909.000000	99.382841
908.000000	99.397765
907.000000	99.413030
906.000000	99.426649
905.000000	99.438707
904.000000	99.452381
903.000000	99.468336
902.000000	99.483719
901.000000	99.498094
900.000000	99.514557
899.000000	99.533405
898.000000	99.550897
897.000000	99.565793
896.000000	99.580919
895.000000	99.596636
894.000000	99.609932
893.000000	99.622658
892.000000	99.642853
891.000000	99.673717
890.000000	99.706724
889.000000	99.729075
888.000000	99.731651
887.000000	99.703932
886.000000	99.628045
885.000000	99.482141
884.000000	99.245546
883.000000	98.899486
882.000000	98.424954
881.000000	97.805767
880.000000	97.028350
879.000000	96.081154
878.000000	94.966590
877.000000	93.711186
876.000000	92.355461
875.000000	90.938545
874.000000	89.543776
873.000000	88.393992
872.000000	87.868833
871.000000	88.305544
870.000000	89.700439
869.000000	91.636507
868.000000	93.542552
867.000000	95.038796
866.000000	96.064067
865.000000	96.745797
864.000000	97.219895
863.000000	97.566270
862.000000	97.832079
861.000000	98.049817
860.000000	98.232598
859.000000	98.379322
858.000000	98.494320
857.000000	98.588791
856.000000	98.667392
855.000000	98.728156
854.000000	98.774548
853.000000	98.814237
852.000000	98.842162
851.000000	98.839393
850.000000	98.798900
849.000000	98.746173
848.000000	98.725381
847.000000	98.763343
846.000000	98.849138
845.000000	98.947877
844.000000	99.030355
843.000000	99.089598
842.000000	99.133843
841.000000	99.169900
840.000000	99.197098
839.000000	99.214487
838.000000	99.227436
837.000000	99.244061
836.000000	99.268363
835.000000	99.299286
834.000000	99.332686
833.000000	99.361814
832.000000	99.380437
831.000000	99.389996
830.000000	99.400255
829.000000	99.417683
828.000000	99.436220
827.000000	99.445942
826.000000	99.447696
825.000000	99.451092
824.000000	99.459693
823.000000	99.467393
822.000000	99.469986
821.000000	99.471424
820.000000	99.477045
819.000000	99.487901
818.000000	99.502941
817.000000	99.520173
816.000000	99.534373
815.000000	99.540383
814.000000	99.541220
813.000000	99.546685
812.000000	99.560552
811.000000	99.574093
810.000000	99.575873
809.000000	99.564920
808.000000	99.551685
807.000000	99.548642
806.000000	99.560974
805.000000	99.582554
804.000000	99.599653
803.000000	99.602272
802.000000	99.593236
801.000000	99.583390
800.000000	99.578116
799.000000	99.573395
798.000000	99.565164
797.000000	99.555964
796.000000	99.549946
795.000000	99.547062
794.000000	99.545134
793.000000	99.543208
792.000000	99.540556
791.000000	99.536925
790.000000	99.536312
789.000000	99.545479
788.000000	99.564517
787.000000	99.582356
786.000000	99.585971
785.000000	99.572907
784.000000	99.552363
783.000000	99.535967
782.000000	99.529717
781.000000	99.532955
780.000000	99.541945
779.000000	99.553604
778.000000	99.565853
777.000000	99.574906
776.000000	99.575184
775.000000	99.565153
774.000000	99.551852
773.000000	99.545603
772.000000	99.550340
771.000000	99.561640
770.000000	99.572272
769.000000	99.575931
768.000000	99.568376
767.000000	99.551945
766.000000	99.538395
765.000000	99.539675
764.000000	99.554501
763.000000	99.570065
762.000000	99.577937
761.000000	99.581709
760.000000	99.587760
759.000000	99.596257
758.000000	99.604587
757.000000	99.612508
756.000000	99.619409
755.000000	99.622571
754.000000	99.623161
753.000000	99.628820
752.000000	99.644427
751.000000	99.663452
750.000000	99.673180
749.000000	99.666889
748.000000	99.648183
747.000000	99.626225
746.000000	99.610152
745.000000	99.605402
744.000000	99.611323
743.000000	99.622866
742.000000	99.635650
741.000000	99.647485
740.000000	99.655737
739.000000	99.657845
738.000000	99.655116
737.000000	99.650950
736.000000	99.644002
735.000000	99.628606
734.000000	99.604691
733.000000	99.581498
732.000000	99.567412
731.000000	99.560263
730.000000	99.551393
729.000000	99.535499
728.000000	99.514964
727.000000	99.495655
726.000000	99.477958
725.000000	99.453642
724.000000	99.413450
723.000000	99.357378
722.000000	99.293323
721.000000	99.223577
720.000000	99.136346
719.000000	99.012147
718.000000	98.830593
717.000000	98.565792
716.000000	98.192827
715.000000	97.729083
714.000000	97.275188
713.000000	96.986047
712.000000	96.970277
711.000000	97.208783
710.000000	97.576653
709.000000	97.939722
708.000000	98.229394
707.000000	98.444674
706.000000	98.606340
705.000000	98.725751
704.000000	98.809616
703.000000	98.871665
702.000000	98.928259
701.000000	98.984337
700.000000	99.030374
699.000000	99.058531
698.000000	99.074154
697.000000	99.089528
696.000000	99.112961
695.000000	99.145803
694.000000	99.188207
693.000000	99.237988
692.000000	99.285513
691.000000	99.323045
690.000000	99.352507
689.000000	99.376761
688.000000	99.388229
687.000000	99.377521
686.000000	99.354245
685.000000	99.339769
684.000000	99.338297
683.000000	99.335009
682.000000	99.322742
681.000000	99.310615
680.000000	99.302684
679.000000	99.291102
678.000000	99.276250
677.000000	99.268582
676.000000	99.272537
675.000000	99.281763
674.000000	99.291312
673.000000	99.302780
672.000000	99.318617
671.000000	99.346794
670.000000	99.403972
669.000000	99.497905
668.000000	99.565052
667.000000	99.526608
666.000000	99.434009
665.000000	99.337194
664.000000	99.259233
663.000000	99.215016
662.000000	99.201532
661.000000	99.207338
660.000000	99.222860
659.000000	99.243292
658.000000	99.261394
657.000000	99.264862
656.000000	99.252859
655.000000	99.241216
654.000000	99.241576
653.000000	99.248715
652.000000	99.255826
651.000000	99.264196
650.000000	99.274265
649.000000	99.279601
648.000000	99.277694
647.000000	99.273508
646.000000	99.266350
645.000000	99.249458
644.000000	99.223699
643.000000	99.200587
642.000000	99.191965
641.000000	99.200413
640.000000	99.221396
639.000000	99.247942
638.000000	99.270105
637.000000	99.280011
636.000000	99.280577
635.000000	99.279322
634.000000	99.275964
633.000000	99.264975
632.000000	99.247345
631.000000	99.230897
630.000000	99.219138
629.000000	99.208563
628.000000	99.199199
627.000000	99.198449
626.000000	99.209542
625.000000	99.226602
624.000000	99.240721
623.000000	99.243847
622.000000	99.229301
621.000000	99.197767
620.000000	99.162777
619.000000	99.141261
618.000000	99.137253
617.000000	99.141047
616.000000	99.144457
615.000000	99.147360
614.000000	99.148335
613.000000	99.141764
612.000000	99.129831
611.000000	99.126495
610.000000	99.140649
609.000000	99.161622
608.000000	99.171163
607.000000	99.166957
606.000000	99.163368
605.000000	99.171992
604.000000	99.187627
603.000000	99.195460
602.000000	99.189648
601.000000	99.179921
600.000000	99.179517
599.000000	99.190160
598.000000	99.199355
597.000000	99.192339
596.000000	99.165764
595.000000	99.131319
594.000000	99.108103
593.000000	99.109104
592.000000	99.131690
591.000000	99.159650
590.000000	99.177337
589.000000	99.183080
588.000000	99.186752
587.000000	99.194261
586.000000	99.197504
585.000000	99.182844
584.000000	99.149456
583.000000	99.116171
582.000000	99.107441
581.000000	99.132356
580.000000	99.176128
579.000000	99.212226
578.000000	99.223138
577.000000	99.211059
576.000000	99.190984
575.000000	99.175035
574.000000	99.163613
573.000000	99.151177
572.000000	99.135834
571.000000	99.119279
570.000000	99.102158
569.000000	99.084982
568.000000	99.073031
567.000000	99.072398
566.000000	99.079783
565.000000	99.082711
564.000000	99.072193
563.000000	99.051520
562.000000	99.031482
561.000000	99.021860
560.000000	99.027775
559.000000	99.046244
558.000000	99.061759
557.000000	99.053916
556.000000	99.017159
555.000000	98.971256
554.000000	98.944715
553.000000	98.945549
552.000000	98.956257
551.000000	98.958477
550.000000	98.955375
549.000000	98.964907
548.000000	98.995271
547.000000	99.034123
546.000000	99.061444
545.000000	99.068029
544.000000	99.058476
543.000000	99.040835
542.000000	99.020853
541.000000	99.003185
540.000000	98.989331
539.000000	98.973367
538.000000	98.946561
537.000000	98.910254
536.000000	98.880382
535.000000	98.876137
534.000000	98.904879
533.000000	98.956566
532.000000	99.006360
531.000000	99.024541
530.000000	98.997238
529.000000	98.942656
528.000000	98.896479
527.000000	98.879561
526.000000	98.884021
525.000000	98.894179
524.000000	98.909802
523.000000	98.933418
522.000000	98.951675
521.000000	98.951343
520.000000	98.945075
519.000000	98.960660
518.000000	99.002756
517.000000	99.045824
516.000000	99.071253
515.000000	99.082566
514.000000	99.081461
513.000000	99.060177
512.000000	99.025527
511.000000	99.005945
510.000000	99.017918
509.000000	99.042781
508.000000	99.053500
507.000000	99.053400
506.000000	99.065786
505.000000	99.091954
504.000000	99.108173
503.000000	99.103240
502.000000	99.099323
501.000000	99.121990
500.000000	99.160809
499.000000	99.183864
498.000000	99.179984
497.000000	99.172096
496.000000	99.188038
495.000000	99.223046
494.000000	99.241630
493.000000	99.216584
492.000000	99.158381
491.000000	99.101129
490.000000	99.067595
489.000000	99.061998
488.000000	99.083809
487.000000	99.125864
486.000000	99.162801
485.000000	99.166312
484.000000	99.143265
483.000000	99.136950
482.000000	99.171527
481.000000	99.215929
480.000000	99.218952
479.000000	99.163910
478.000000	99.081205
477.000000	99.019379
476.000000	99.008494
475.000000	99.044858
474.000000	99.096712
473.000000	99.126291
472.000000	99.122517
471.000000	99.111347
470.000000	99.120246
469.000000	99.154023
468.000000	99.206828
467.000000	99.264510
466.000000	99.296099
465.000000	99.274020
464.000000	99.209946
463.000000	99.152841
462.000000	99.140932
461.000000	99.164101
460.000000	99.193608
459.000000	99.228572
458.000000	99.284043
457.000000	99.348365
456.000000	99.398233
455.000000	99.444573
454.000000	99.514098
453.000000	99.603608
452.000000	99.670359
451.000000	99.676023
450.000000	99.637716
