PE IR       SUBTECH     SPECTRUM    ASCII       PEDS        4.00        
   -1
AG10-C013_1.ASC
23/09/08
10:32:31.00
23/09/08
11:14:38.00
uco
Sample 013 By uco Date Friday, September 08 2023
450.000000
#HDR
-1
-1
#GR
cm-1
%T
1.0
0.0
4000.000000
-1.000000
3551
8
99.866586
95.690188
#DATA
4000.000000	99.800262
3999.000000	99.803449
3998.000000	99.805478
3997.000000	99.805186
3996.000000	99.803237
3995.000000	99.804989
3994.000000	99.803790
3993.000000	99.803628
3992.000000	99.803571
3991.000000	99.802598
3990.000000	99.800660
3989.000000	99.798802
3988.000000	99.798232
3987.000000	99.799405
3986.000000	99.801842
3985.000000	99.804493
3984.000000	99.806093
3983.000000	99.805510
3982.000000	99.802354
3981.000000	99.797585
3980.000000	99.793348
3979.000000	99.791704
3978.000000	99.793249
3977.000000	99.796890
3976.000000	99.800859
3975.000000	99.803735
3974.000000	99.804685
3973.000000	99.803311
3972.000000	99.799688
3971.000000	99.794559
3970.000000	99.789034
3969.000000	99.784081
3968.000000	99.780263
3967.000000	99.777954
3966.000000	99.777427
3965.000000	99.778280
3964.000000	99.779061
3963.000000	99.778119
3962.000000	99.775239
3961.000000	99.772276
3960.000000	99.771574
3959.000000	99.773928
3958.000000	99.778085
3957.000000	99.781870
3956.000000	99.783445
3955.000000	99.781928
3954.000000	99.777904
3953.000000	99.773343
3952.000000	99.770634
3951.000000	99.771218
3950.000000	99.774710
3949.000000	99.779253
3948.000000	99.783040
3947.000000	99.785923
3946.000000	99.789454
3945.000000	99.794619
3944.000000	99.799816
3943.000000	99.801676
3942.000000	99.797865
3941.000000	99.789178
3940.000000	99.778908
3939.000000	99.770715
3938.000000	99.766851
3937.000000	99.767769
3936.000000	99.771851
3935.000000	99.775454
3934.000000	99.774889
3933.000000	99.769424
3932.000000	99.762377
3931.000000	99.758057
3930.000000	99.757744
3929.000000	99.759820
3928.000000	99.762467
3927.000000	99.764661
3926.000000	99.765590
3925.000000	99.765323
3924.000000	99.765550
3923.000000	99.767516
3922.000000	99.770036
3921.000000	99.770893
3920.000000	99.769818
3919.000000	99.768896
3918.000000	99.769581
3917.000000	99.770796
3916.000000	99.770609
3915.000000	99.768782
3914.000000	99.766265
3913.000000	99.764276
3912.000000	99.763835
3911.000000	99.765593
3910.000000	99.768709
3909.000000	99.771625
3908.000000	99.773585
3907.000000	99.774367
3906.000000	99.772771
3905.000000	99.766813
3904.000000	99.757639
3903.000000	99.750831
3902.000000	99.751287
3901.000000	99.757983
3900.000000	99.765190
3899.000000	99.768448
3898.000000	99.767678
3897.000000	99.764787
3896.000000	99.760594
3895.000000	99.755731
3894.000000	99.751302
3893.000000	99.748750
3892.000000	99.748148
3891.000000	99.748724
3890.000000	99.750648
3889.000000	99.755840
3888.000000	99.763993
3887.000000	99.769402
3886.000000	99.767446
3885.000000	99.761961
3884.000000	99.760240
3883.000000	99.764320
3882.000000	99.769588
3881.000000	99.770880
3880.000000	99.768388
3879.000000	99.766129
3878.000000	99.767367
3877.000000	99.772281
3876.000000	99.777381
3875.000000	99.779220
3874.000000	99.780134
3873.000000	99.786740
3872.000000	99.800218
3871.000000	99.811297
3870.000000	99.810271
3869.000000	99.800549
3868.000000	99.793464
3867.000000	99.792975
3866.000000	99.791770
3865.000000	99.783048
3864.000000	99.770446
3863.000000	99.762228
3862.000000	99.760688
3861.000000	99.763274
3860.000000	99.766845
3859.000000	99.769545
3858.000000	99.771446
3857.000000	99.774320
3856.000000	99.779146
3855.000000	99.781805
3854.000000	99.778797
3853.000000	99.777114
3852.000000	99.779167
3851.000000	99.780367
3850.000000	99.778466
3849.000000	99.773721
3848.000000	99.768407
3847.000000	99.765882
3846.000000	99.767370
3845.000000	99.771605
3844.000000	99.775527
3843.000000	99.777046
3842.000000	99.777491
3841.000000	99.780380
3840.000000	99.786103
3839.000000	99.791784
3838.000000	99.795114
3837.000000	99.796352
3836.000000	99.797683
3835.000000	99.800735
3834.000000	99.804919
3833.000000	99.807704
3832.000000	99.807204
3831.000000	99.804491
3830.000000	99.802359
3829.000000	99.802247
3828.000000	99.802112
3827.000000	99.798119
3826.000000	99.789370
3825.000000	99.780565
3824.000000	99.776830
3823.000000	99.777250
3822.000000	99.775966
3821.000000	99.771786
3820.000000	99.769430
3819.000000	99.771665
3818.000000	99.776003
3817.000000	99.774110
3816.000000	99.763064
3815.000000	99.752167
3814.000000	99.750536
3813.000000	99.756840
3812.000000	99.764152
3811.000000	99.769329
3810.000000	99.774281
3809.000000	99.779468
3808.000000	99.779972
3807.000000	99.773362
3806.000000	99.766828
3805.000000	99.770536
3804.000000	99.786180
3803.000000	99.803801
3802.000000	99.810306
3801.000000	99.805747
3800.000000	99.801220
3799.000000	99.803360
3798.000000	99.808200
3797.000000	99.807070
3796.000000	99.797091
3795.000000	99.783583
3794.000000	99.773243
3793.000000	99.768212
3792.000000	99.767446
3791.000000	99.769418
3790.000000	99.771989
3789.000000	99.772310
3788.000000	99.769165
3787.000000	99.764647
3786.000000	99.762682
3785.000000	99.765905
3784.000000	99.773732
3783.000000	99.783067
3782.000000	99.789233
3781.000000	99.787398
3780.000000	99.776411
3779.000000	99.762840
3778.000000	99.756075
3777.000000	99.759594
3776.000000	99.768611
3775.000000	99.775575
3774.000000	99.776914
3773.000000	99.774690
3772.000000	99.772300
3771.000000	99.771283
3770.000000	99.772660
3769.000000	99.777090
3768.000000	99.783271
3767.000000	99.788365
3766.000000	99.789939
3765.000000	99.788303
3764.000000	99.786756
3763.000000	99.788204
3762.000000	99.791223
3761.000000	99.791857
3760.000000	99.788487
3759.000000	99.782758
3758.000000	99.775185
3757.000000	99.766535
3756.000000	99.761119
3755.000000	99.762948
3754.000000	99.769820
3753.000000	99.773816
3752.000000	99.769803
3751.000000	99.761744
3750.000000	99.755790
3749.000000	99.753125
3748.000000	99.755397
3747.000000	99.764397
3746.000000	99.773474
3745.000000	99.771687
3744.000000	99.763139
3743.000000	99.761038
3742.000000	99.768539
3741.000000	99.779837
3740.000000	99.789445
3739.000000	99.796369
3738.000000	99.799577
3737.000000	99.794459
3736.000000	99.782220
3735.000000	99.773664
3734.000000	99.774391
3733.000000	99.776384
3732.000000	99.770873
3731.000000	99.759803
3730.000000	99.751622
3729.000000	99.751238
3728.000000	99.756256
3727.000000	99.761735
3726.000000	99.766836
3725.000000	99.773693
3724.000000	99.781961
3723.000000	99.788584
3722.000000	99.791471
3721.000000	99.791587
3720.000000	99.790426
3719.000000	99.786904
3718.000000	99.777821
3717.000000	99.763311
3716.000000	99.749897
3715.000000	99.745045
3714.000000	99.749561
3713.000000	99.757366
3712.000000	99.762006
3711.000000	99.763194
3710.000000	99.764461
3709.000000	99.768229
3708.000000	99.773886
3707.000000	99.779004
3706.000000	99.782895
3705.000000	99.786763
3704.000000	99.792046
3703.000000	99.798183
3702.000000	99.803160
3701.000000	99.804989
3700.000000	99.803913
3699.000000	99.801943
3698.000000	99.799937
3697.000000	99.796933
3696.000000	99.792556
3695.000000	99.787132
3694.000000	99.779620
3693.000000	99.770135
3692.000000	99.762389
3691.000000	99.762255
3690.000000	99.770222
3689.000000	99.779193
3688.000000	99.782485
3687.000000	99.782169
3686.000000	99.784625
3685.000000	99.790411
3684.000000	99.795319
3683.000000	99.796509
3682.000000	99.794871
3681.000000	99.790897
3680.000000	99.785027
3679.000000	99.781000
3678.000000	99.783916
3677.000000	99.792644
3676.000000	99.801157
3675.000000	99.807622
3674.000000	99.812101
3673.000000	99.815673
3672.000000	99.815786
3671.000000	99.806146
3670.000000	99.789511
3669.000000	99.778587
3668.000000	99.778583
3667.000000	99.785051
3666.000000	99.791858
3665.000000	99.795020
3664.000000	99.793695
3663.000000	99.789372
3662.000000	99.783949
3661.000000	99.779151
3660.000000	99.777765
3659.000000	99.782035
3658.000000	99.790083
3657.000000	99.794684
3656.000000	99.790493
3655.000000	99.781006
3654.000000	99.775120
3653.000000	99.777771
3652.000000	99.785915
3651.000000	99.793669
3650.000000	99.800060
3649.000000	99.806533
3648.000000	99.808349
3647.000000	99.801198
3646.000000	99.788530
3645.000000	99.776385
3644.000000	99.767207
3643.000000	99.760363
3642.000000	99.755499
3641.000000	99.753740
3640.000000	99.755226
3639.000000	99.757239
3638.000000	99.757387
3637.000000	99.756635
3636.000000	99.757210
3635.000000	99.758188
3634.000000	99.756641
3633.000000	99.752931
3632.000000	99.751336
3631.000000	99.754374
3630.000000	99.758864
3629.000000	99.761956
3628.000000	99.763482
3627.000000	99.762906
3626.000000	99.762037
3625.000000	99.762572
3624.000000	99.765156
3623.000000	99.770642
3622.000000	99.778474
3621.000000	99.784700
3620.000000	99.784797
3619.000000	99.778782
3618.000000	99.770952
3617.000000	99.765471
3616.000000	99.764195
3615.000000	99.765909
3614.000000	99.768093
3613.000000	99.769570
3612.000000	99.770347
3611.000000	99.769825
3610.000000	99.766008
3609.000000	99.758417
3608.000000	99.750655
3607.000000	99.746434
3606.000000	99.745164
3605.000000	99.743719
3604.000000	99.741131
3603.000000	99.739245
3602.000000	99.740580
3601.000000	99.745133
3600.000000	99.750365
3599.000000	99.753468
3598.000000	99.753266
3597.000000	99.750471
3596.000000	99.746894
3595.000000	99.744779
3594.000000	99.746130
3593.000000	99.751595
3592.000000	99.759051
3591.000000	99.764901
3590.000000	99.765228
3589.000000	99.758427
3588.000000	99.748762
3587.000000	99.744043
3586.000000	99.746199
3585.000000	99.750413
3584.000000	99.752061
3583.000000	99.749064
3582.000000	99.741769
3581.000000	99.732386
3580.000000	99.724393
3579.000000	99.720854
3578.000000	99.721938
3577.000000	99.724659
3576.000000	99.724992
3575.000000	99.721704
3574.000000	99.717246
3573.000000	99.715756
3572.000000	99.719318
3571.000000	99.726933
3570.000000	99.735019
3569.000000	99.738629
3568.000000	99.734584
3567.000000	99.725005
3566.000000	99.714735
3565.000000	99.706658
3564.000000	99.701989
3563.000000	99.701417
3562.000000	99.704774
3561.000000	99.710708
3560.000000	99.716841
3559.000000	99.721106
3558.000000	99.722726
3557.000000	99.721749
3556.000000	99.717948
3555.000000	99.711058
3554.000000	99.702125
3553.000000	99.694292
3552.000000	99.690639
3551.000000	99.690567
3550.000000	99.689842
3549.000000	99.684700
3548.000000	99.675593
3547.000000	99.667462
3546.000000	99.665523
3545.000000	99.670056
3544.000000	99.676453
3543.000000	99.680024
3542.000000	99.679225
3541.000000	99.675530
3540.000000	99.671698
3539.000000	99.669783
3538.000000	99.669813
3537.000000	99.669926
3536.000000	99.668200
3535.000000	99.664202
3534.000000	99.659296
3533.000000	99.655622
3532.000000	99.654819
3531.000000	99.656853
3530.000000	99.659554
3529.000000	99.659910
3528.000000	99.656656
3527.000000	99.651507
3526.000000	99.647506
3525.000000	99.646582
3524.000000	99.648583
3523.000000	99.651622
3522.000000	99.653123
3521.000000	99.651516
3520.000000	99.647415
3519.000000	99.642701
3518.000000	99.638517
3517.000000	99.634191
3516.000000	99.628298
3515.000000	99.620405
3514.000000	99.611781
3513.000000	99.604717
3512.000000	99.601576
3511.000000	99.603998
3510.000000	99.611872
3509.000000	99.622333
3508.000000	99.630634
3507.000000	99.632798
3506.000000	99.627801
3505.000000	99.617972
3504.000000	99.608345
3503.000000	99.603953
3502.000000	99.605787
3501.000000	99.609877
3500.000000	99.611219
3499.000000	99.608334
3498.000000	99.604041
3497.000000	99.602497
3496.000000	99.604992
3495.000000	99.608615
3494.000000	99.609257
3493.000000	99.605756
3492.000000	99.600470
3491.000000	99.596032
3490.000000	99.592528
3489.000000	99.588358
3488.000000	99.583308
3487.000000	99.579337
3486.000000	99.577882
3485.000000	99.577636
3484.000000	99.576246
3483.000000	99.573770
3482.000000	99.573287
3481.000000	99.577314
3480.000000	99.584462
3479.000000	99.590684
3478.000000	99.593430
3477.000000	99.593471
3476.000000	99.592812
3475.000000	99.591825
3474.000000	99.589249
3473.000000	99.584760
3472.000000	99.580161
3471.000000	99.577342
3470.000000	99.575912
3469.000000	99.573910
3468.000000	99.570529
3467.000000	99.567304
3466.000000	99.566441
3465.000000	99.568713
3464.000000	99.573210
3463.000000	99.578370
3462.000000	99.582872
3461.000000	99.586060
3460.000000	99.588084
3459.000000	99.589351
3458.000000	99.589514
3457.000000	99.587370
3456.000000	99.582326
3455.000000	99.575722
3454.000000	99.570204
3453.000000	99.567730
3452.000000	99.568498
3451.000000	99.571307
3450.000000	99.574227
3449.000000	99.575280
3448.000000	99.573563
3447.000000	99.569953
3446.000000	99.565857
3445.000000	99.561432
3444.000000	99.555936
3443.000000	99.549519
3442.000000	99.543666
3441.000000	99.539633
3440.000000	99.537335
3439.000000	99.536015
3438.000000	99.535251
3437.000000	99.534775
3436.000000	99.534143
3435.000000	99.533195
3434.000000	99.532450
3433.000000	99.532432
3432.000000	99.532972
3431.000000	99.533402
3430.000000	99.533021
3429.000000	99.531360
3428.000000	99.528483
3427.000000	99.525261
3426.000000	99.522733
3425.000000	99.520792
3424.000000	99.517965
3423.000000	99.512920
3422.000000	99.505954
3421.000000	99.498655
3420.000000	99.492271
3419.000000	99.486843
3418.000000	99.481878
3417.000000	99.477290
3416.000000	99.473497
3415.000000	99.470906
3414.000000	99.469438
3413.000000	99.468533
3412.000000	99.467632
3411.000000	99.466654
3410.000000	99.466044
3409.000000	99.466413
3408.000000	99.468057
3407.000000	99.470534
3406.000000	99.472563
3405.000000	99.472724
3404.000000	99.470837
3403.000000	99.468585
3402.000000	99.468205
3401.000000	99.470207
3400.000000	99.472656
3399.000000	99.473071
3398.000000	99.470969
3397.000000	99.468112
3396.000000	99.466171
3395.000000	99.464750
3394.000000	99.462138
3393.000000	99.457595
3392.000000	99.452239
3391.000000	99.447776
3390.000000	99.445052
3389.000000	99.443921
3388.000000	99.443618
3387.000000	99.442711
3386.000000	99.439484
3385.000000	99.433348
3384.000000	99.425710
3383.000000	99.418635
3382.000000	99.412818
3381.000000	99.407549
3380.000000	99.402515
3379.000000	99.398589
3378.000000	99.396501
3377.000000	99.395525
3376.000000	99.393981
3375.000000	99.390711
3374.000000	99.385661
3373.000000	99.379460
3372.000000	99.372970
3371.000000	99.367132
3370.000000	99.362702
3369.000000	99.359946
3368.000000	99.358630
3367.000000	99.358115
3366.000000	99.357181
3365.000000	99.354071
3364.000000	99.347485
3363.000000	99.338000
3362.000000	99.328323
3361.000000	99.321580
3360.000000	99.318877
3359.000000	99.318287
3358.000000	99.316364
3357.000000	99.310921
3356.000000	99.302556
3355.000000	99.293655
3354.000000	99.286090
3353.000000	99.280066
3352.000000	99.274809
3351.000000	99.269582
3350.000000	99.263890
3349.000000	99.257413
3348.000000	99.250329
3347.000000	99.243316
3346.000000	99.236621
3345.000000	99.229340
3344.000000	99.220328
3343.000000	99.209900
3342.000000	99.200031
3341.000000	99.192513
3340.000000	99.187294
3339.000000	99.182912
3338.000000	99.178265
3337.000000	99.173480
3336.000000	99.169088
3335.000000	99.164784
3334.000000	99.159448
3333.000000	99.152441
3332.000000	99.144633
3331.000000	99.137858
3330.000000	99.133268
3329.000000	99.130183
3328.000000	99.126575
3327.000000	99.120631
3326.000000	99.112118
3325.000000	99.102670
3324.000000	99.094944
3323.000000	99.091052
3322.000000	99.091193
3321.000000	99.093595
3320.000000	99.095838
3319.000000	99.096257
3318.000000	99.094220
3317.000000	99.089544
3316.000000	99.082314
3315.000000	99.073391
3314.000000	99.064517
3313.000000	99.057230
3312.000000	99.051589
3311.000000	99.046326
3310.000000	99.040540
3309.000000	99.035108
3308.000000	99.031915
3307.000000	99.031463
3306.000000	99.031592
3305.000000	99.029024
3304.000000	99.022309
3303.000000	99.013245
3302.000000	99.005529
3301.000000	99.002084
3300.000000	99.003286
3299.000000	99.006963
3298.000000	99.009897
3297.000000	99.010079
3296.000000	99.008297
3295.000000	99.007397
3294.000000	99.009444
3293.000000	99.013477
3292.000000	99.016307
3291.000000	99.015500
3290.000000	99.011380
3289.000000	99.006152
3288.000000	99.001535
3287.000000	98.997646
3286.000000	98.993984
3285.000000	98.990885
3284.000000	98.989402
3283.000000	98.989756
3282.000000	98.990570
3281.000000	98.990451
3280.000000	98.990109
3279.000000	98.991884
3278.000000	98.996846
3277.000000	99.002902
3276.000000	99.006395
3275.000000	99.005398
3274.000000	99.001009
3273.000000	98.995798
3272.000000	98.991636
3271.000000	98.988853
3270.000000	98.986762
3269.000000	98.984676
3268.000000	98.982697
3267.000000	98.981710
3266.000000	98.982640
3265.000000	98.985974
3264.000000	98.991940
3263.000000	99.000416
3262.000000	99.010051
3261.000000	99.018035
3260.000000	99.021752
3259.000000	99.020904
3258.000000	99.017460
3257.000000	99.013547
3256.000000	99.010193
3255.000000	99.008006
3254.000000	99.007950
3253.000000	99.010642
3252.000000	99.015550
3251.000000	99.021540
3250.000000	99.027921
3249.000000	99.034432
3248.000000	99.040570
3247.000000	99.045617
3246.000000	99.049209
3245.000000	99.051349
3244.000000	99.051813
3243.000000	99.049997
3242.000000	99.045652
3241.000000	99.039820
3240.000000	99.035022
3239.000000	99.034136
3238.000000	99.038278
3237.000000	99.045387
3236.000000	99.051465
3235.000000	99.053875
3234.000000	99.053131
3233.000000	99.051179
3232.000000	99.048805
3231.000000	99.045727
3230.000000	99.042742
3229.000000	99.042010
3228.000000	99.044614
3227.000000	99.048820
3226.000000	99.051738
3225.000000	99.052232
3224.000000	99.051595
3223.000000	99.051655
3222.000000	99.052855
3221.000000	99.054224
3220.000000	99.054680
3219.000000	99.054152
3218.000000	99.053571
3217.000000	99.053881
3216.000000	99.055213
3215.000000	99.057010
3214.000000	99.058659
3213.000000	99.059719
3212.000000	99.059847
3211.000000	99.059137
3210.000000	99.058559
3209.000000	99.059469
3208.000000	99.062435
3207.000000	99.066783
3206.000000	99.071291
3205.000000	99.074958
3204.000000	99.077269
3203.000000	99.078396
3202.000000	99.079183
3201.000000	99.080279
3200.000000	99.081175
3199.000000	99.080842
3198.000000	99.079513
3197.000000	99.078791
3196.000000	99.079512
3195.000000	99.080444
3194.000000	99.079980
3193.000000	99.078281
3192.000000	99.076888
3191.000000	99.076804
3190.000000	99.078042
3189.000000	99.080661
3188.000000	99.084853
3187.000000	99.089920
3186.000000	99.094288
3185.000000	99.096962
3184.000000	99.098350
3183.000000	99.099499
3182.000000	99.101205
3181.000000	99.103870
3180.000000	99.107372
3179.000000	99.110795
3178.000000	99.113099
3177.000000	99.114480
3176.000000	99.116313
3175.000000	99.119264
3174.000000	99.122282
3173.000000	99.124131
3172.000000	99.125157
3171.000000	99.126491
3170.000000	99.127932
3169.000000	99.128085
3168.000000	99.126856
3167.000000	99.126510
3166.000000	99.129267
3165.000000	99.134420
3164.000000	99.139044
3163.000000	99.141509
3162.000000	99.143292
3161.000000	99.146785
3160.000000	99.152137
3159.000000	99.157056
3158.000000	99.159427
3157.000000	99.159260
3156.000000	99.158088
3155.000000	99.157372
3154.000000	99.157993
3153.000000	99.160700
3152.000000	99.166224
3151.000000	99.174707
3150.000000	99.184955
3149.000000	99.194121
3148.000000	99.198474
3147.000000	99.195616
3146.000000	99.186906
3145.000000	99.177425
3144.000000	99.172805
3143.000000	99.175458
3142.000000	99.183604
3141.000000	99.193105
3140.000000	99.199923
3139.000000	99.201789
3138.000000	99.199217
3137.000000	99.195187
3136.000000	99.192873
3135.000000	99.193127
3134.000000	99.194673
3133.000000	99.196785
3132.000000	99.200661
3131.000000	99.207534
3130.000000	99.216256
3129.000000	99.223674
3128.000000	99.227204
3127.000000	99.226648
3126.000000	99.223954
3125.000000	99.221843
3124.000000	99.222361
3123.000000	99.225608
3122.000000	99.229396
3121.000000	99.230676
3120.000000	99.227914
3119.000000	99.222134
3118.000000	99.215941
3117.000000	99.211934
3116.000000	99.211714
3115.000000	99.215276
3114.000000	99.220671
3113.000000	99.224671
3112.000000	99.224762
3111.000000	99.220966
3110.000000	99.215630
3109.000000	99.211304
3108.000000	99.208889
3107.000000	99.207596
3106.000000	99.206014
3105.000000	99.202968
3104.000000	99.198010
3103.000000	99.191903
3102.000000	99.186611
3101.000000	99.184196
3100.000000	99.185110
3099.000000	99.187560
3098.000000	99.188726
3097.000000	99.186801
3096.000000	99.182089
3095.000000	99.176580
3094.000000	99.172539
3093.000000	99.171126
3092.000000	99.171772
3091.000000	99.172629
3090.000000	99.171889
3089.000000	99.169069
3088.000000	99.165247
3087.000000	99.162159
3086.000000	99.161015
3085.000000	99.161932
3084.000000	99.164054
3083.000000	99.166099
3082.000000	99.166976
3081.000000	99.166182
3080.000000	99.163779
3079.000000	99.160244
3078.000000	99.156609
3077.000000	99.154457
3076.000000	99.154986
3075.000000	99.157548
3074.000000	99.159493
3073.000000	99.158316
3072.000000	99.154369
3071.000000	99.151049
3070.000000	99.151697
3069.000000	99.156122
3068.000000	99.160399
3067.000000	99.160334
3066.000000	99.155300
3065.000000	99.148793
3064.000000	99.145300
3063.000000	99.146697
3062.000000	99.151321
3061.000000	99.155788
3060.000000	99.157366
3059.000000	99.155336
3058.000000	99.151340
3057.000000	99.148758
3056.000000	99.150764
3055.000000	99.158038
3054.000000	99.168184
3053.000000	99.177616
3052.000000	99.183868
3051.000000	99.186260
3050.000000	99.185348
3049.000000	99.182748
3048.000000	99.181140
3047.000000	99.183081
3046.000000	99.188987
3045.000000	99.196456
3044.000000	99.202183
3043.000000	99.204787
3042.000000	99.205868
3041.000000	99.208391
3040.000000	99.214050
3039.000000	99.221966
3038.000000	99.229576
3037.000000	99.234596
3036.000000	99.236433
3035.000000	99.236343
3034.000000	99.236568
3033.000000	99.238849
3032.000000	99.242984
3031.000000	99.246821
3030.000000	99.248438
3029.000000	99.248523
3028.000000	99.249840
3027.000000	99.253857
3026.000000	99.258473
3025.000000	99.259760
3024.000000	99.255911
3023.000000	99.249172
3022.000000	99.244278
3021.000000	99.245490
3020.000000	99.254262
3019.000000	99.268107
3018.000000	99.281249
3017.000000	99.287766
3016.000000	99.285666
3015.000000	99.278335
3014.000000	99.271893
3013.000000	99.270794
3012.000000	99.275299
3011.000000	99.281949
3010.000000	99.286264
3009.000000	99.285967
3008.000000	99.282599
3007.000000	99.280036
3006.000000	99.280930
3005.000000	99.284490
3004.000000	99.287752
3003.000000	99.288689
3002.000000	99.287757
3001.000000	99.286864
3000.000000	99.287471
2999.000000	99.289660
2998.000000	99.292448
2997.000000	99.294874
2996.000000	99.296975
2995.000000	99.299628
2994.000000	99.303011
2993.000000	99.305271
2992.000000	99.303314
2991.000000	99.295372
2990.000000	99.282835
2989.000000	99.269640
2988.000000	99.260011
2987.000000	99.256321
2986.000000	99.258090
2985.000000	99.262275
2984.000000	99.264895
2983.000000	99.263489
2982.000000	99.258660
2981.000000	99.253180
2980.000000	99.249273
2979.000000	99.246862
2978.000000	99.244404
2977.000000	99.240950
2976.000000	99.236799
2975.000000	99.232346
2974.000000	99.227103
2973.000000	99.220366
2972.000000	99.212487
2971.000000	99.204787
2970.000000	99.198168
2969.000000	99.192320
2968.000000	99.186618
2967.000000	99.181281
2966.000000	99.176929
2965.000000	99.173005
2964.000000	99.167484
2963.000000	99.158699
2962.000000	99.147050
2961.000000	99.134296
2960.000000	99.121605
2959.000000	99.109377
2958.000000	99.098946
2957.000000	99.092775
2956.000000	99.091743
2955.000000	99.093112
2954.000000	99.092838
2953.000000	99.089902
2952.000000	99.086919
2951.000000	99.086115
2950.000000	99.086117
2949.000000	99.083673
2948.000000	99.077629
2947.000000	99.069940
2946.000000	99.062919
2945.000000	99.056594
2944.000000	99.049091
2943.000000	99.039027
2942.000000	99.027102
2941.000000	99.015421
2940.000000	99.005375
2939.000000	98.996228
2938.000000	98.985912
2937.000000	98.973130
2936.000000	98.958166
2935.000000	98.941527
2934.000000	98.922681
2933.000000	98.900803
2932.000000	98.876361
2931.000000	98.851011
2930.000000	98.825953
2929.000000	98.800926
2928.000000	98.774664
2927.000000	98.746007
2926.000000	98.714945
2925.000000	98.683482
2924.000000	98.655029
2923.000000	98.631772
2922.000000	98.612499
2921.000000	98.594218
2920.000000	98.576525
2919.000000	98.563468
2918.000000	98.560584
2917.000000	98.570719
2916.000000	98.593070
2915.000000	98.625320
2914.000000	98.665251
2913.000000	98.710357
2912.000000	98.756996
2911.000000	98.800922
2910.000000	98.838819
2909.000000	98.869615
2908.000000	98.894685
2907.000000	98.916705
2906.000000	98.937968
2905.000000	98.959289
2904.000000	98.980109
2903.000000	98.999116
2902.000000	99.014936
2901.000000	99.026833
2900.000000	99.035671
2899.000000	99.043767
2898.000000	99.052957
2897.000000	99.062787
2896.000000	99.071184
2895.000000	99.077009
2894.000000	99.081472
2893.000000	99.086769
2892.000000	99.093888
2891.000000	99.102175
2890.000000	99.110613
2889.000000	99.118784
2888.000000	99.126465
2887.000000	99.132964
2886.000000	99.137528
2885.000000	99.140449
2884.000000	99.143196
2883.000000	99.146980
2882.000000	99.151348
2881.000000	99.154699
2880.000000	99.156259
2879.000000	99.156977
2878.000000	99.158185
2877.000000	99.159847
2876.000000	99.160638
2875.000000	99.159495
2874.000000	99.156546
2873.000000	99.152693
2872.000000	99.148987
2871.000000	99.146412
2870.000000	99.145435
2869.000000	99.145338
2868.000000	99.144573
2867.000000	99.142259
2866.000000	99.138929
2865.000000	99.135301
2864.000000	99.130770
2863.000000	99.123944
2862.000000	99.114454
2861.000000	99.103220
2860.000000	99.090607
2859.000000	99.075248
2858.000000	99.055460
2857.000000	99.031384
2856.000000	99.004807
2855.000000	98.976966
2854.000000	98.947589
2853.000000	98.916632
2852.000000	98.886551
2851.000000	98.862368
2850.000000	98.849485
2849.000000	98.851681
2848.000000	98.870284
2847.000000	98.903894
2846.000000	98.948293
2845.000000	98.997276
2844.000000	99.044676
2843.000000	99.086376
2842.000000	99.120742
2841.000000	99.147752
2840.000000	99.168348
2839.000000	99.184289
2838.000000	99.197727
2837.000000	99.210251
2836.000000	99.222284
2835.000000	99.233509
2834.000000	99.243629
2833.000000	99.252549
2832.000000	99.260151
2831.000000	99.266227
2830.000000	99.270501
2829.000000	99.272650
2828.000000	99.272634
2827.000000	99.271365
2826.000000	99.270691
2825.000000	99.272082
2824.000000	99.275351
2823.000000	99.279234
2822.000000	99.283165
2821.000000	99.287706
2820.000000	99.292955
2819.000000	99.297463
2818.000000	99.299689
2817.000000	99.300224
2816.000000	99.301611
2815.000000	99.305634
2814.000000	99.311218
2813.000000	99.315343
2812.000000	99.315837
2811.000000	99.313211
2810.000000	99.309978
2809.000000	99.308378
2808.000000	99.308748
2807.000000	99.310044
2806.000000	99.311635
2805.000000	99.314022
2804.000000	99.317545
2803.000000	99.321097
2802.000000	99.323072
2801.000000	99.323496
2800.000000	99.324253
2799.000000	99.326819
2798.000000	99.330435
2797.000000	99.333093
2796.000000	99.333857
2795.000000	99.333651
2794.000000	99.334090
2793.000000	99.336163
2792.000000	99.339826
2791.000000	99.344036
2790.000000	99.347082
2789.000000	99.347605
2788.000000	99.345872
2787.000000	99.343755
2786.000000	99.342980
2785.000000	99.343356
2784.000000	99.343033
2783.000000	99.340624
2782.000000	99.336797
2781.000000	99.333683
2780.000000	99.332974
2779.000000	99.334935
2778.000000	99.338919
2777.000000	99.343981
2776.000000	99.348656
2775.000000	99.351061
2774.000000	99.350400
2773.000000	99.348318
2772.000000	99.347824
2771.000000	99.350444
2770.000000	99.354976
2769.000000	99.359186
2768.000000	99.361977
2767.000000	99.363554
2766.000000	99.364342
2765.000000	99.364626
2764.000000	99.364907
2763.000000	99.365766
2762.000000	99.367281
2761.000000	99.368990
2760.000000	99.370361
2759.000000	99.371050
2758.000000	99.370953
2757.000000	99.370351
2756.000000	99.369794
2755.000000	99.369583
2754.000000	99.369729
2753.000000	99.370658
2752.000000	99.373235
2751.000000	99.377323
2750.000000	99.380923
2749.000000	99.381884
2748.000000	99.380446
2747.000000	99.379088
2746.000000	99.379702
2745.000000	99.381794
2744.000000	99.383659
2743.000000	99.384476
2742.000000	99.384705
2741.000000	99.384977
2740.000000	99.385154
2739.000000	99.384403
2738.000000	99.382137
2737.000000	99.379115
2736.000000	99.377334
2735.000000	99.378179
2734.000000	99.380783
2733.000000	99.383123
2732.000000	99.384836
2731.000000	99.387716
2730.000000	99.392832
2729.000000	99.398201
2728.000000	99.400565
2727.000000	99.399147
2726.000000	99.396588
2725.000000	99.396197
2724.000000	99.398913
2723.000000	99.403027
2722.000000	99.406146
2721.000000	99.407136
2720.000000	99.406494
2719.000000	99.405257
2718.000000	99.403852
2717.000000	99.402269
2716.000000	99.401071
2715.000000	99.401324
2714.000000	99.403166
2713.000000	99.405253
2712.000000	99.406356
2711.000000	99.406969
2710.000000	99.408413
2709.000000	99.410853
2708.000000	99.413339
2707.000000	99.415672
2706.000000	99.418732
2705.000000	99.422510
2704.000000	99.425095
2703.000000	99.424692
2702.000000	99.422002
2701.000000	99.419592
2700.000000	99.419176
2699.000000	99.420333
2698.000000	99.421622
2697.000000	99.421891
2696.000000	99.420403
2695.000000	99.416894
2694.000000	99.412368
2693.000000	99.409265
2692.000000	99.409779
2691.000000	99.413676
2690.000000	99.418165
2689.000000	99.420241
2688.000000	99.419244
2687.000000	99.417291
2686.000000	99.417346
2685.000000	99.420622
2684.000000	99.425441
2683.000000	99.428645
2682.000000	99.428380
2681.000000	99.425557
2680.000000	99.422446
2679.000000	99.420067
2678.000000	99.417602
2677.000000	99.414459
2676.000000	99.411967
2675.000000	99.412230
2674.000000	99.415636
2673.000000	99.420342
2672.000000	99.424210
2671.000000	99.426498
2670.000000	99.427520
2669.000000	99.427539
2668.000000	99.426620
2667.000000	99.425075
2666.000000	99.423195
2665.000000	99.420589
2664.000000	99.416439
2663.000000	99.410661
2662.000000	99.404523
2661.000000	99.399746
2660.000000	99.397053
2659.000000	99.395783
2658.000000	99.395056
2657.000000	99.395108
2656.000000	99.397160
2655.000000	99.401729
2654.000000	99.407379
2653.000000	99.411710
2652.000000	99.413606
2651.000000	99.413985
2650.000000	99.414219
2649.000000	99.414560
2648.000000	99.414730
2647.000000	99.415390
2646.000000	99.417814
2645.000000	99.422015
2644.000000	99.426250
2643.000000	99.428947
2642.000000	99.430416
2641.000000	99.432013
2640.000000	99.434102
2639.000000	99.435734
2638.000000	99.436180
2637.000000	99.435967
2636.000000	99.436192
2635.000000	99.437437
2634.000000	99.439634
2633.000000	99.442434
2632.000000	99.445256
2631.000000	99.447371
2630.000000	99.448608
2629.000000	99.449948
2628.000000	99.452914
2627.000000	99.458110
2626.000000	99.464470
2625.000000	99.470001
2624.000000	99.473182
2623.000000	99.473794
2622.000000	99.472806
2621.000000	99.471627
2620.000000	99.471233
2619.000000	99.471650
2618.000000	99.472019
2617.000000	99.471161
2616.000000	99.468492
2615.000000	99.465021
2614.000000	99.463584
2613.000000	99.467217
2612.000000	99.476161
2611.000000	99.486407
2610.000000	99.492189
2609.000000	99.490586
2608.000000	99.483686
2607.000000	99.476322
2606.000000	99.472397
2605.000000	99.473605
2604.000000	99.480294
2603.000000	99.491825
2602.000000	99.505697
2601.000000	99.517531
2600.000000	99.523274
2599.000000	99.521873
2598.000000	99.515783
2597.000000	99.509041
2596.000000	99.505120
2595.000000	99.506183
2594.000000	99.512932
2593.000000	99.523563
2592.000000	99.532945
2591.000000	99.534944
2590.000000	99.527490
2589.000000	99.515282
2588.000000	99.506244
2587.000000	99.504954
2586.000000	99.510129
2585.000000	99.517876
2584.000000	99.525728
2583.000000	99.533232
2582.000000	99.540430
2581.000000	99.547031
2580.000000	99.552135
2579.000000	99.553857
2578.000000	99.550304
2577.000000	99.542182
2576.000000	99.533710
2575.000000	99.529504
2574.000000	99.530674
2573.000000	99.534645
2572.000000	99.538000
2571.000000	99.538670
2570.000000	99.536592
2569.000000	99.534007
2568.000000	99.534437
2567.000000	99.539354
2566.000000	99.546064
2565.000000	99.550708
2564.000000	99.553159
2563.000000	99.556573
2562.000000	99.561794
2561.000000	99.564933
2560.000000	99.561865
2559.000000	99.553192
2558.000000	99.543043
2557.000000	99.534646
2556.000000	99.529104
2555.000000	99.527328
2554.000000	99.530319
2553.000000	99.537150
2552.000000	99.544570
2551.000000	99.549444
2550.000000	99.550874
2549.000000	99.549739
2548.000000	99.547192
2547.000000	99.544050
2546.000000	99.540967
2545.000000	99.538911
2544.000000	99.539714
2543.000000	99.545505
2542.000000	99.555999
2541.000000	99.566120
2540.000000	99.568373
2539.000000	99.559518
2538.000000	99.544540
2537.000000	99.532755
2536.000000	99.529788
2535.000000	99.533962
2534.000000	99.539930
2533.000000	99.544201
2532.000000	99.547016
2531.000000	99.550538
2530.000000	99.556267
2529.000000	99.563338
2528.000000	99.568370
2527.000000	99.567737
2526.000000	99.561059
2525.000000	99.551921
2524.000000	99.544263
2523.000000	99.538880
2522.000000	99.534509
2521.000000	99.531115
2520.000000	99.529628
2519.000000	99.528732
2518.000000	99.525060
2517.000000	99.518034
2516.000000	99.512475
2515.000000	99.514189
2514.000000	99.523610
2513.000000	99.535176
2512.000000	99.542535
2511.000000	99.543343
2510.000000	99.539513
2509.000000	99.534277
2508.000000	99.529363
2507.000000	99.524637
2506.000000	99.520400
2505.000000	99.519311
2504.000000	99.524540
2503.000000	99.535476
2502.000000	99.546982
2501.000000	99.554084
2500.000000	99.556035
2499.000000	99.554568
2498.000000	99.549826
2497.000000	99.540615
2496.000000	99.528262
2495.000000	99.517723
2494.000000	99.514173
2493.000000	99.519166
2492.000000	99.529614
2491.000000	99.539420
2490.000000	99.543215
2489.000000	99.541099
2488.000000	99.539482
2487.000000	99.544625
2486.000000	99.554897
2485.000000	99.561639
2484.000000	99.558832
2483.000000	99.549897
2482.000000	99.543580
2481.000000	99.544969
2480.000000	99.551915
2479.000000	99.558985
2478.000000	99.562928
2477.000000	99.564732
2476.000000	99.568071
2475.000000	99.575683
2474.000000	99.586340
2473.000000	99.595475
2472.000000	99.599391
2471.000000	99.598390
2470.000000	99.594975
2469.000000	99.589916
2468.000000	99.582004
2467.000000	99.571859
2466.000000	99.563853
2465.000000	99.562504
2464.000000	99.567335
2463.000000	99.573032
2462.000000	99.575262
2461.000000	99.575085
2460.000000	99.576573
2459.000000	99.580956
2458.000000	99.585001
2457.000000	99.585142
2456.000000	99.581325
2455.000000	99.575928
2454.000000	99.570570
2453.000000	99.565540
2452.000000	99.561005
2451.000000	99.556820
2450.000000	99.552089
2449.000000	99.547197
2448.000000	99.545880
2447.000000	99.552513
2446.000000	99.566532
2445.000000	99.581427
2444.000000	99.590310
2443.000000	99.591298
2442.000000	99.587248
2441.000000	99.582268
2440.000000	99.579428
2439.000000	99.579912
2438.000000	99.582481
2437.000000	99.584551
2436.000000	99.585063
2435.000000	99.585411
2434.000000	99.586639
2433.000000	99.587137
2432.000000	99.584924
2431.000000	99.581309
2430.000000	99.579966
2429.000000	99.582366
2428.000000	99.585978
2427.000000	99.587508
2426.000000	99.586510
2425.000000	99.585074
2424.000000	99.585018
2423.000000	99.586220
2422.000000	99.587129
2421.000000	99.586357
2420.000000	99.584131
2419.000000	99.582437
2418.000000	99.583088
2417.000000	99.585286
2416.000000	99.586078
2415.000000	99.584077
2414.000000	99.581926
2413.000000	99.583630
2412.000000	99.589510
2411.000000	99.595410
2410.000000	99.597504
2409.000000	99.596508
2408.000000	99.595971
2407.000000	99.597303
2406.000000	99.598157
2405.000000	99.595675
2404.000000	99.589972
2403.000000	99.584325
2402.000000	99.582966
2401.000000	99.588444
2400.000000	99.599258
2399.000000	99.609356
2398.000000	99.611960
2397.000000	99.605691
2396.000000	99.596309
2395.000000	99.591100
2394.000000	99.591908
2393.000000	99.594878
2392.000000	99.596182
2391.000000	99.595949
2390.000000	99.596340
2389.000000	99.597984
2388.000000	99.600013
2387.000000	99.602167
2386.000000	99.605380
2385.000000	99.609749
2384.000000	99.613466
2383.000000	99.615182
2382.000000	99.616393
2381.000000	99.620986
2380.000000	99.631228
2379.000000	99.644892
2378.000000	99.657389
2377.000000	99.665952
2376.000000	99.670847
2375.000000	99.673294
2374.000000	99.675179
2373.000000	99.679948
2372.000000	99.690299
2371.000000	99.703464
2370.000000	99.712611
2369.000000	99.713228
2368.000000	99.703004
2367.000000	99.679315
2366.000000	99.643740
2365.000000	99.607218
2364.000000	99.582472
2363.000000	99.571202
2362.000000	99.564471
2361.000000	99.554820
2360.000000	99.548372
2359.000000	99.553383
2358.000000	99.571782
2357.000000	99.600232
2356.000000	99.623585
2355.000000	99.629568
2354.000000	99.622332
2353.000000	99.611755
2352.000000	99.587872
2351.000000	99.535435
2350.000000	99.471731
2349.000000	99.434093
2348.000000	99.450015
2347.000000	99.512630
2346.000000	99.581326
2345.000000	99.611893
2344.000000	99.595866
2343.000000	99.565180
2342.000000	99.546486
2341.000000	99.545822
2340.000000	99.556075
2339.000000	99.567767
2338.000000	99.577035
2337.000000	99.584052
2336.000000	99.587985
2335.000000	99.589855
2334.000000	99.596562
2333.000000	99.615879
2332.000000	99.643086
2331.000000	99.661651
2330.000000	99.661240
2329.000000	99.639605
2328.000000	99.606576
2327.000000	99.575238
2326.000000	99.558650
2325.000000	99.563496
2324.000000	99.583193
2323.000000	99.607296
2322.000000	99.623143
2321.000000	99.623773
2320.000000	99.608400
2319.000000	99.583536
2318.000000	99.560750
2317.000000	99.548636
2316.000000	99.550527
2315.000000	99.562719
2314.000000	99.578977
2313.000000	99.592322
2312.000000	99.597915
2311.000000	99.594040
2310.000000	99.583439
2309.000000	99.571531
2308.000000	99.564086
2307.000000	99.563937
2306.000000	99.568269
2305.000000	99.572018
2304.000000	99.571829
2303.000000	99.568769
2302.000000	99.564409
2301.000000	99.558616
2300.000000	99.552528
2299.000000	99.549668
2298.000000	99.552753
2297.000000	99.558501
2296.000000	99.560713
2295.000000	99.556108
2294.000000	99.547253
2293.000000	99.538294
2292.000000	99.530835
2291.000000	99.524701
2290.000000	99.520342
2289.000000	99.519333
2288.000000	99.521440
2287.000000	99.523629
2286.000000	99.522029
2285.000000	99.516613
2284.000000	99.512293
2283.000000	99.514407
2282.000000	99.522375
2281.000000	99.530425
2280.000000	99.534324
2279.000000	99.535133
2278.000000	99.534806
2277.000000	99.531793
2276.000000	99.524286
2275.000000	99.515481
2274.000000	99.512636
2273.000000	99.519600
2272.000000	99.532838
2271.000000	99.544687
2270.000000	99.549554
2269.000000	99.547832
2268.000000	99.545390
2267.000000	99.548959
2266.000000	99.560102
2265.000000	99.573644
2264.000000	99.583760
2263.000000	99.589942
2262.000000	99.595128
2261.000000	99.599195
2260.000000	99.597490
2259.000000	99.587449
2258.000000	99.573292
2257.000000	99.563320
2256.000000	99.562669
2255.000000	99.569256
2254.000000	99.576105
2253.000000	99.577239
2252.000000	99.572937
2251.000000	99.569182
2250.000000	99.572163
2249.000000	99.582825
2248.000000	99.597394
2247.000000	99.611863
2246.000000	99.624024
2245.000000	99.631554
2244.000000	99.631318
2243.000000	99.623025
2242.000000	99.611979
2241.000000	99.605138
2240.000000	99.603236
2239.000000	99.599228
2238.000000	99.586846
2237.000000	99.569527
2236.000000	99.557697
2235.000000	99.557343
2234.000000	99.565010
2233.000000	99.574722
2232.000000	99.584234
2231.000000	99.590805
2230.000000	99.586240
2229.000000	99.565032
2228.000000	99.537313
2227.000000	99.525423
2226.000000	99.543740
2225.000000	99.585038
2224.000000	99.628148
2223.000000	99.654992
2222.000000	99.658671
2221.000000	99.641409
2220.000000	99.610902
2219.000000	99.576959
2218.000000	99.548137
2217.000000	99.531836
2216.000000	99.536041
2215.000000	99.564797
2214.000000	99.609183
2213.000000	99.648588
2212.000000	99.667516
2211.000000	99.668594
2210.000000	99.663173
2209.000000	99.653191
2208.000000	99.630981
2207.000000	99.596072
2206.000000	99.563349
2205.000000	99.549928
2204.000000	99.557490
2203.000000	99.571053
2202.000000	99.573829
2201.000000	99.562018
2200.000000	99.547046
2199.000000	99.544539
2198.000000	99.559717
2197.000000	99.582544
2196.000000	99.598384
2195.000000	99.603268
2194.000000	99.605633
2193.000000	99.612590
2192.000000	99.618274
2191.000000	99.609114
2190.000000	99.579097
2189.000000	99.536874
2188.000000	99.498058
2187.000000	99.472960
2186.000000	99.463301
2185.000000	99.467308
2184.000000	99.483038
2183.000000	99.506958
2182.000000	99.533336
2181.000000	99.558190
2180.000000	99.583112
2179.000000	99.612164
2178.000000	99.644388
2177.000000	99.671657
2176.000000	99.685739
2175.000000	99.686310
2174.000000	99.679367
2173.000000	99.667623
2172.000000	99.645807
2171.000000	99.609209
2170.000000	99.566878
2169.000000	99.542059
2168.000000	99.552444
2167.000000	99.589051
2166.000000	99.620434
2165.000000	99.619942
2164.000000	99.587219
2163.000000	99.542249
2162.000000	99.506444
2161.000000	99.496887
2160.000000	99.527442
2159.000000	99.597118
2158.000000	99.677427
2157.000000	99.731005
2156.000000	99.747229
2155.000000	99.745424
2154.000000	99.746970
2153.000000	99.756303
2152.000000	99.764504
2151.000000	99.760909
2150.000000	99.740511
2149.000000	99.707214
2148.000000	99.673412
2147.000000	99.653317
2146.000000	99.655019
2145.000000	99.678436
2144.000000	99.716791
2143.000000	99.756571
2142.000000	99.780324
2141.000000	99.778735
2140.000000	99.762738
2139.000000	99.756441
2138.000000	99.772776
2137.000000	99.798885
2136.000000	99.808806
2135.000000	99.790694
2134.000000	99.758516
2133.000000	99.736336
2132.000000	99.734160
2131.000000	99.741456
2130.000000	99.742898
2129.000000	99.735131
2128.000000	99.725432
2127.000000	99.717797
2126.000000	99.707626
2125.000000	99.691905
2124.000000	99.677309
2123.000000	99.672351
2122.000000	99.675460
2121.000000	99.676951
2120.000000	99.671287
2119.000000	99.661704
2118.000000	99.653590
2117.000000	99.649191
2116.000000	99.648868
2115.000000	99.651745
2114.000000	99.653786
2113.000000	99.650553
2112.000000	99.644366
2111.000000	99.643900
2110.000000	99.653325
2109.000000	99.665633
2108.000000	99.670377
2107.000000	99.665932
2106.000000	99.660434
2105.000000	99.662018
2104.000000	99.671114
2103.000000	99.681508
2102.000000	99.686807
2101.000000	99.685878
2100.000000	99.682897
2099.000000	99.682100
2098.000000	99.683500
2097.000000	99.685003
2096.000000	99.686750
2095.000000	99.689218
2094.000000	99.687964
2093.000000	99.676641
2092.000000	99.657735
2091.000000	99.644732
2090.000000	99.648800
2089.000000	99.664850
2088.000000	99.674939
2087.000000	99.666778
2086.000000	99.645900
2085.000000	99.628721
2084.000000	99.625401
2083.000000	99.630914
2082.000000	99.633031
2081.000000	99.626137
2080.000000	99.614678
2079.000000	99.604765
2078.000000	99.597849
2077.000000	99.594838
2076.000000	99.600367
2075.000000	99.616875
2074.000000	99.637127
2073.000000	99.649486
2072.000000	99.650533
2071.000000	99.646475
2070.000000	99.642406
2069.000000	99.637025
2068.000000	99.629160
2067.000000	99.622143
2066.000000	99.617870
2065.000000	99.611817
2064.000000	99.599117
2063.000000	99.583273
2062.000000	99.575021
2061.000000	99.583527
2060.000000	99.608351
2059.000000	99.636592
2058.000000	99.648455
2057.000000	99.632160
2056.000000	99.597460
2055.000000	99.569488
2054.000000	99.563910
2053.000000	99.571000
2052.000000	99.569385
2051.000000	99.553642
2050.000000	99.543485
2049.000000	99.564133
2048.000000	99.616692
2047.000000	99.672015
2046.000000	99.698002
2045.000000	99.689275
2044.000000	99.667228
2043.000000	99.653353
2042.000000	99.648188
2041.000000	99.638952
2040.000000	99.622325
2039.000000	99.611041
2038.000000	99.618275
2037.000000	99.642862
2036.000000	99.670444
2035.000000	99.685327
2034.000000	99.680406
2033.000000	99.659903
2032.000000	99.634829
2031.000000	99.614187
2030.000000	99.603237
2029.000000	99.610340
2028.000000	99.645058
2027.000000	99.702212
2026.000000	99.755637
2025.000000	99.779582
2024.000000	99.775783
2023.000000	99.768306
2022.000000	99.771954
2021.000000	99.778486
2020.000000	99.774486
2019.000000	99.759767
2018.000000	99.744585
2017.000000	99.738238
2016.000000	99.743818
2015.000000	99.758494
2014.000000	99.775777
2013.000000	99.789473
2012.000000	99.796638
2011.000000	99.796455
2010.000000	99.790238
2009.000000	99.785888
2008.000000	99.794886
2007.000000	99.816178
2006.000000	99.829984
2005.000000	99.818718
2004.000000	99.788029
2003.000000	99.756147
2002.000000	99.730594
2001.000000	99.707437
2000.000000	99.686333
1999.000000	99.673769
1998.000000	99.673855
1997.000000	99.685161
1996.000000	99.703364
1995.000000	99.718509
1994.000000	99.714850
1993.000000	99.687472
1992.000000	99.657761
1991.000000	99.652434
1990.000000	99.668544
1989.000000	99.681081
1988.000000	99.680128
1987.000000	99.677519
1986.000000	99.677000
1985.000000	99.662337
1984.000000	99.625540
1983.000000	99.586720
1982.000000	99.570797
1981.000000	99.578778
1980.000000	99.597812
1979.000000	99.628858
1978.000000	99.683187
1977.000000	99.751801
1976.000000	99.800892
1975.000000	99.805520
1974.000000	99.772989
1973.000000	99.733040
1972.000000	99.714554
1971.000000	99.725598
1970.000000	99.748217
1969.000000	99.754869
1968.000000	99.735997
1967.000000	99.711339
1966.000000	99.710646
1965.000000	99.746203
1964.000000	99.804670
1963.000000	99.855858
1962.000000	99.866586
1961.000000	99.822158
1960.000000	99.743532
1959.000000	99.672086
1958.000000	99.634351
1957.000000	99.629085
1956.000000	99.643719
1955.000000	99.669639
1954.000000	99.698862
1953.000000	99.718573
1952.000000	99.719029
1951.000000	99.703074
1950.000000	99.683233
1949.000000	99.673101
1948.000000	99.682513
1947.000000	99.713201
1946.000000	99.753780
1945.000000	99.784145
1944.000000	99.790697
1943.000000	99.776620
1942.000000	99.755876
1941.000000	99.739733
1940.000000	99.732482
1939.000000	99.735641
1938.000000	99.748410
1937.000000	99.765008
1936.000000	99.776935
1935.000000	99.778772
1934.000000	99.770762
1933.000000	99.758048
1932.000000	99.748251
1931.000000	99.747274
1930.000000	99.756401
1929.000000	99.773402
1928.000000	99.794584
1927.000000	99.814042
1926.000000	99.823765
1925.000000	99.818866
1924.000000	99.803053
1923.000000	99.785368
1922.000000	99.770341
1921.000000	99.756613
1920.000000	99.744800
1919.000000	99.739207
1918.000000	99.739557
1917.000000	99.736762
1916.000000	99.723874
1915.000000	99.705093
1914.000000	99.689162
1913.000000	99.680959
1912.000000	99.680266
1911.000000	99.684536
1910.000000	99.690825
1909.000000	99.696742
1908.000000	99.702007
1907.000000	99.707492
1906.000000	99.711885
1905.000000	99.712187
1904.000000	99.708930
1903.000000	99.707473
1902.000000	99.711755
1901.000000	99.719850
1900.000000	99.727780
1899.000000	99.734015
1898.000000	99.737765
1897.000000	99.736716
1896.000000	99.730072
1895.000000	99.721534
1894.000000	99.715558
1893.000000	99.712158
1892.000000	99.708406
1891.000000	99.703106
1890.000000	99.698162
1889.000000	99.696678
1888.000000	99.700520
1887.000000	99.709112
1886.000000	99.718681
1885.000000	99.723445
1884.000000	99.720561
1883.000000	99.713222
1882.000000	99.707050
1881.000000	99.705084
1880.000000	99.707313
1879.000000	99.712519
1878.000000	99.719340
1877.000000	99.726927
1876.000000	99.734728
1875.000000	99.740496
1874.000000	99.739875
1873.000000	99.731417
1872.000000	99.721757
1871.000000	99.721612
1870.000000	99.735310
1869.000000	99.754259
1868.000000	99.765350
1867.000000	99.767119
1866.000000	99.767491
1865.000000	99.770317
1864.000000	99.773324
1863.000000	99.772757
1862.000000	99.765621
1861.000000	99.751060
1860.000000	99.732789
1859.000000	99.717846
1858.000000	99.710729
1857.000000	99.710578
1856.000000	99.714896
1855.000000	99.723088
1854.000000	99.733622
1853.000000	99.741038
1852.000000	99.740323
1851.000000	99.732190
1850.000000	99.721305
1849.000000	99.711731
1848.000000	99.705610
1847.000000	99.704414
1846.000000	99.709419
1845.000000	99.720729
1844.000000	99.734724
1843.000000	99.745150
1842.000000	99.749696
1841.000000	99.750892
1840.000000	99.751711
1839.000000	99.753101
1838.000000	99.754041
1837.000000	99.754734
1836.000000	99.758723
1835.000000	99.768553
1834.000000	99.780312
1833.000000	99.787068
1832.000000	99.786508
1831.000000	99.781362
1830.000000	99.773899
1829.000000	99.763916
1828.000000	99.753146
1827.000000	99.745487
1826.000000	99.742045
1825.000000	99.740491
1824.000000	99.738508
1823.000000	99.735930
1822.000000	99.732824
1821.000000	99.728711
1820.000000	99.725513
1819.000000	99.727572
1818.000000	99.736899
1817.000000	99.749823
1816.000000	99.760184
1815.000000	99.764919
1814.000000	99.764774
1813.000000	99.762135
1812.000000	99.760076
1811.000000	99.760276
1810.000000	99.760290
1809.000000	99.755950
1808.000000	99.747374
1807.000000	99.739381
1806.000000	99.734908
1805.000000	99.730979
1804.000000	99.723543
1803.000000	99.713636
1802.000000	99.705918
1801.000000	99.702397
1800.000000	99.699885
1799.000000	99.695303
1798.000000	99.690053
1797.000000	99.686727
1796.000000	99.685456
1795.000000	99.684716
1794.000000	99.683503
1793.000000	99.683721
1792.000000	99.689421
1791.000000	99.700659
1790.000000	99.712053
1789.000000	99.718526
1788.000000	99.719195
1787.000000	99.717502
1786.000000	99.718177
1785.000000	99.722272
1784.000000	99.726508
1783.000000	99.727556
1782.000000	99.724213
1781.000000	99.717333
1780.000000	99.710125
1779.000000	99.706647
1778.000000	99.708790
1777.000000	99.715703
1776.000000	99.725664
1775.000000	99.737316
1774.000000	99.749338
1773.000000	99.761368
1772.000000	99.773688
1771.000000	99.783974
1770.000000	99.788645
1769.000000	99.785900
1768.000000	99.777199
1767.000000	99.767785
1766.000000	99.762274
1765.000000	99.760640
1764.000000	99.760185
1763.000000	99.758963
1762.000000	99.756198
1761.000000	99.751788
1760.000000	99.746862
1759.000000	99.742680
1758.000000	99.738796
1757.000000	99.734842
1756.000000	99.732776
1755.000000	99.733714
1754.000000	99.734627
1753.000000	99.730946
1752.000000	99.722300
1751.000000	99.715061
1750.000000	99.714818
1749.000000	99.718947
1748.000000	99.722649
1747.000000	99.724402
1746.000000	99.723630
1745.000000	99.720139
1744.000000	99.715516
1743.000000	99.711628
1742.000000	99.708078
1741.000000	99.704502
1740.000000	99.704409
1739.000000	99.710614
1738.000000	99.717028
1737.000000	99.717190
1736.000000	99.712548
1735.000000	99.716673
1734.000000	99.740896
1733.000000	99.766217
1732.000000	99.774383
1731.000000	99.774277
1730.000000	99.775763
1729.000000	99.778839
1728.000000	99.781659
1727.000000	99.785527
1726.000000	99.791513
1725.000000	99.796535
1724.000000	99.797587
1723.000000	99.796495
1722.000000	99.796935
1721.000000	99.799206
1720.000000	99.802846
1719.000000	99.810332
1718.000000	99.822719
1717.000000	99.829136
1716.000000	99.817604
1715.000000	99.794655
1714.000000	99.771953
1713.000000	99.751229
1712.000000	99.731039
1711.000000	99.713905
1710.000000	99.702999
1709.000000	99.695420
1708.000000	99.684344
1707.000000	99.666520
1706.000000	99.645386
1705.000000	99.625812
1704.000000	99.607155
1703.000000	99.584913
1702.000000	99.552730
1701.000000	99.507703
1700.000000	99.462346
1699.000000	99.431229
1698.000000	99.408478
1697.000000	99.377417
1696.000000	99.333708
1695.000000	99.291440
1694.000000	99.262503
1693.000000	99.241635
1692.000000	99.218481
1691.000000	99.188532
1690.000000	99.153481
1689.000000	99.118603
1688.000000	99.088732
1687.000000	99.062924
1686.000000	99.032624
1685.000000	98.986103
1684.000000	98.929285
1683.000000	98.882674
1682.000000	98.846142
1681.000000	98.806280
1680.000000	98.760698
1679.000000	98.715855
1678.000000	98.673835
1677.000000	98.624498
1676.000000	98.558299
1675.000000	98.484597
1674.000000	98.422776
1673.000000	98.373834
1672.000000	98.323662
1671.000000	98.261275
1670.000000	98.184757
1669.000000	98.102714
1668.000000	98.029477
1667.000000	97.973075
1666.000000	97.928261
1665.000000	97.882177
1664.000000	97.824223
1663.000000	97.755569
1662.000000	97.687922
1661.000000	97.628435
1660.000000	97.576714
1659.000000	97.534101
1658.000000	97.504143
1657.000000	97.486592
1656.000000	97.475996
1655.000000	97.462596
1654.000000	97.430544
1653.000000	97.375588
1652.000000	97.327876
1651.000000	97.310230
1650.000000	97.309743
1649.000000	97.308179
1648.000000	97.293127
1647.000000	97.267657
1646.000000	97.246691
1645.000000	97.234409
1644.000000	97.225427
1643.000000	97.217373
1642.000000	97.209905
1641.000000	97.204002
1640.000000	97.201435
1639.000000	97.202738
1638.000000	97.204049
1637.000000	97.196627
1636.000000	97.177291
1635.000000	97.158389
1634.000000	97.151333
1633.000000	97.153834
1632.000000	97.160055
1631.000000	97.168053
1630.000000	97.179136
1629.000000	97.195140
1628.000000	97.218653
1627.000000	97.251219
1626.000000	97.290482
1625.000000	97.333219
1624.000000	97.380485
1623.000000	97.435084
1622.000000	97.493022
1621.000000	97.547814
1620.000000	97.600281
1619.000000	97.655239
1618.000000	97.716807
1617.000000	97.786075
1616.000000	97.856686
1615.000000	97.920615
1614.000000	97.976970
1613.000000	98.028651
1612.000000	98.079341
1611.000000	98.132821
1610.000000	98.189005
1609.000000	98.243576
1608.000000	98.292867
1607.000000	98.337160
1606.000000	98.378892
1605.000000	98.420706
1604.000000	98.463649
1603.000000	98.504833
1602.000000	98.539246
1601.000000	98.565419
1600.000000	98.586511
1599.000000	98.605508
1598.000000	98.622886
1597.000000	98.639302
1596.000000	98.656141
1595.000000	98.671889
1594.000000	98.682199
1593.000000	98.685561
1592.000000	98.685413
1591.000000	98.685014
1590.000000	98.683368
1589.000000	98.677765
1588.000000	98.667023
1587.000000	98.650384
1586.000000	98.626145
1585.000000	98.593877
1584.000000	98.555950
1583.000000	98.514231
1582.000000	98.469066
1581.000000	98.423628
1580.000000	98.383935
1579.000000	98.351505
1578.000000	98.319415
1577.000000	98.278059
1576.000000	98.230841
1575.000000	98.194713
1574.000000	98.175980
1573.000000	98.167004
1572.000000	98.159200
1571.000000	98.144749
1570.000000	98.117151
1569.000000	98.078953
1568.000000	98.042050
1567.000000	98.011196
1566.000000	97.979781
1565.000000	97.943518
1564.000000	97.908235
1563.000000	97.884703
1562.000000	97.872083
1561.000000	97.858833
1560.000000	97.817700
1559.000000	97.733131
1558.000000	97.655050
1557.000000	97.612539
1556.000000	97.581903
1555.000000	97.550263
1554.000000	97.516353
1553.000000	97.484907
1552.000000	97.453900
1551.000000	97.418398
1550.000000	97.379724
1549.000000	97.345653
1548.000000	97.318957
1547.000000	97.292984
1546.000000	97.259453
1545.000000	97.217490
1544.000000	97.175761
1543.000000	97.141726
1542.000000	97.112447
1541.000000	97.081740
1540.000000	97.059137
1539.000000	97.059647
1538.000000	97.078665
1537.000000	97.106205
1536.000000	97.138814
1535.000000	97.177533
1534.000000	97.227241
1533.000000	97.283504
1532.000000	97.332378
1531.000000	97.369549
1530.000000	97.401151
1529.000000	97.431244
1528.000000	97.461129
1527.000000	97.491136
1526.000000	97.519741
1525.000000	97.544387
1524.000000	97.565699
1523.000000	97.587070
1522.000000	97.610744
1521.000000	97.632313
1520.000000	97.645822
1519.000000	97.655261
1518.000000	97.666988
1517.000000	97.682907
1516.000000	97.700637
1515.000000	97.714155
1514.000000	97.720025
1513.000000	97.720095
1512.000000	97.721526
1511.000000	97.731268
1510.000000	97.747552
1509.000000	97.761567
1508.000000	97.767811
1507.000000	97.774446
1506.000000	97.780976
1505.000000	97.776405
1504.000000	97.768485
1503.000000	97.764309
1502.000000	97.760630
1501.000000	97.754851
1500.000000	97.747184
1499.000000	97.740490
1498.000000	97.731377
1497.000000	97.713921
1496.000000	97.692014
1495.000000	97.676488
1494.000000	97.668458
1493.000000	97.660329
1492.000000	97.647606
1491.000000	97.632693
1490.000000	97.618015
1489.000000	97.599510
1488.000000	97.574074
1487.000000	97.546698
1486.000000	97.522400
1485.000000	97.499438
1484.000000	97.474155
1483.000000	97.444073
1482.000000	97.407179
1481.000000	97.364835
1480.000000	97.323215
1479.000000	97.285839
1478.000000	97.247661
1477.000000	97.201259
1476.000000	97.146978
1475.000000	97.090713
1474.000000	97.030755
1473.000000	96.961838
1472.000000	96.894073
1471.000000	96.842136
1470.000000	96.804015
1469.000000	96.770695
1468.000000	96.738457
1467.000000	96.706367
1466.000000	96.670698
1465.000000	96.628633
1464.000000	96.587514
1463.000000	96.557025
1462.000000	96.536614
1461.000000	96.520041
1460.000000	96.500580
1459.000000	96.468654
1458.000000	96.408887
1457.000000	96.328416
1456.000000	96.268174
1455.000000	96.240892
1454.000000	96.222880
1453.000000	96.199437
1452.000000	96.173363
1451.000000	96.152033
1450.000000	96.133714
1449.000000	96.112393
1448.000000	96.090327
1447.000000	96.074473
1446.000000	96.063029
1445.000000	96.049813
1444.000000	96.035023
1443.000000	96.022899
1442.000000	96.014644
1441.000000	96.008236
1440.000000	96.002427
1439.000000	95.995726
1438.000000	95.984107
1437.000000	95.966882
1436.000000	95.952897
1435.000000	95.947440
1434.000000	95.943220
1433.000000	95.933213
1432.000000	95.918549
1431.000000	95.903894
1430.000000	95.890173
1429.000000	95.876292
1428.000000	95.865071
1427.000000	95.858034
1426.000000	95.849374
1425.000000	95.833251
1424.000000	95.814847
1423.000000	95.803706
1422.000000	95.797258
1421.000000	95.783846
1420.000000	95.758380
1419.000000	95.730978
1418.000000	95.714641
1417.000000	95.708763
1416.000000	95.706773
1415.000000	95.704484
1414.000000	95.699042
1413.000000	95.691899
1412.000000	95.690188
1411.000000	95.699107
1410.000000	95.713936
1409.000000	95.726976
1408.000000	95.738196
1407.000000	95.752151
1406.000000	95.769161
1405.000000	95.786709
1404.000000	95.806211
1403.000000	95.829244
1402.000000	95.851985
1401.000000	95.870417
1400.000000	95.887233
1399.000000	95.908287
1398.000000	95.932226
1397.000000	95.953046
1396.000000	95.971542
1395.000000	95.994616
1394.000000	96.024316
1393.000000	96.057010
1392.000000	96.091365
1391.000000	96.126874
1390.000000	96.160540
1389.000000	96.191585
1388.000000	96.226475
1387.000000	96.272456
1386.000000	96.325272
1385.000000	96.374407
1384.000000	96.415933
1383.000000	96.451136
1382.000000	96.481315
1381.000000	96.508708
1380.000000	96.538139
1379.000000	96.573543
1378.000000	96.613629
1377.000000	96.654354
1376.000000	96.694384
1375.000000	96.735330
1374.000000	96.777820
1373.000000	96.820599
1372.000000	96.863012
1371.000000	96.905124
1370.000000	96.946389
1369.000000	96.987253
1368.000000	97.030280
1367.000000	97.076678
1366.000000	97.124493
1365.000000	97.171909
1364.000000	97.219070
1363.000000	97.265823
1362.000000	97.310161
1361.000000	97.350561
1360.000000	97.387759
1359.000000	97.422481
1358.000000	97.454612
1357.000000	97.484944
1356.000000	97.514037
1355.000000	97.539276
1354.000000	97.557107
1353.000000	97.568730
1352.000000	97.579045
1351.000000	97.589587
1350.000000	97.596601
1349.000000	97.596839
1348.000000	97.592064
1347.000000	97.586055
1346.000000	97.580603
1345.000000	97.576455
1344.000000	97.574787
1343.000000	97.575154
1342.000000	97.574428
1341.000000	97.570129
1340.000000	97.564131
1339.000000	97.560921
1338.000000	97.562453
1337.000000	97.568142
1336.000000	97.578076
1335.000000	97.592217
1334.000000	97.608835
1333.000000	97.626459
1332.000000	97.645875
1331.000000	97.668388
1330.000000	97.693058
1329.000000	97.717456
1328.000000	97.740433
1327.000000	97.762384
1326.000000	97.783160
1325.000000	97.801370
1324.000000	97.816001
1323.000000	97.827429
1322.000000	97.836932
1321.000000	97.845836
1320.000000	97.854894
1319.000000	97.864031
1318.000000	97.872921
1317.000000	97.882087
1316.000000	97.892925
1315.000000	97.906541
1314.000000	97.923204
1313.000000	97.942811
1312.000000	97.964898
1311.000000	97.988200
1310.000000	98.011087
1309.000000	98.032385
1308.000000	98.051106
1307.000000	98.066112
1306.000000	98.077262
1305.000000	98.086445
1304.000000	98.096341
1303.000000	98.107932
1302.000000	98.120183
1301.000000	98.132017
1300.000000	98.143575
1299.000000	98.155711
1298.000000	98.169123
1297.000000	98.183573
1296.000000	98.196971
1295.000000	98.205927
1294.000000	98.208650
1293.000000	98.206398
1292.000000	98.200725
1291.000000	98.190613
1290.000000	98.174736
1289.000000	98.156316
1288.000000	98.142512
1287.000000	98.137584
1286.000000	98.138341
1285.000000	98.138095
1284.000000	98.133887
1283.000000	98.128263
1282.000000	98.125145
1281.000000	98.125453
1280.000000	98.127269
1279.000000	98.129392
1278.000000	98.133424
1277.000000	98.141634
1276.000000	98.153056
1275.000000	98.163511
1274.000000	98.170330
1273.000000	98.175687
1272.000000	98.183499
1271.000000	98.193658
1270.000000	98.201586
1269.000000	98.203540
1268.000000	98.200092
1267.000000	98.194130
1266.000000	98.187795
1265.000000	98.182324
1264.000000	98.179015
1263.000000	98.178469
1262.000000	98.179138
1261.000000	98.177771
1260.000000	98.171491
1259.000000	98.159662
1258.000000	98.144253
1257.000000	98.128230
1256.000000	98.113056
1255.000000	98.097643
1254.000000	98.080183
1253.000000	98.060803
1252.000000	98.041392
1251.000000	98.022930
1250.000000	98.003998
1249.000000	97.982153
1248.000000	97.956071
1247.000000	97.926259
1246.000000	97.894799
1245.000000	97.864629
1244.000000	97.837820
1243.000000	97.814005
1242.000000	97.791670
1241.000000	97.771289
1240.000000	97.755460
1239.000000	97.744978
1238.000000	97.736433
1237.000000	97.725838
1236.000000	97.713537
1235.000000	97.704042
1234.000000	97.702138
1233.000000	97.710081
1232.000000	97.727465
1231.000000	97.751391
1230.000000	97.777622
1229.000000	97.804169
1228.000000	97.833112
1227.000000	97.867691
1226.000000	97.908338
1225.000000	97.952978
1224.000000	97.999823
1223.000000	98.047212
1222.000000	98.091771
1221.000000	98.129815
1220.000000	98.161110
1219.000000	98.189195
1218.000000	98.217142
1217.000000	98.243892
1216.000000	98.265413
1215.000000	98.278987
1214.000000	98.285747
1213.000000	98.289556
1212.000000	98.293285
1211.000000	98.295954
1210.000000	98.293888
1209.000000	98.284711
1208.000000	98.270010
1207.000000	98.253745
1206.000000	98.238943
1205.000000	98.226921
1204.000000	98.218989
1203.000000	98.216887
1202.000000	98.220922
1201.000000	98.229199
1200.000000	98.239549
1199.000000	98.251637
1198.000000	98.266381
1197.000000	98.284287
1196.000000	98.305279
1195.000000	98.329245
1194.000000	98.355823
1193.000000	98.383648
1192.000000	98.410673
1191.000000	98.435556
1190.000000	98.458353
1189.000000	98.479739
1188.000000	98.499933
1187.000000	98.518608
1186.000000	98.535315
1185.000000	98.549611
1184.000000	98.560997
1183.000000	98.569542
1182.000000	98.576708
1181.000000	98.584666
1180.000000	98.594426
1179.000000	98.604726
1178.000000	98.613039
1177.000000	98.617691
1176.000000	98.619023
1175.000000	98.618917
1174.000000	98.619119
1173.000000	98.620015
1172.000000	98.621523
1171.000000	98.624713
1170.000000	98.630802
1169.000000	98.637934
1168.000000	98.641092
1167.000000	98.637512
1166.000000	98.631214
1165.000000	98.629468
1164.000000	98.634833
1163.000000	98.643084
1162.000000	98.649285
1161.000000	98.653456
1160.000000	98.659299
1159.000000	98.669590
1158.000000	98.684159
1157.000000	98.700502
1156.000000	98.714867
1155.000000	98.724241
1154.000000	98.729227
1153.000000	98.734324
1152.000000	98.744006
1151.000000	98.759278
1150.000000	98.778625
1149.000000	98.800634
1148.000000	98.823949
1147.000000	98.845940
1146.000000	98.863905
1145.000000	98.877577
1144.000000	98.888891
1143.000000	98.899334
1142.000000	98.908575
1141.000000	98.915367
1140.000000	98.919002
1139.000000	98.920414
1138.000000	98.922466
1137.000000	98.928468
1136.000000	98.939533
1135.000000	98.953779
1134.000000	98.968404
1133.000000	98.981708
1132.000000	98.992767
1131.000000	99.000583
1130.000000	99.004693
1129.000000	99.005931
1128.000000	99.006076
1127.000000	99.007591
1126.000000	99.013267
1125.000000	99.023753
1124.000000	99.035050
1123.000000	99.040926
1122.000000	99.039501
1121.000000	99.035568
1120.000000	99.034833
1119.000000	99.037480
1118.000000	99.038538
1117.000000	99.032925
1116.000000	99.019129
1115.000000	99.000328
1114.000000	98.983508
1113.000000	98.974882
1112.000000	98.973923
1111.000000	98.973868
1110.000000	98.970077
1109.000000	98.965394
1108.000000	98.964733
1107.000000	98.967382
1106.000000	98.968975
1105.000000	98.968828
1104.000000	98.969660
1103.000000	98.970427
1102.000000	98.965198
1101.000000	98.951196
1100.000000	98.933604
1099.000000	98.919836
1098.000000	98.912020
1097.000000	98.906686
1096.000000	98.899935
1095.000000	98.890553
1094.000000	98.879893
1093.000000	98.870461
1092.000000	98.863336
1091.000000	98.855499
1090.000000	98.840976
1089.000000	98.816530
1088.000000	98.785298
1087.000000	98.753662
1086.000000	98.725937
1085.000000	98.703526
1084.000000	98.687528
1083.000000	98.678640
1082.000000	98.674096
1081.000000	98.667838
1080.000000	98.656345
1079.000000	98.643738
1078.000000	98.639492
1077.000000	98.650551
1076.000000	98.675182
1075.000000	98.703973
1074.000000	98.726860
1073.000000	98.739867
1072.000000	98.745540
1071.000000	98.747900
1070.000000	98.748452
1069.000000	98.747171
1068.000000	98.745474
1067.000000	98.746106
1066.000000	98.750310
1065.000000	98.756452
1064.000000	98.761717
1063.000000	98.764127
1062.000000	98.762834
1061.000000	98.758074
1060.000000	98.751865
1059.000000	98.747736
1058.000000	98.748307
1057.000000	98.753146
1056.000000	98.759641
1055.000000	98.765485
1054.000000	98.769357
1053.000000	98.770096
1052.000000	98.767667
1051.000000	98.765459
1050.000000	98.768911
1049.000000	98.779672
1048.000000	98.792795
1047.000000	98.801678
1046.000000	98.804760
1045.000000	98.805189
1044.000000	98.805041
1043.000000	98.802879
1042.000000	98.796808
1041.000000	98.787350
1040.000000	98.776476
1039.000000	98.765734
1038.000000	98.756060
1037.000000	98.747324
1036.000000	98.737269
1035.000000	98.723018
1034.000000	98.705118
1033.000000	98.688537
1032.000000	98.678171
1031.000000	98.674568
1030.000000	98.675145
1029.000000	98.678113
1028.000000	98.683351
1027.000000	98.690724
1026.000000	98.699774
1025.000000	98.710490
1024.000000	98.722852
1023.000000	98.736261
1022.000000	98.751287
1021.000000	98.770581
1020.000000	98.795067
1019.000000	98.819523
1018.000000	98.835148
1017.000000	98.837691
1016.000000	98.831076
1015.000000	98.822842
1014.000000	98.818386
1013.000000	98.820238
1012.000000	98.829934
1011.000000	98.847697
1010.000000	98.871019
1009.000000	98.895912
1008.000000	98.919715
1007.000000	98.941583
1006.000000	98.960821
1005.000000	98.976550
1004.000000	98.989563
1003.000000	99.003056
1002.000000	99.020097
1001.000000	99.040603
1000.000000	99.061720
999.000000	99.081056
998.000000	99.098337
997.000000	99.113746
996.000000	99.126574
995.000000	99.136992
994.000000	99.147895
993.000000	99.162623
992.000000	99.181051
991.000000	99.199563
990.000000	99.214761
989.000000	99.225619
988.000000	99.232760
987.000000	99.238488
986.000000	99.247233
985.000000	99.262099
984.000000	99.279642
983.000000	99.291722
982.000000	99.294805
981.000000	99.294693
980.000000	99.299321
979.000000	99.308906
978.000000	99.316308
977.000000	99.315591
976.000000	99.307378
975.000000	99.297082
974.000000	99.290679
973.000000	99.291350
972.000000	99.297223
971.000000	99.302506
970.000000	99.303383
969.000000	99.302632
968.000000	99.306333
967.000000	99.316641
966.000000	99.330465
965.000000	99.344830
964.000000	99.359738
963.000000	99.374761
962.000000	99.386442
961.000000	99.392019
960.000000	99.394311
959.000000	99.400117
958.000000	99.413499
957.000000	99.431625
956.000000	99.447714
955.000000	99.458002
954.000000	99.465371
953.000000	99.475553
952.000000	99.489699
951.000000	99.502129
950.000000	99.506673
949.000000	99.503757
948.000000	99.499312
947.000000	99.497525
946.000000	99.497002
945.000000	99.494200
944.000000	99.488248
943.000000	99.481826
942.000000	99.479118
941.000000	99.483426
940.000000	99.494918
939.000000	99.509556
938.000000	99.521784
937.000000	99.529896
936.000000	99.537603
935.000000	99.548833
934.000000	99.561971
933.000000	99.571096
932.000000	99.572979
931.000000	99.570863
930.000000	99.570594
929.000000	99.574597
928.000000	99.580963
927.000000	99.587676
926.000000	99.595569
925.000000	99.606374
924.000000	99.619182
923.000000	99.630079
922.000000	99.635236
921.000000	99.633929
920.000000	99.629357
919.000000	99.627249
918.000000	99.632280
917.000000	99.643970
916.000000	99.656530
915.000000	99.664216
914.000000	99.666926
913.000000	99.669064
912.000000	99.673257
911.000000	99.677623
910.000000	99.679473
909.000000	99.679557
908.000000	99.681533
907.000000	99.688462
906.000000	99.700321
905.000000	99.713418
904.000000	99.722246
903.000000	99.724072
902.000000	99.722328
901.000000	99.723687
900.000000	99.731447
899.000000	99.743680
898.000000	99.757724
897.000000	99.772600
896.000000	99.785996
895.000000	99.793127
894.000000	99.792185
893.000000	99.788571
892.000000	99.790457
891.000000	99.801267
890.000000	99.818186
889.000000	99.835786
888.000000	99.848090
887.000000	99.848409
886.000000	99.831235
885.000000	99.794629
884.000000	99.738981
883.000000	99.664066
882.000000	99.566693
881.000000	99.439277
880.000000	99.269155
879.000000	99.043445
878.000000	98.758757
877.000000	98.424578
876.000000	98.059107
875.000000	97.689892
874.000000	97.366184
873.000000	97.161707
872.000000	97.147576
871.000000	97.343069
870.000000	97.690253
869.000000	98.085721
868.000000	98.439670
867.000000	98.711572
866.000000	98.904287
865.000000	99.039443
864.000000	99.139491
863.000000	99.221306
862.000000	99.294054
861.000000	99.359045
860.000000	99.413429
859.000000	99.455555
858.000000	99.487625
857.000000	99.512731
856.000000	99.531353
855.000000	99.543432
854.000000	99.552842
853.000000	99.565788
852.000000	99.582682
851.000000	99.595340
850.000000	99.596332
849.000000	99.588936
848.000000	99.583853
847.000000	99.587555
846.000000	99.598740
845.000000	99.615173
844.000000	99.637112
843.000000	99.662293
842.000000	99.683840
841.000000	99.697525
840.000000	99.706648
839.000000	99.715732
838.000000	99.723361
837.000000	99.726453
836.000000	99.728626
835.000000	99.737489
834.000000	99.753801
833.000000	99.769318
832.000000	99.777556
831.000000	99.782017
830.000000	99.790644
829.000000	99.804806
828.000000	99.817099
827.000000	99.819510
826.000000	99.811150
825.000000	99.798044
824.000000	99.787502
823.000000	99.783478
822.000000	99.786052
821.000000	99.793441
820.000000	99.803167
819.000000	99.811676
818.000000	99.815042
817.000000	99.811813
816.000000	99.804900
815.000000	99.799478
814.000000	99.798711
813.000000	99.801762
812.000000	99.805218
811.000000	99.805424
810.000000	99.800620
809.000000	99.792897
808.000000	99.787930
807.000000	99.790566
806.000000	99.799755
805.000000	99.809071
804.000000	99.812957
803.000000	99.811447
802.000000	99.808410
801.000000	99.806913
800.000000	99.807273
799.000000	99.807796
798.000000	99.805493
797.000000	99.797217
796.000000	99.782676
795.000000	99.767029
794.000000	99.758291
793.000000	99.760127
792.000000	99.767911
791.000000	99.773787
790.000000	99.776025
789.000000	99.781164
788.000000	99.794882
787.000000	99.812351
786.000000	99.821493
785.000000	99.816695
784.000000	99.805340
783.000000	99.798260
782.000000	99.797227
781.000000	99.796204
780.000000	99.792542
779.000000	99.790330
778.000000	99.791708
777.000000	99.791047
776.000000	99.781731
775.000000	99.765492
774.000000	99.751115
773.000000	99.745584
772.000000	99.749374
771.000000	99.758114
770.000000	99.764921
769.000000	99.762799
768.000000	99.750011
767.000000	99.734220
766.000000	99.727739
765.000000	99.736458
764.000000	99.754917
763.000000	99.772747
762.000000	99.783661
761.000000	99.787416
760.000000	99.786018
759.000000	99.781032
758.000000	99.774470
757.000000	99.769936
756.000000	99.771358
755.000000	99.780214
754.000000	99.793531
753.000000	99.804732
752.000000	99.807474
751.000000	99.799719
750.000000	99.784787
749.000000	99.769202
748.000000	99.759517
747.000000	99.759176
746.000000	99.766330
745.000000	99.774493
744.000000	99.776675
743.000000	99.769883
742.000000	99.756050
741.000000	99.739776
740.000000	99.726341
739.000000	99.720181
738.000000	99.721481
737.000000	99.723584
736.000000	99.717109
735.000000	99.699365
734.000000	99.678313
733.000000	99.664386
732.000000	99.658794
731.000000	99.652642
730.000000	99.638142
729.000000	99.617423
728.000000	99.600068
727.000000	99.592831
726.000000	99.591751
725.000000	99.587000
724.000000	99.574643
723.000000	99.559800
722.000000	99.546890
721.000000	99.531208
720.000000	99.504583
719.000000	99.466017
718.000000	99.420440
717.000000	99.366575
716.000000	99.292736
715.000000	99.192180
714.000000	99.082640
713.000000	99.003532
712.000000	98.988071
711.000000	99.035847
710.000000	99.113669
709.000000	99.182120
708.000000	99.221047
707.000000	99.233953
706.000000	99.232524
705.000000	99.225313
704.000000	99.220188
703.000000	99.224709
702.000000	99.239716
701.000000	99.257541
700.000000	99.269802
699.000000	99.276082
698.000000	99.278928
697.000000	99.276080
696.000000	99.266242
695.000000	99.256329
694.000000	99.257676
693.000000	99.273211
692.000000	99.293270
691.000000	99.308624
690.000000	99.317041
689.000000	99.317436
688.000000	99.306878
687.000000	99.286725
686.000000	99.267227
685.000000	99.256549
684.000000	99.249274
683.000000	99.235965
682.000000	99.218892
681.000000	99.208427
680.000000	99.206137
679.000000	99.203171
678.000000	99.195231
677.000000	99.183713
676.000000	99.169360
675.000000	99.158074
674.000000	99.155395
673.000000	99.159273
672.000000	99.174985
671.000000	99.232683
670.000000	99.359838
669.000000	99.528173
668.000000	99.621287
667.000000	99.533849
666.000000	99.345891
665.000000	99.180294
664.000000	99.082205
663.000000	99.044272
662.000000	99.041619
661.000000	99.054489
660.000000	99.068650
659.000000	99.073624
658.000000	99.065939
657.000000	99.047502
656.000000	99.026183
655.000000	99.018813
654.000000	99.032753
653.000000	99.053969
652.000000	99.067697
651.000000	99.074598
650.000000	99.079620
649.000000	99.077562
648.000000	99.063777
647.000000	99.047655
646.000000	99.042065
645.000000	99.049684
644.000000	99.065215
643.000000	99.081383
642.000000	99.088836
641.000000	99.078149
640.000000	99.051503
639.000000	99.026804
638.000000	99.019755
637.000000	99.027979
636.000000	99.040213
635.000000	99.050417
634.000000	99.056311
633.000000	99.053793
632.000000	99.042749
631.000000	99.033955
630.000000	99.039701
629.000000	99.058318
628.000000	99.076919
627.000000	99.086925
626.000000	99.088969
625.000000	99.086749
624.000000	99.080206
623.000000	99.066323
622.000000	99.045432
621.000000	99.025457
620.000000	99.017409
619.000000	99.023651
618.000000	99.032490
617.000000	99.029322
616.000000	99.012094
615.000000	98.990177
614.000000	98.971012
613.000000	98.956678
612.000000	98.952167
611.000000	98.963559
610.000000	98.984813
609.000000	98.999602
608.000000	99.002352
607.000000	99.006659
606.000000	99.023509
605.000000	99.044254
604.000000	99.053419
603.000000	99.049524
602.000000	99.044450
601.000000	99.047262
600.000000	99.057822
599.000000	99.071870
598.000000	99.083449
597.000000	99.085454
596.000000	99.076236
595.000000	99.064324
594.000000	99.059949
593.000000	99.061997
592.000000	99.059670
591.000000	99.047284
590.000000	99.031217
589.000000	99.021292
588.000000	99.020460
587.000000	99.022851
586.000000	99.018116
585.000000	98.999968
584.000000	98.973437
583.000000	98.951754
582.000000	98.944969
581.000000	98.954163
580.000000	98.974975
579.000000	98.999523
578.000000	99.014251
577.000000	99.007603
576.000000	98.985717
575.000000	98.971055
574.000000	98.975331
573.000000	98.983753
572.000000	98.976368
571.000000	98.953480
570.000000	98.932411
569.000000	98.924264
568.000000	98.924319
567.000000	98.922365
566.000000	98.910391
565.000000	98.883412
564.000000	98.844521
563.000000	98.809535
562.000000	98.796929
561.000000	98.811231
560.000000	98.840432
559.000000	98.866159
558.000000	98.873097
557.000000	98.856612
556.000000	98.828125
555.000000	98.809046
554.000000	98.811052
553.000000	98.825408
552.000000	98.837717
551.000000	98.846454
550.000000	98.860491
549.000000	98.883514
548.000000	98.908902
547.000000	98.925231
546.000000	98.921217
545.000000	98.892807
544.000000	98.852218
543.000000	98.822833
542.000000	98.819343
541.000000	98.836761
540.000000	98.862245
539.000000	98.887897
538.000000	98.905587
537.000000	98.903780
536.000000	98.881738
535.000000	98.858071
534.000000	98.850230
533.000000	98.850695
532.000000	98.837895
531.000000	98.807053
530.000000	98.775648
529.000000	98.758862
528.000000	98.753834
527.000000	98.750315
526.000000	98.745627
525.000000	98.745522
524.000000	98.754147
523.000000	98.766404
522.000000	98.771746
521.000000	98.769566
520.000000	98.780901
519.000000	98.833747
518.000000	98.926738
517.000000	99.019561
516.000000	99.074921
515.000000	99.092214
514.000000	99.089198
513.000000	99.073588
512.000000	99.048740
511.000000	99.030545
510.000000	99.036177
509.000000	99.060381
508.000000	99.079168
507.000000	99.077732
506.000000	99.061544
505.000000	99.040555
504.000000	99.017752
503.000000	98.997371
502.000000	98.991184
501.000000	99.006480
500.000000	99.036794
499.000000	99.071036
498.000000	99.100808
497.000000	99.118216
496.000000	99.116896
495.000000	99.099427
494.000000	99.081601
493.000000	99.084711
492.000000	99.116848
491.000000	99.160066
490.000000	99.182844
489.000000	99.173614
488.000000	99.153063
487.000000	99.145926
486.000000	99.150619
485.000000	99.151070
484.000000	99.154797
483.000000	99.191771
482.000000	99.265274
481.000000	99.333259
480.000000	99.352434
479.000000	99.318628
478.000000	99.256385
477.000000	99.189643
476.000000	99.135063
475.000000	99.107758
474.000000	99.114774
473.000000	99.149147
472.000000	99.197880
471.000000	99.249542
470.000000	99.287936
469.000000	99.295267
468.000000	99.272521
467.000000	99.245153
466.000000	99.235821
465.000000	99.245578
464.000000	99.272963
463.000000	99.322054
462.000000	99.375999
461.000000	99.397751
460.000000	99.382476
459.000000	99.382036
458.000000	99.449252
457.000000	99.560916
456.000000	99.650547
455.000000	99.708150
454.000000	99.755134
453.000000	99.784055
452.000000	99.809472
451.000000	99.808738
450.000000	99.798124
