PE IR       SUBTECH     SPECTRUM    ASCII       PEDS        4.00        
   -1
AG10-C005_1.ASC
23/09/08
10:26:36.00
23/09/08
11:14:38.00
uco
Sample 005 By uco Date Friday, September 08 2023
450.000000
#HDR
-1
-1
#GR
cm-1
%T
1.0
0.0
4000.000000
-1.000000
3551
8
99.545187
94.391004
#DATA
4000.000000	99.493404
3999.000000	99.496199
3998.000000	99.501706
3997.000000	99.506385
3996.000000	99.508655
3995.000000	99.509333
3994.000000	99.509850
3993.000000	99.510373
3992.000000	99.509721
3991.000000	99.506907
3990.000000	99.502410
3989.000000	99.497814
3988.000000	99.494389
3987.000000	99.492054
3986.000000	99.489628
3985.000000	99.486183
3984.000000	99.482205
3983.000000	99.479356
3982.000000	99.478871
3981.000000	99.480274
3980.000000	99.481972
3979.000000	99.483087
3978.000000	99.484307
3977.000000	99.486800
3976.000000	99.490544
3975.000000	99.493940
3974.000000	99.495189
3973.000000	99.493657
3972.000000	99.489934
3971.000000	99.484993
3970.000000	99.479585
3969.000000	99.474436
3968.000000	99.470538
3967.000000	99.469016
3966.000000	99.470382
3965.000000	99.473768
3964.000000	99.477097
3963.000000	99.478364
3962.000000	99.477137
3961.000000	99.474634
3960.000000	99.472420
3959.000000	99.471355
3958.000000	99.471679
3957.000000	99.473435
3956.000000	99.476134
3955.000000	99.478488
3954.000000	99.478929
3953.000000	99.476546
3952.000000	99.471513
3951.000000	99.464825
3950.000000	99.458042
3949.000000	99.453277
3948.000000	99.452841
3947.000000	99.457946
3946.000000	99.467199
3945.000000	99.476277
3944.000000	99.480227
3943.000000	99.476895
3942.000000	99.467997
3941.000000	99.456922
3940.000000	99.446516
3939.000000	99.438969
3938.000000	99.436482
3937.000000	99.440725
3936.000000	99.450622
3935.000000	99.461804
3934.000000	99.469173
3933.000000	99.470654
3932.000000	99.468464
3931.000000	99.466379
3930.000000	99.466668
3929.000000	99.469396
3928.000000	99.473011
3927.000000	99.474926
3926.000000	99.473408
3925.000000	99.470023
3924.000000	99.468100
3923.000000	99.468318
3922.000000	99.467901
3921.000000	99.464028
3920.000000	99.457086
3919.000000	99.450381
3918.000000	99.447328
3917.000000	99.448786
3916.000000	99.452389
3915.000000	99.454384
3914.000000	99.452431
3913.000000	99.447149
3912.000000	99.441686
3911.000000	99.439669
3910.000000	99.442976
3909.000000	99.451527
3908.000000	99.463236
3907.000000	99.473900
3906.000000	99.478051
3905.000000	99.473512
3904.000000	99.465021
3903.000000	99.459635
3902.000000	99.458999
3901.000000	99.459066
3900.000000	99.456763
3899.000000	99.453344
3898.000000	99.451111
3897.000000	99.449933
3896.000000	99.448520
3895.000000	99.446197
3894.000000	99.442601
3893.000000	99.437746
3892.000000	99.433947
3891.000000	99.435270
3890.000000	99.442531
3889.000000	99.452648
3888.000000	99.459186
3887.000000	99.456824
3886.000000	99.450863
3885.000000	99.452752
3884.000000	99.464195
3883.000000	99.475460
3882.000000	99.475832
3881.000000	99.464904
3880.000000	99.453494
3879.000000	99.450738
3878.000000	99.456209
3877.000000	99.463376
3876.000000	99.465583
3875.000000	99.463198
3874.000000	99.463833
3873.000000	99.471889
3872.000000	99.481175
3871.000000	99.482670
3870.000000	99.478500
3869.000000	99.477819
3868.000000	99.482575
3867.000000	99.486121
3866.000000	99.481483
3865.000000	99.469397
3864.000000	99.456589
3863.000000	99.446856
3862.000000	99.440319
3861.000000	99.437097
3860.000000	99.436745
3859.000000	99.438188
3858.000000	99.441580
3857.000000	99.448493
3856.000000	99.455878
3855.000000	99.454200
3854.000000	99.446579
3853.000000	99.447356
3852.000000	99.453202
3851.000000	99.454697
3850.000000	99.451639
3849.000000	99.447894
3848.000000	99.447031
3847.000000	99.450033
3846.000000	99.455654
3845.000000	99.462015
3844.000000	99.467552
3843.000000	99.471452
3842.000000	99.473362
3841.000000	99.472794
3840.000000	99.469668
3839.000000	99.466351
3838.000000	99.465522
3837.000000	99.466703
3836.000000	99.467508
3835.000000	99.467023
3834.000000	99.465723
3833.000000	99.464195
3832.000000	99.463588
3831.000000	99.464740
3830.000000	99.466994
3829.000000	99.468166
3828.000000	99.466109
3827.000000	99.462027
3826.000000	99.460956
3825.000000	99.466875
3824.000000	99.477135
3823.000000	99.482628
3822.000000	99.479466
3821.000000	99.476584
3820.000000	99.479078
3819.000000	99.480883
3818.000000	99.473656
3817.000000	99.455029
3816.000000	99.436899
3815.000000	99.432706
3814.000000	99.440063
3813.000000	99.448436
3812.000000	99.453004
3811.000000	99.456658
3810.000000	99.462589
3809.000000	99.467210
3808.000000	99.464700
3807.000000	99.457908
3806.000000	99.455847
3805.000000	99.462626
3804.000000	99.473361
3803.000000	99.478272
3802.000000	99.475871
3801.000000	99.474677
3800.000000	99.476957
3799.000000	99.478035
3798.000000	99.473719
3797.000000	99.464441
3796.000000	99.455432
3795.000000	99.450353
3794.000000	99.448152
3793.000000	99.445981
3792.000000	99.442908
3791.000000	99.440054
3790.000000	99.439029
3789.000000	99.440624
3788.000000	99.444359
3787.000000	99.448615
3786.000000	99.452201
3785.000000	99.455941
3784.000000	99.461577
3783.000000	99.468158
3782.000000	99.470848
3781.000000	99.464635
3780.000000	99.450806
3779.000000	99.437782
3778.000000	99.432514
3777.000000	99.434734
3776.000000	99.440085
3775.000000	99.445699
3774.000000	99.451237
3773.000000	99.455882
3772.000000	99.457191
3771.000000	99.455521
3770.000000	99.456102
3769.000000	99.461359
3768.000000	99.466218
3767.000000	99.464460
3766.000000	99.456151
3765.000000	99.447597
3764.000000	99.444155
3763.000000	99.445015
3762.000000	99.445729
3761.000000	99.444366
3760.000000	99.443506
3759.000000	99.444929
3758.000000	99.445984
3757.000000	99.445333
3756.000000	99.445909
3755.000000	99.450743
3754.000000	99.459002
3753.000000	99.467166
3752.000000	99.472193
3751.000000	99.471842
3750.000000	99.465599
3749.000000	99.459342
3748.000000	99.461878
3747.000000	99.473274
3746.000000	99.480830
3745.000000	99.479555
3744.000000	99.481533
3743.000000	99.489745
3742.000000	99.496742
3741.000000	99.499855
3740.000000	99.502324
3739.000000	99.507148
3738.000000	99.510156
3737.000000	99.505599
3736.000000	99.498559
3735.000000	99.499039
3734.000000	99.504595
3733.000000	99.504417
3732.000000	99.496156
3731.000000	99.486915
3730.000000	99.483101
3729.000000	99.484780
3728.000000	99.488255
3727.000000	99.492170
3726.000000	99.497611
3725.000000	99.502492
3724.000000	99.502365
3723.000000	99.496355
3722.000000	99.488517
3721.000000	99.482869
3720.000000	99.479427
3719.000000	99.475559
3718.000000	99.470240
3717.000000	99.466524
3716.000000	99.468185
3715.000000	99.474739
3714.000000	99.481001
3713.000000	99.482796
3712.000000	99.483207
3711.000000	99.488001
3710.000000	99.495612
3709.000000	99.499130
3708.000000	99.494890
3707.000000	99.485365
3706.000000	99.475961
3705.000000	99.470282
3704.000000	99.467915
3703.000000	99.466463
3702.000000	99.465241
3701.000000	99.465326
3700.000000	99.466916
3699.000000	99.468417
3698.000000	99.467783
3697.000000	99.465182
3696.000000	99.463146
3695.000000	99.462778
3694.000000	99.462620
3693.000000	99.461582
3692.000000	99.460865
3691.000000	99.462118
3690.000000	99.465018
3689.000000	99.467662
3688.000000	99.468286
3687.000000	99.467766
3686.000000	99.468489
3685.000000	99.471013
3684.000000	99.474423
3683.000000	99.477908
3682.000000	99.480237
3681.000000	99.481038
3680.000000	99.483788
3679.000000	99.493039
3678.000000	99.505785
3677.000000	99.510355
3676.000000	99.505431
3675.000000	99.503004
3674.000000	99.506525
3673.000000	99.510469
3672.000000	99.507121
3671.000000	99.492816
3670.000000	99.477566
3669.000000	99.472334
3668.000000	99.474514
3667.000000	99.477091
3666.000000	99.476810
3665.000000	99.473827
3664.000000	99.470221
3663.000000	99.468231
3662.000000	99.468802
3661.000000	99.472028
3660.000000	99.477636
3659.000000	99.483930
3658.000000	99.486934
3657.000000	99.484218
3656.000000	99.478854
3655.000000	99.475315
3654.000000	99.475478
3653.000000	99.477699
3652.000000	99.478356
3651.000000	99.477922
3650.000000	99.482849
3649.000000	99.492332
3648.000000	99.494435
3647.000000	99.484493
3646.000000	99.469230
3645.000000	99.454559
3644.000000	99.440750
3643.000000	99.426763
3642.000000	99.414512
3641.000000	99.407646
3640.000000	99.406889
3639.000000	99.409642
3638.000000	99.413564
3637.000000	99.418047
3636.000000	99.422511
3635.000000	99.425993
3634.000000	99.429553
3633.000000	99.435684
3632.000000	99.443783
3631.000000	99.446188
3630.000000	99.436733
3629.000000	99.426161
3628.000000	99.425877
3627.000000	99.430001
3626.000000	99.430810
3625.000000	99.427952
3624.000000	99.425308
3623.000000	99.426540
3622.000000	99.431081
3621.000000	99.434783
3620.000000	99.435030
3619.000000	99.432805
3618.000000	99.429283
3617.000000	99.425157
3616.000000	99.421104
3615.000000	99.416435
3614.000000	99.410640
3613.000000	99.405321
3612.000000	99.402506
3611.000000	99.402017
3610.000000	99.401485
3609.000000	99.399380
3608.000000	99.396293
3607.000000	99.392114
3606.000000	99.385515
3605.000000	99.376880
3604.000000	99.368831
3603.000000	99.363850
3602.000000	99.361850
3601.000000	99.360817
3600.000000	99.359516
3599.000000	99.358655
3598.000000	99.359182
3597.000000	99.360105
3596.000000	99.358945
3595.000000	99.354887
3594.000000	99.350788
3593.000000	99.350246
3592.000000	99.353970
3591.000000	99.358919
3590.000000	99.359748
3589.000000	99.353279
3588.000000	99.343532
3587.000000	99.337431
3586.000000	99.335698
3585.000000	99.334753
3584.000000	99.332188
3583.000000	99.326891
3582.000000	99.318264
3581.000000	99.307007
3580.000000	99.295671
3579.000000	99.287035
3578.000000	99.281924
3577.000000	99.279107
3576.000000	99.277344
3575.000000	99.276818
3574.000000	99.278442
3573.000000	99.282355
3572.000000	99.287711
3571.000000	99.293306
3570.000000	99.297172
3569.000000	99.297018
3568.000000	99.293437
3567.000000	99.289539
3566.000000	99.285126
3565.000000	99.277119
3564.000000	99.265216
3563.000000	99.252226
3562.000000	99.241607
3561.000000	99.235440
3560.000000	99.233114
3559.000000	99.231782
3558.000000	99.228826
3557.000000	99.223987
3556.000000	99.218827
3555.000000	99.214533
3554.000000	99.210845
3553.000000	99.207282
3552.000000	99.204203
3551.000000	99.201781
3550.000000	99.198746
3549.000000	99.193027
3548.000000	99.184140
3547.000000	99.174864
3546.000000	99.169458
3545.000000	99.169450
3544.000000	99.172177
3543.000000	99.173499
3542.000000	99.170990
3541.000000	99.165195
3540.000000	99.158691
3539.000000	99.153927
3538.000000	99.151309
3537.000000	99.149402
3536.000000	99.146866
3535.000000	99.143998
3534.000000	99.142312
3533.000000	99.142808
3532.000000	99.145064
3531.000000	99.147694
3530.000000	99.149521
3529.000000	99.150283
3528.000000	99.150310
3527.000000	99.149430
3526.000000	99.146526
3525.000000	99.140340
3524.000000	99.130512
3523.000000	99.117919
3522.000000	99.104450
3521.000000	99.092725
3520.000000	99.085193
3519.000000	99.082612
3518.000000	99.083319
3517.000000	99.084508
3516.000000	99.084621
3515.000000	99.084165
3514.000000	99.084134
3513.000000	99.084150
3512.000000	99.082811
3511.000000	99.079719
3510.000000	99.076375
3509.000000	99.074446
3508.000000	99.073637
3507.000000	99.071974
3506.000000	99.067944
3505.000000	99.062064
3504.000000	99.056754
3503.000000	99.054206
3502.000000	99.054059
3501.000000	99.053530
3500.000000	99.049783
3499.000000	99.042099
3498.000000	99.032534
3497.000000	99.024676
3496.000000	99.020678
3495.000000	99.019290
3494.000000	99.017499
3493.000000	99.014108
3492.000000	99.010659
3491.000000	99.008637
3490.000000	99.006814
3489.000000	99.002300
3488.000000	98.994074
3487.000000	98.984448
3486.000000	98.976732
3485.000000	98.972232
3484.000000	98.970099
3483.000000	98.969392
3482.000000	98.970372
3481.000000	98.973422
3480.000000	98.977377
3479.000000	98.979757
3478.000000	98.978854
3477.000000	98.975150
3476.000000	98.970522
3475.000000	98.966304
3474.000000	98.962547
3473.000000	98.959124
3472.000000	98.956665
3471.000000	98.955809
3470.000000	98.955925
3469.000000	98.955214
3468.000000	98.952143
3467.000000	98.946795
3466.000000	98.941052
3465.000000	98.937547
3464.000000	98.937798
3463.000000	98.940534
3462.000000	98.942039
3461.000000	98.939095
3460.000000	98.931961
3459.000000	98.924122
3458.000000	98.919044
3457.000000	98.917650
3456.000000	98.918629
3455.000000	98.920228
3454.000000	98.921274
3453.000000	98.921088
3452.000000	98.919299
3451.000000	98.915770
3450.000000	98.910630
3449.000000	98.904749
3448.000000	98.900169
3447.000000	98.898757
3446.000000	98.899500
3445.000000	98.898441
3444.000000	98.892441
3443.000000	98.882626
3442.000000	98.873521
3441.000000	98.868715
3440.000000	98.867820
3439.000000	98.867723
3438.000000	98.865992
3437.000000	98.862801
3436.000000	98.860194
3435.000000	98.860003
3434.000000	98.862264
3433.000000	98.865253
3432.000000	98.866969
3431.000000	98.866420
3430.000000	98.863680
3429.000000	98.859359
3428.000000	98.854491
3427.000000	98.850490
3426.000000	98.848250
3425.000000	98.847051
3424.000000	98.844933
3423.000000	98.840666
3422.000000	98.835095
3421.000000	98.830164
3420.000000	98.826638
3419.000000	98.823242
3418.000000	98.817995
3417.000000	98.809874
3416.000000	98.799438
3415.000000	98.788700
3414.000000	98.780472
3413.000000	98.776808
3412.000000	98.777202
3411.000000	98.778601
3410.000000	98.778064
3409.000000	98.775622
3408.000000	98.774066
3407.000000	98.775846
3406.000000	98.780637
3405.000000	98.785918
3404.000000	98.789281
3403.000000	98.789876
3402.000000	98.788204
3401.000000	98.785107
3400.000000	98.781039
3399.000000	98.776186
3398.000000	98.771252
3397.000000	98.767706
3396.000000	98.766676
3395.000000	98.767607
3394.000000	98.768414
3393.000000	98.767057
3392.000000	98.762785
3391.000000	98.756144
3390.000000	98.748476
3389.000000	98.741536
3388.000000	98.736785
3387.000000	98.734422
3386.000000	98.733157
3385.000000	98.731097
3384.000000	98.726748
3383.000000	98.719647
3382.000000	98.711022
3381.000000	98.703831
3380.000000	98.700834
3379.000000	98.701749
3378.000000	98.702990
3377.000000	98.701043
3376.000000	98.695785
3375.000000	98.689969
3374.000000	98.685835
3373.000000	98.682897
3372.000000	98.678686
3371.000000	98.671012
3370.000000	98.659727
3369.000000	98.647017
3368.000000	98.636005
3367.000000	98.628471
3366.000000	98.623685
3365.000000	98.619614
3364.000000	98.615029
3363.000000	98.610161
3362.000000	98.605703
3361.000000	98.601678
3360.000000	98.597048
3359.000000	98.590048
3358.000000	98.579372
3357.000000	98.565722
3356.000000	98.551906
3355.000000	98.540616
3354.000000	98.532199
3353.000000	98.525258
3352.000000	98.519064
3351.000000	98.514161
3350.000000	98.510477
3349.000000	98.506229
3348.000000	98.499518
3347.000000	98.490365
3346.000000	98.480386
3345.000000	98.470805
3344.000000	98.461485
3343.000000	98.451751
3342.000000	98.441376
3341.000000	98.430558
3340.000000	98.419619
3339.000000	98.409283
3338.000000	98.400928
3337.000000	98.395729
3336.000000	98.393010
3335.000000	98.389830
3334.000000	98.383075
3333.000000	98.372373
3332.000000	98.360644
3331.000000	98.351528
3330.000000	98.346381
3329.000000	98.343704
3328.000000	98.340870
3327.000000	98.335938
3326.000000	98.328429
3325.000000	98.319395
3324.000000	98.310902
3323.000000	98.304714
3322.000000	98.300980
3321.000000	98.298383
3320.000000	98.295527
3319.000000	98.291751
3318.000000	98.286604
3317.000000	98.279325
3316.000000	98.269702
3315.000000	98.259422
3314.000000	98.251779
3313.000000	98.249252
3312.000000	98.251070
3311.000000	98.253441
3310.000000	98.252680
3309.000000	98.248363
3308.000000	98.243192
3307.000000	98.239693
3306.000000	98.237508
3305.000000	98.234174
3304.000000	98.227957
3303.000000	98.219409
3302.000000	98.210576
3301.000000	98.203449
3300.000000	98.199151
3299.000000	98.197827
3298.000000	98.198882
3297.000000	98.201487
3296.000000	98.204886
3295.000000	98.208059
3294.000000	98.209526
3293.000000	98.208353
3292.000000	98.205403
3291.000000	98.202733
3290.000000	98.201348
3289.000000	98.200118
3288.000000	98.197390
3287.000000	98.193199
3286.000000	98.189365
3285.000000	98.187686
3284.000000	98.188440
3283.000000	98.190416
3282.000000	98.192075
3281.000000	98.192828
3280.000000	98.193437
3279.000000	98.194941
3278.000000	98.196985
3277.000000	98.197623
3276.000000	98.195434
3275.000000	98.191666
3274.000000	98.189340
3273.000000	98.190075
3272.000000	98.192512
3271.000000	98.194203
3270.000000	98.194347
3269.000000	98.193957
3268.000000	98.193982
3267.000000	98.194408
3266.000000	98.195302
3265.000000	98.197671
3264.000000	98.202417
3263.000000	98.208951
3262.000000	98.215714
3261.000000	98.221798
3260.000000	98.227204
3259.000000	98.231502
3258.000000	98.233297
3257.000000	98.231728
3256.000000	98.228040
3255.000000	98.225008
3254.000000	98.224741
3253.000000	98.227356
3252.000000	98.231591
3251.000000	98.236203
3250.000000	98.240922
3249.000000	98.246425
3248.000000	98.253448
3247.000000	98.261641
3246.000000	98.269374
3245.000000	98.275001
3244.000000	98.278045
3243.000000	98.278620
3242.000000	98.276246
3241.000000	98.270660
3240.000000	98.264311
3239.000000	98.262504
3238.000000	98.269179
3237.000000	98.282462
3236.000000	98.295620
3235.000000	98.303097
3234.000000	98.304748
3233.000000	98.303857
3232.000000	98.302442
3231.000000	98.300055
3230.000000	98.296749
3229.000000	98.294949
3228.000000	98.297143
3227.000000	98.302525
3226.000000	98.307400
3225.000000	98.309001
3224.000000	98.308053
3223.000000	98.307385
3222.000000	98.308582
3221.000000	98.310545
3220.000000	98.310989
3219.000000	98.308949
3218.000000	98.305733
3217.000000	98.303641
3216.000000	98.304091
3215.000000	98.306854
3214.000000	98.310658
3213.000000	98.314163
3212.000000	98.316407
3211.000000	98.316848
3210.000000	98.315461
3209.000000	98.312928
3208.000000	98.310586
3207.000000	98.309949
3206.000000	98.312037
3205.000000	98.316896
3204.000000	98.323660
3203.000000	98.331149
3202.000000	98.338438
3201.000000	98.344739
3200.000000	98.349055
3199.000000	98.350593
3198.000000	98.349727
3197.000000	98.348130
3196.000000	98.347602
3195.000000	98.348916
3194.000000	98.351865
3193.000000	98.355847
3192.000000	98.360007
3191.000000	98.363273
3190.000000	98.365006
3189.000000	98.365718
3188.000000	98.366731
3187.000000	98.369076
3186.000000	98.372769
3185.000000	98.376895
3184.000000	98.380288
3183.000000	98.382544
3182.000000	98.384759
3181.000000	98.388842
3180.000000	98.395465
3179.000000	98.402898
3178.000000	98.408513
3177.000000	98.411506
3176.000000	98.413586
3175.000000	98.417082
3174.000000	98.423019
3173.000000	98.430867
3172.000000	98.439077
3171.000000	98.445544
3170.000000	98.448522
3169.000000	98.447996
3168.000000	98.446071
3167.000000	98.445432
3166.000000	98.447381
3165.000000	98.451376
3164.000000	98.456219
3163.000000	98.461340
3162.000000	98.467028
3161.000000	98.473634
3160.000000	98.480607
3159.000000	98.486517
3158.000000	98.490325
3157.000000	98.492574
3156.000000	98.494808
3155.000000	98.497654
3154.000000	98.500139
3153.000000	98.501378
3152.000000	98.502477
3151.000000	98.505971
3150.000000	98.513129
3149.000000	98.522099
3148.000000	98.528912
3147.000000	98.530445
3146.000000	98.526772
3145.000000	98.521091
3144.000000	98.517465
3143.000000	98.518256
3142.000000	98.523252
3141.000000	98.530717
3140.000000	98.538977
3139.000000	98.547246
3138.000000	98.555532
3137.000000	98.563958
3136.000000	98.571900
3135.000000	98.577717
3134.000000	98.579749
3133.000000	98.577975
3132.000000	98.574609
3131.000000	98.572822
3130.000000	98.574773
3129.000000	98.580516
3128.000000	98.588098
3127.000000	98.594478
3126.000000	98.597071
3125.000000	98.595435
3124.000000	98.591827
3123.000000	98.589794
3122.000000	98.591641
3121.000000	98.596685
3120.000000	98.601609
3119.000000	98.602731
3118.000000	98.598820
3117.000000	98.592447
3116.000000	98.588392
3115.000000	98.589815
3114.000000	98.595449
3113.000000	98.600617
3112.000000	98.601267
3111.000000	98.597162
3110.000000	98.591391
3109.000000	98.587084
3108.000000	98.584953
3107.000000	98.583886
3106.000000	98.583034
3105.000000	98.582393
3104.000000	98.581479
3103.000000	98.578623
3102.000000	98.572678
3101.000000	98.565082
3100.000000	98.558993
3099.000000	98.556051
3098.000000	98.554841
3097.000000	98.552964
3096.000000	98.549929
3095.000000	98.547566
3094.000000	98.548003
3093.000000	98.551715
3092.000000	98.557042
3091.000000	98.560995
3090.000000	98.560993
3089.000000	98.556799
3088.000000	98.551006
3087.000000	98.546951
3086.000000	98.545870
3085.000000	98.546296
3084.000000	98.546204
3083.000000	98.545177
3082.000000	98.544170
3081.000000	98.543656
3080.000000	98.542724
3079.000000	98.540195
3078.000000	98.536252
3077.000000	98.532520
3076.000000	98.530568
3075.000000	98.530583
3074.000000	98.531486
3073.000000	98.532152
3072.000000	98.532425
3071.000000	98.533069
3070.000000	98.534847
3069.000000	98.537520
3068.000000	98.539774
3067.000000	98.540368
3066.000000	98.539408
3065.000000	98.538158
3064.000000	98.537534
3063.000000	98.537397
3062.000000	98.537634
3061.000000	98.539094
3060.000000	98.542654
3059.000000	98.547872
3058.000000	98.553570
3057.000000	98.559539
3056.000000	98.566534
3055.000000	98.574535
3054.000000	98.582090
3053.000000	98.587753
3052.000000	98.591368
3051.000000	98.593762
3050.000000	98.596102
3049.000000	98.599867
3048.000000	98.606346
3047.000000	98.615265
3046.000000	98.624330
3045.000000	98.630781
3044.000000	98.633359
3043.000000	98.632915
3042.000000	98.631734
3041.000000	98.632308
3040.000000	98.635869
3039.000000	98.641531
3038.000000	98.647319
3037.000000	98.652249
3036.000000	98.656818
3035.000000	98.661429
3034.000000	98.665445
3033.000000	98.668306
3032.000000	98.670620
3031.000000	98.673388
3030.000000	98.676905
3029.000000	98.681125
3028.000000	98.686162
3027.000000	98.691407
3026.000000	98.694921
3025.000000	98.694997
3024.000000	98.692156
3023.000000	98.688721
3022.000000	98.686783
3021.000000	98.687522
3020.000000	98.691936
3019.000000	98.700628
3018.000000	98.712402
3017.000000	98.723933
3016.000000	98.731481
3015.000000	98.733205
3014.000000	98.730475
3013.000000	98.727460
3012.000000	98.728597
3011.000000	98.734946
3010.000000	98.742973
3009.000000	98.747818
3008.000000	98.747807
3007.000000	98.745229
3006.000000	98.743118
3005.000000	98.742489
3004.000000	98.742615
3003.000000	98.742676
3002.000000	98.742523
3001.000000	98.742603
3000.000000	98.743711
2999.000000	98.746369
2998.000000	98.750075
2997.000000	98.753631
2996.000000	98.756399
2995.000000	98.758627
2994.000000	98.760132
2993.000000	98.759286
2992.000000	98.754102
2991.000000	98.744401
2990.000000	98.732683
2989.000000	98.722707
2988.000000	98.716967
2987.000000	98.715123
2986.000000	98.714736
2985.000000	98.713611
2984.000000	98.711212
2983.000000	98.707887
2982.000000	98.703516
2981.000000	98.697792
2980.000000	98.691454
2979.000000	98.686044
2978.000000	98.682207
2977.000000	98.679131
2976.000000	98.676000
2975.000000	98.673059
2974.000000	98.670511
2973.000000	98.667059
2972.000000	98.660610
2971.000000	98.650440
2970.000000	98.638016
2969.000000	98.625619
2968.000000	98.614795
2967.000000	98.606263
2966.000000	98.600449
2965.000000	98.597075
2964.000000	98.594191
2963.000000	98.588691
2962.000000	98.578668
2961.000000	98.565120
2960.000000	98.550700
2959.000000	98.536940
2958.000000	98.523564
2957.000000	98.510463
2956.000000	98.499280
2955.000000	98.492344
2954.000000	98.490659
2953.000000	98.493429
2952.000000	98.498718
2951.000000	98.503906
2950.000000	98.506248
2949.000000	98.504377
2948.000000	98.499278
2947.000000	98.493041
2946.000000	98.486615
2945.000000	98.479347
2944.000000	98.470424
2943.000000	98.459841
2942.000000	98.448009
2941.000000	98.435242
2940.000000	98.421906
2939.000000	98.408481
2938.000000	98.395326
2937.000000	98.382713
2936.000000	98.370633
2935.000000	98.357734
2934.000000	98.341001
2933.000000	98.318004
2932.000000	98.289969
2931.000000	98.261241
2930.000000	98.234737
2929.000000	98.208519
2928.000000	98.177631
2927.000000	98.139222
2926.000000	98.095384
2925.000000	98.051450
2924.000000	98.011892
2923.000000	97.977510
2922.000000	97.946149
2921.000000	97.916132
2920.000000	97.889157
2919.000000	97.869462
2918.000000	97.860476
2917.000000	97.863082
2916.000000	97.877132
2915.000000	97.903308
2914.000000	97.941984
2913.000000	97.990474
2912.000000	98.042511
2911.000000	98.091288
2910.000000	98.133135
2909.000000	98.168703
2908.000000	98.201250
2907.000000	98.233688
2906.000000	98.266603
2905.000000	98.298172
2904.000000	98.325605
2903.000000	98.346967
2902.000000	98.362024
2901.000000	98.372314
2900.000000	98.380875
2899.000000	98.391142
2898.000000	98.405083
2897.000000	98.421768
2896.000000	98.438101
2895.000000	98.451332
2894.000000	98.461100
2893.000000	98.469102
2892.000000	98.477110
2891.000000	98.485609
2890.000000	98.494103
2889.000000	98.502214
2888.000000	98.510002
2887.000000	98.517413
2886.000000	98.523954
2885.000000	98.529180
2884.000000	98.533299
2883.000000	98.537071
2882.000000	98.541187
2881.000000	98.545790
2880.000000	98.550267
2879.000000	98.553347
2878.000000	98.553741
2877.000000	98.551196
2876.000000	98.546849
2875.000000	98.542265
2874.000000	98.538252
2873.000000	98.534925
2872.000000	98.532692
2871.000000	98.532525
2870.000000	98.535023
2869.000000	98.539561
2868.000000	98.544599
2867.000000	98.548709
2866.000000	98.551241
2865.000000	98.552123
2864.000000	98.550990
2863.000000	98.546647
2862.000000	98.537781
2861.000000	98.524534
2860.000000	98.508634
2859.000000	98.490938
2858.000000	98.469216
2857.000000	98.439803
2856.000000	98.402015
2855.000000	98.359799
2854.000000	98.318345
2853.000000	98.279847
2852.000000	98.243902
2851.000000	98.211855
2850.000000	98.189265
2849.000000	98.183353
2848.000000	98.197943
2847.000000	98.230927
2846.000000	98.276136
2845.000000	98.327174
2844.000000	98.379601
2843.000000	98.430428
2842.000000	98.476819
2841.000000	98.516188
2840.000000	98.547785
2839.000000	98.573325
2838.000000	98.595625
2837.000000	98.616701
2836.000000	98.637069
2835.000000	98.656209
2834.000000	98.672986
2833.000000	98.686019
2832.000000	98.694645
2831.000000	98.699855
2830.000000	98.703802
2829.000000	98.708139
2828.000000	98.712983
2827.000000	98.717395
2826.000000	98.720464
2825.000000	98.721858
2824.000000	98.722094
2823.000000	98.722818
2822.000000	98.726361
2821.000000	98.734018
2820.000000	98.744398
2819.000000	98.754007
2818.000000	98.760084
2817.000000	98.762890
2816.000000	98.764914
2815.000000	98.767926
2814.000000	98.771229
2813.000000	98.772948
2812.000000	98.772477
2811.000000	98.771170
2810.000000	98.770765
2809.000000	98.771714
2808.000000	98.773192
2807.000000	98.774290
2806.000000	98.774826
2805.000000	98.775273
2804.000000	98.776334
2803.000000	98.778543
2802.000000	98.781915
2801.000000	98.785809
2800.000000	98.789323
2799.000000	98.791950
2798.000000	98.793837
2797.000000	98.795429
2796.000000	98.796937
2795.000000	98.798118
2794.000000	98.798512
2793.000000	98.798060
2792.000000	98.797628
2791.000000	98.798682
2790.000000	98.802014
2789.000000	98.806809
2788.000000	98.811456
2787.000000	98.815306
2786.000000	98.819021
2785.000000	98.822964
2784.000000	98.825937
2783.000000	98.826241
2782.000000	98.823661
2781.000000	98.819750
2780.000000	98.816468
2779.000000	98.815313
2778.000000	98.817375
2777.000000	98.822767
2776.000000	98.829557
2775.000000	98.834601
2774.000000	98.836492
2773.000000	98.837115
2772.000000	98.839409
2771.000000	98.844059
2770.000000	98.849297
2769.000000	98.853423
2768.000000	98.856260
2767.000000	98.858317
2766.000000	98.859871
2765.000000	98.861201
2764.000000	98.862691
2763.000000	98.864197
2762.000000	98.865053
2761.000000	98.865119
2760.000000	98.865086
2759.000000	98.865398
2758.000000	98.865725
2757.000000	98.866045
2756.000000	98.867437
2755.000000	98.870944
2754.000000	98.876083
2753.000000	98.881149
2752.000000	98.884668
2751.000000	98.886016
2750.000000	98.885138
2749.000000	98.882578
2748.000000	98.879673
2747.000000	98.877842
2746.000000	98.877467
2745.000000	98.877785
2744.000000	98.877886
2743.000000	98.877583
2742.000000	98.877457
2741.000000	98.878243
2740.000000	98.879866
2739.000000	98.880941
2738.000000	98.879884
2737.000000	98.877130
2736.000000	98.875608
2735.000000	98.878066
2734.000000	98.884124
2733.000000	98.890763
2732.000000	98.895525
2731.000000	98.898240
2730.000000	98.899685
2729.000000	98.899894
2728.000000	98.898581
2727.000000	98.896608
2726.000000	98.896074
2725.000000	98.898724
2724.000000	98.904356
2723.000000	98.910756
2722.000000	98.915222
2721.000000	98.916499
2720.000000	98.915445
2719.000000	98.913884
2718.000000	98.913110
2717.000000	98.913640
2716.000000	98.915750
2715.000000	98.919294
2714.000000	98.923125
2713.000000	98.925675
2712.000000	98.926492
2711.000000	98.926601
2710.000000	98.927139
2709.000000	98.928332
2708.000000	98.930181
2707.000000	98.933336
2706.000000	98.938315
2705.000000	98.943950
2704.000000	98.947479
2703.000000	98.946803
2702.000000	98.942754
2701.000000	98.938988
2700.000000	98.939162
2699.000000	98.943654
2698.000000	98.948917
2697.000000	98.950355
2696.000000	98.946154
2695.000000	98.938514
2694.000000	98.931648
2693.000000	98.929039
2692.000000	98.931959
2691.000000	98.938936
2690.000000	98.945893
2689.000000	98.948041
2688.000000	98.943462
2687.000000	98.935389
2686.000000	98.930162
2685.000000	98.932194
2684.000000	98.940629
2683.000000	98.950471
2682.000000	98.956487
2681.000000	98.956368
2680.000000	98.951426
2679.000000	98.945108
2678.000000	98.940595
2677.000000	98.939053
2676.000000	98.939726
2675.000000	98.941467
2674.000000	98.943851
2673.000000	98.946773
2672.000000	98.949691
2671.000000	98.952001
2670.000000	98.953961
2669.000000	98.956357
2668.000000	98.959044
2667.000000	98.960513
2666.000000	98.959275
2665.000000	98.955192
2664.000000	98.949036
2663.000000	98.941536
2662.000000	98.933861
2661.000000	98.928405
2660.000000	98.927461
2659.000000	98.930609
2658.000000	98.934641
2657.000000	98.936983
2656.000000	98.938438
2655.000000	98.941588
2654.000000	98.947087
2653.000000	98.952940
2652.000000	98.957220
2651.000000	98.960039
2650.000000	98.962386
2649.000000	98.964260
2648.000000	98.964937
2647.000000	98.964397
2646.000000	98.963289
2645.000000	98.961695
2644.000000	98.959154
2643.000000	98.956244
2642.000000	98.955121
2641.000000	98.957666
2640.000000	98.963473
2639.000000	98.970459
2638.000000	98.977220
2637.000000	98.983750
2636.000000	98.989716
2635.000000	98.993365
2634.000000	98.993278
2633.000000	98.990758
2632.000000	98.989264
2631.000000	98.991224
2630.000000	98.996093
2629.000000	99.001667
2628.000000	99.006534
2627.000000	99.010884
2626.000000	99.015505
2625.000000	99.020465
2624.000000	99.024716
2623.000000	99.026977
2622.000000	99.027290
2621.000000	99.027452
2620.000000	99.029286
2619.000000	99.032597
2618.000000	99.035544
2617.000000	99.036942
2616.000000	99.037236
2615.000000	99.037321
2614.000000	99.037739
2613.000000	99.039189
2612.000000	99.042175
2611.000000	99.045389
2610.000000	99.046087
2609.000000	99.043354
2608.000000	99.039785
2607.000000	99.038479
2606.000000	99.039421
2605.000000	99.040578
2604.000000	99.041563
2603.000000	99.043972
2602.000000	99.048149
2601.000000	99.051899
2600.000000	99.053389
2599.000000	99.053866
2598.000000	99.056427
2597.000000	99.062586
2596.000000	99.070780
2595.000000	99.078020
2594.000000	99.082528
2593.000000	99.084646
2592.000000	99.085270
2591.000000	99.083978
2590.000000	99.079666
2589.000000	99.073123
2588.000000	99.067652
2587.000000	99.066079
2586.000000	99.067894
2585.000000	99.070147
2584.000000	99.070521
2583.000000	99.068997
2582.000000	99.067694
2581.000000	99.069908
2580.000000	99.077752
2579.000000	99.089044
2578.000000	99.097985
2577.000000	99.101151
2576.000000	99.101769
2575.000000	99.105557
2574.000000	99.112986
2573.000000	99.118724
2572.000000	99.118658
2571.000000	99.114408
2570.000000	99.110170
2569.000000	99.108174
2568.000000	99.108804
2567.000000	99.112529
2566.000000	99.119211
2565.000000	99.126576
2564.000000	99.131239
2563.000000	99.131069
2562.000000	99.126062
2561.000000	99.118222
2560.000000	99.111346
2559.000000	99.109067
2558.000000	99.111399
2557.000000	99.114130
2556.000000	99.113240
2555.000000	99.109381
2554.000000	99.106862
2553.000000	99.108946
2552.000000	99.115488
2551.000000	99.124313
2550.000000	99.133101
2549.000000	99.139803
2548.000000	99.142654
2547.000000	99.140542
2546.000000	99.133493
2545.000000	99.123384
2544.000000	99.114361
2543.000000	99.111116
2542.000000	99.115105
2541.000000	99.122657
2540.000000	99.128002
2539.000000	99.128221
2538.000000	99.124700
2537.000000	99.120564
2536.000000	99.117970
2535.000000	99.117442
2534.000000	99.118137
2533.000000	99.118505
2532.000000	99.118105
2531.000000	99.119168
2530.000000	99.124819
2529.000000	99.134929
2528.000000	99.144744
2527.000000	99.148653
2526.000000	99.144775
2525.000000	99.135485
2524.000000	99.124887
2523.000000	99.117086
2522.000000	99.115354
2521.000000	99.119891
2520.000000	99.125718
2519.000000	99.125285
2518.000000	99.115429
2517.000000	99.101388
2516.000000	99.092359
2515.000000	99.092995
2514.000000	99.099752
2513.000000	99.105006
2512.000000	99.103863
2511.000000	99.097545
2510.000000	99.091503
2509.000000	99.090445
2508.000000	99.094269
2507.000000	99.098797
2506.000000	99.101014
2505.000000	99.102518
2504.000000	99.106368
2503.000000	99.111368
2502.000000	99.112576
2501.000000	99.108316
2500.000000	99.103618
2499.000000	99.104404
2498.000000	99.109862
2497.000000	99.113551
2496.000000	99.111659
2495.000000	99.107255
2494.000000	99.105934
2493.000000	99.109315
2492.000000	99.114191
2491.000000	99.116876
2490.000000	99.116850
2489.000000	99.116587
2488.000000	99.118713
2487.000000	99.123355
2486.000000	99.127789
2485.000000	99.128599
2484.000000	99.124771
2483.000000	99.119004
2482.000000	99.115988
2481.000000	99.119223
2480.000000	99.128780
2479.000000	99.141533
2478.000000	99.153294
2477.000000	99.161042
2476.000000	99.163840
2475.000000	99.162418
2474.000000	99.158324
2473.000000	99.153232
2472.000000	99.148552
2471.000000	99.145338
2470.000000	99.144409
2469.000000	99.145982
2468.000000	99.148829
2467.000000	99.150433
2466.000000	99.148844
2465.000000	99.144368
2464.000000	99.139136
2463.000000	99.135774
2462.000000	99.136988
2461.000000	99.144860
2460.000000	99.158097
2459.000000	99.170286
2458.000000	99.173770
2457.000000	99.166734
2456.000000	99.155390
2455.000000	99.148242
2454.000000	99.148857
2453.000000	99.154279
2452.000000	99.158667
2451.000000	99.157698
2450.000000	99.151544
2449.000000	99.145231
2448.000000	99.145010
2447.000000	99.152621
2446.000000	99.163310
2445.000000	99.170177
2444.000000	99.169935
2443.000000	99.164502
2442.000000	99.158826
2441.000000	99.158061
2440.000000	99.164538
2439.000000	99.175318
2438.000000	99.183782
2437.000000	99.185611
2436.000000	99.182780
2435.000000	99.180558
2434.000000	99.181877
2433.000000	99.186206
2432.000000	99.192335
2431.000000	99.199534
2430.000000	99.206102
2429.000000	99.209255
2428.000000	99.207274
2427.000000	99.200958
2426.000000	99.193126
2425.000000	99.187379
2424.000000	99.186294
2423.000000	99.188962
2422.000000	99.190704
2421.000000	99.187137
2420.000000	99.178762
2419.000000	99.170348
2418.000000	99.165858
2417.000000	99.165184
2416.000000	99.165902
2415.000000	99.166853
2414.000000	99.169299
2413.000000	99.175016
2412.000000	99.183485
2411.000000	99.191108
2410.000000	99.193895
2409.000000	99.191259
2408.000000	99.186373
2407.000000	99.182375
2406.000000	99.179460
2405.000000	99.176455
2404.000000	99.173795
2403.000000	99.173473
2402.000000	99.176892
2401.000000	99.183853
2400.000000	99.192626
2399.000000	99.199912
2398.000000	99.202202
2397.000000	99.199080
2396.000000	99.194345
2395.000000	99.192077
2394.000000	99.192182
2393.000000	99.191622
2392.000000	99.189278
2391.000000	99.187579
2390.000000	99.189494
2389.000000	99.195655
2388.000000	99.204379
2387.000000	99.212488
2386.000000	99.216501
2385.000000	99.214902
2384.000000	99.209935
2383.000000	99.206001
2382.000000	99.205426
2381.000000	99.207163
2380.000000	99.209226
2379.000000	99.211038
2378.000000	99.213106
2377.000000	99.215452
2376.000000	99.217084
2375.000000	99.216581
2374.000000	99.213915
2373.000000	99.212078
2372.000000	99.215773
2371.000000	99.226299
2370.000000	99.238505
2369.000000	99.244980
2368.000000	99.242458
2367.000000	99.233776
2366.000000	99.224336
2365.000000	99.217630
2364.000000	99.212877
2363.000000	99.205614
2362.000000	99.193463
2361.000000	99.181466
2360.000000	99.177528
2359.000000	99.184521
2358.000000	99.198287
2357.000000	99.211832
2356.000000	99.218848
2355.000000	99.214549
2354.000000	99.202974
2353.000000	99.195010
2352.000000	99.196822
2351.000000	99.203025
2350.000000	99.204880
2349.000000	99.200542
2348.000000	99.195814
2347.000000	99.197898
2346.000000	99.204790
2345.000000	99.203550
2344.000000	99.186552
2343.000000	99.162312
2342.000000	99.147139
2341.000000	99.148209
2340.000000	99.159043
2339.000000	99.169177
2338.000000	99.174264
2337.000000	99.176037
2336.000000	99.176192
2335.000000	99.175744
2334.000000	99.177183
2333.000000	99.184120
2332.000000	99.195116
2331.000000	99.204952
2330.000000	99.207831
2329.000000	99.202719
2328.000000	99.189120
2327.000000	99.168351
2326.000000	99.144591
2325.000000	99.126256
2324.000000	99.120238
2323.000000	99.125399
2322.000000	99.132460
2321.000000	99.132819
2320.000000	99.125750
2319.000000	99.116921
2318.000000	99.109742
2317.000000	99.105083
2316.000000	99.104209
2315.000000	99.111688
2314.000000	99.128728
2313.000000	99.150541
2312.000000	99.167791
2311.000000	99.174885
2310.000000	99.172359
2309.000000	99.166096
2308.000000	99.161579
2307.000000	99.160704
2306.000000	99.160986
2305.000000	99.159956
2304.000000	99.157794
2303.000000	99.156380
2302.000000	99.155959
2301.000000	99.156636
2300.000000	99.160024
2299.000000	99.167637
2298.000000	99.175384
2297.000000	99.175900
2296.000000	99.165549
2295.000000	99.149301
2294.000000	99.135418
2293.000000	99.129163
2292.000000	99.130713
2291.000000	99.137288
2290.000000	99.144773
2289.000000	99.149741
2288.000000	99.151941
2287.000000	99.153873
2286.000000	99.157489
2285.000000	99.162306
2284.000000	99.167309
2283.000000	99.171445
2282.000000	99.172184
2281.000000	99.166594
2280.000000	99.156215
2279.000000	99.147222
2278.000000	99.143342
2277.000000	99.141189
2276.000000	99.135526
2275.000000	99.127539
2274.000000	99.124517
2273.000000	99.132143
2272.000000	99.148627
2271.000000	99.166043
2270.000000	99.176286
2269.000000	99.177520
2268.000000	99.176336
2267.000000	99.181949
2266.000000	99.196396
2265.000000	99.211603
2264.000000	99.217564
2263.000000	99.212181
2262.000000	99.201942
2261.000000	99.194862
2260.000000	99.194479
2259.000000	99.198681
2258.000000	99.202117
2257.000000	99.199982
2256.000000	99.191223
2255.000000	99.178551
2254.000000	99.165678
2253.000000	99.155676
2252.000000	99.151088
2251.000000	99.153294
2250.000000	99.160771
2249.000000	99.169633
2248.000000	99.176662
2247.000000	99.181406
2246.000000	99.185857
2245.000000	99.193516
2244.000000	99.207314
2243.000000	99.225786
2242.000000	99.241852
2241.000000	99.248434
2240.000000	99.245511
2239.000000	99.239259
2238.000000	99.234591
2237.000000	99.231223
2236.000000	99.226264
2235.000000	99.217659
2234.000000	99.206147
2233.000000	99.197028
2232.000000	99.198239
2231.000000	99.211938
2230.000000	99.229115
2229.000000	99.237912
2228.000000	99.237409
2227.000000	99.238429
2226.000000	99.250924
2225.000000	99.275666
2224.000000	99.306984
2223.000000	99.336306
2222.000000	99.351767
2221.000000	99.342353
2220.000000	99.306805
2219.000000	99.254741
2218.000000	99.198436
2217.000000	99.149393
2216.000000	99.121244
2215.000000	99.125216
2214.000000	99.157718
2213.000000	99.199143
2212.000000	99.231126
2211.000000	99.251130
2210.000000	99.265169
2209.000000	99.271895
2208.000000	99.261946
2207.000000	99.231517
2206.000000	99.190891
2205.000000	99.158204
2204.000000	99.146108
2203.000000	99.153717
2202.000000	99.170780
2201.000000	99.189703
2200.000000	99.211744
2199.000000	99.239099
2198.000000	99.263856
2197.000000	99.271329
2196.000000	99.255770
2195.000000	99.227774
2194.000000	99.205240
2193.000000	99.201047
2192.000000	99.217048
2191.000000	99.242168
2190.000000	99.255680
2189.000000	99.242022
2188.000000	99.207978
2187.000000	99.179212
2186.000000	99.174692
2185.000000	99.188671
2184.000000	99.200077
2183.000000	99.195909
2182.000000	99.182628
2181.000000	99.178812
2180.000000	99.199291
2179.000000	99.241925
2178.000000	99.286648
2177.000000	99.309562
2176.000000	99.301508
2175.000000	99.272526
2174.000000	99.239114
2173.000000	99.211581
2172.000000	99.193392
2171.000000	99.185529
2170.000000	99.187993
2169.000000	99.198862
2168.000000	99.212201
2167.000000	99.216599
2166.000000	99.201309
2165.000000	99.169707
2164.000000	99.142458
2163.000000	99.138597
2162.000000	99.159052
2161.000000	99.198352
2160.000000	99.262526
2159.000000	99.354679
2158.000000	99.446233
2157.000000	99.496406
2156.000000	99.501730
2155.000000	99.493603
2154.000000	99.492472
2153.000000	99.491503
2152.000000	99.481006
2151.000000	99.464520
2150.000000	99.445834
2149.000000	99.418310
2148.000000	99.379339
2147.000000	99.343927
2146.000000	99.332642
2145.000000	99.350169
2144.000000	99.381962
2143.000000	99.408123
2142.000000	99.415928
2141.000000	99.405265
2140.000000	99.388982
2139.000000	99.384448
2138.000000	99.398827
2137.000000	99.422871
2136.000000	99.439462
2135.000000	99.437221
2134.000000	99.416846
2133.000000	99.389332
2132.000000	99.368740
2131.000000	99.361802
2130.000000	99.363091
2129.000000	99.362368
2128.000000	99.355592
2127.000000	99.345261
2126.000000	99.332288
2125.000000	99.314757
2124.000000	99.295800
2123.000000	99.285027
2122.000000	99.288065
2121.000000	99.298523
2120.000000	99.304506
2119.000000	99.300892
2118.000000	99.292312
2117.000000	99.286738
2116.000000	99.288980
2115.000000	99.298264
2114.000000	99.309048
2113.000000	99.314598
2112.000000	99.311728
2111.000000	99.302110
2110.000000	99.289600
2109.000000	99.278499
2108.000000	99.273435
2107.000000	99.276720
2106.000000	99.284846
2105.000000	99.291184
2104.000000	99.293484
2103.000000	99.295470
2102.000000	99.300073
2101.000000	99.305241
2100.000000	99.308225
2099.000000	99.309764
2098.000000	99.311273
2097.000000	99.311545
2096.000000	99.309424
2095.000000	99.306493
2094.000000	99.303912
2093.000000	99.299672
2092.000000	99.292576
2091.000000	99.286539
2090.000000	99.286488
2089.000000	99.290255
2088.000000	99.287990
2087.000000	99.272073
2086.000000	99.246997
2085.000000	99.227810
2084.000000	99.226804
2083.000000	99.241327
2082.000000	99.257258
2081.000000	99.264998
2080.000000	99.268841
2079.000000	99.278237
2078.000000	99.293345
2077.000000	99.304366
2076.000000	99.303283
2075.000000	99.290990
2074.000000	99.274545
2073.000000	99.262931
2072.000000	99.263258
2071.000000	99.274300
2070.000000	99.284783
2069.000000	99.284852
2068.000000	99.278718
2067.000000	99.278456
2066.000000	99.286244
2065.000000	99.291767
2064.000000	99.288645
2063.000000	99.283553
2062.000000	99.284800
2061.000000	99.291074
2060.000000	99.295091
2059.000000	99.291302
2058.000000	99.277342
2057.000000	99.256463
2056.000000	99.241792
2055.000000	99.247611
2054.000000	99.269842
2053.000000	99.284334
2052.000000	99.273223
2051.000000	99.246031
2050.000000	99.227625
2049.000000	99.230824
2048.000000	99.248359
2047.000000	99.269264
2046.000000	99.291213
2045.000000	99.313666
2044.000000	99.330896
2043.000000	99.337967
2042.000000	99.337386
2041.000000	99.335675
2040.000000	99.334472
2039.000000	99.326400
2038.000000	99.301396
2037.000000	99.260677
2036.000000	99.224756
2035.000000	99.219950
2034.000000	99.253467
2033.000000	99.306399
2032.000000	99.352749
2031.000000	99.380260
2030.000000	99.390177
2029.000000	99.388630
2028.000000	99.386417
2027.000000	99.397805
2026.000000	99.429690
2025.000000	99.473772
2024.000000	99.513757
2023.000000	99.538476
2022.000000	99.545187
2021.000000	99.535514
2020.000000	99.513356
2019.000000	99.484557
2018.000000	99.457583
2017.000000	99.444684
2016.000000	99.454758
2015.000000	99.480075
2014.000000	99.496993
2013.000000	99.486467
2012.000000	99.453305
2011.000000	99.420207
2010.000000	99.406020
2009.000000	99.417049
2008.000000	99.451198
2007.000000	99.495713
2006.000000	99.523258
2005.000000	99.508767
2004.000000	99.457407
2003.000000	99.403934
2002.000000	99.380705
2001.000000	99.391464
2000.000000	99.413504
1999.000000	99.420337
1998.000000	99.403072
1997.000000	99.375442
1996.000000	99.359624
1995.000000	99.364278
1994.000000	99.378107
1993.000000	99.385559
1992.000000	99.384019
1991.000000	99.380881
1990.000000	99.380585
1989.000000	99.385588
1988.000000	99.401856
1987.000000	99.427835
1986.000000	99.442461
1985.000000	99.421824
1984.000000	99.370028
1983.000000	99.319179
1982.000000	99.295446
1981.000000	99.297172
1980.000000	99.309822
1979.000000	99.330331
1978.000000	99.367441
1977.000000	99.421981
1976.000000	99.475781
1975.000000	99.503144
1974.000000	99.492625
1973.000000	99.460680
1972.000000	99.440824
1971.000000	99.450427
1970.000000	99.473283
1969.000000	99.482389
1968.000000	99.472863
1967.000000	99.461922
1966.000000	99.462443
1965.000000	99.473844
1964.000000	99.494388
1963.000000	99.521285
1962.000000	99.538542
1961.000000	99.523648
1960.000000	99.472338
1959.000000	99.404138
1958.000000	99.342645
1957.000000	99.303626
1956.000000	99.298197
1955.000000	99.329748
1954.000000	99.383283
1953.000000	99.429609
1952.000000	99.447436
1951.000000	99.437206
1950.000000	99.412860
1949.000000	99.389116
1948.000000	99.377726
1947.000000	99.385729
1946.000000	99.411896
1945.000000	99.448283
1944.000000	99.485108
1943.000000	99.509939
1942.000000	99.508056
1941.000000	99.476710
1940.000000	99.434711
1939.000000	99.406197
1938.000000	99.399461
1937.000000	99.405290
1936.000000	99.411998
1935.000000	99.415878
1934.000000	99.416590
1933.000000	99.411938
1932.000000	99.401549
1931.000000	99.389557
1930.000000	99.380431
1929.000000	99.377269
1928.000000	99.385368
1927.000000	99.410039
1926.000000	99.448017
1925.000000	99.484593
1924.000000	99.503179
1923.000000	99.498134
1922.000000	99.477773
1921.000000	99.455120
1920.000000	99.437522
1919.000000	99.424151
1918.000000	99.411249
1917.000000	99.399135
1916.000000	99.392559
1915.000000	99.393148
1914.000000	99.395633
1913.000000	99.393687
1912.000000	99.386930
1911.000000	99.378976
1910.000000	99.371384
1909.000000	99.365832
1908.000000	99.368964
1907.000000	99.385733
1906.000000	99.409969
1905.000000	99.428415
1904.000000	99.434825
1903.000000	99.433462
1902.000000	99.428027
1901.000000	99.416705
1900.000000	99.400721
1899.000000	99.388079
1898.000000	99.384528
1897.000000	99.386488
1896.000000	99.387182
1895.000000	99.386369
1894.000000	99.389663
1893.000000	99.400953
1892.000000	99.418974
1891.000000	99.437410
1890.000000	99.446428
1889.000000	99.440514
1888.000000	99.426455
1887.000000	99.416128
1886.000000	99.413079
1885.000000	99.411825
1884.000000	99.407309
1883.000000	99.400260
1882.000000	99.393074
1881.000000	99.386470
1880.000000	99.382001
1879.000000	99.382459
1878.000000	99.388476
1877.000000	99.398291
1876.000000	99.410562
1875.000000	99.423091
1874.000000	99.429460
1873.000000	99.423920
1872.000000	99.411200
1871.000000	99.405119
1870.000000	99.415111
1869.000000	99.435918
1868.000000	99.452890
1867.000000	99.458799
1866.000000	99.457428
1865.000000	99.454215
1864.000000	99.452366
1863.000000	99.452337
1862.000000	99.450410
1861.000000	99.441769
1860.000000	99.427947
1859.000000	99.416750
1858.000000	99.412800
1857.000000	99.413075
1856.000000	99.413799
1855.000000	99.415835
1854.000000	99.420081
1853.000000	99.422908
1852.000000	99.421593
1851.000000	99.419437
1850.000000	99.421528
1849.000000	99.428154
1848.000000	99.435533
1847.000000	99.441448
1846.000000	99.446593
1845.000000	99.451837
1844.000000	99.456243
1843.000000	99.456134
1842.000000	99.449114
1841.000000	99.438922
1840.000000	99.432739
1839.000000	99.434677
1838.000000	99.441756
1837.000000	99.447361
1836.000000	99.449645
1835.000000	99.452273
1834.000000	99.457689
1833.000000	99.465804
1832.000000	99.477449
1831.000000	99.491388
1830.000000	99.499485
1829.000000	99.492583
1828.000000	99.473762
1827.000000	99.455312
1826.000000	99.444296
1825.000000	99.439702
1824.000000	99.438042
1823.000000	99.437216
1822.000000	99.435942
1821.000000	99.433553
1820.000000	99.432574
1819.000000	99.437627
1818.000000	99.449332
1817.000000	99.462136
1816.000000	99.471160
1815.000000	99.477425
1814.000000	99.482914
1813.000000	99.485787
1812.000000	99.483417
1811.000000	99.477783
1810.000000	99.473033
1809.000000	99.469133
1808.000000	99.463690
1807.000000	99.456984
1806.000000	99.450675
1805.000000	99.444434
1804.000000	99.437157
1803.000000	99.429409
1802.000000	99.421958
1801.000000	99.414943
1800.000000	99.409256
1799.000000	99.407173
1798.000000	99.408899
1797.000000	99.410727
1796.000000	99.409114
1795.000000	99.404709
1794.000000	99.400289
1793.000000	99.398451
1792.000000	99.401994
1791.000000	99.411194
1790.000000	99.421371
1789.000000	99.428286
1788.000000	99.431961
1787.000000	99.435264
1786.000000	99.440044
1785.000000	99.444889
1784.000000	99.447966
1783.000000	99.450515
1782.000000	99.453864
1781.000000	99.457271
1780.000000	99.459506
1779.000000	99.460884
1778.000000	99.462375
1777.000000	99.464777
1776.000000	99.470156
1775.000000	99.481056
1774.000000	99.496325
1773.000000	99.509588
1772.000000	99.515256
1771.000000	99.513255
1770.000000	99.506992
1769.000000	99.499609
1768.000000	99.493981
1767.000000	99.493026
1766.000000	99.496191
1765.000000	99.500326
1764.000000	99.502921
1763.000000	99.503139
1762.000000	99.501832
1761.000000	99.500582
1760.000000	99.499421
1759.000000	99.497979
1758.000000	99.494468
1757.000000	99.487680
1756.000000	99.481206
1755.000000	99.479559
1754.000000	99.483288
1753.000000	99.489338
1752.000000	99.493693
1751.000000	99.493072
1750.000000	99.485648
1749.000000	99.472475
1748.000000	99.459524
1747.000000	99.452079
1746.000000	99.448842
1745.000000	99.446459
1744.000000	99.445031
1743.000000	99.446073
1742.000000	99.447337
1741.000000	99.445215
1740.000000	99.441323
1739.000000	99.440677
1738.000000	99.441745
1737.000000	99.441254
1736.000000	99.442644
1735.000000	99.455541
1734.000000	99.484211
1733.000000	99.506512
1732.000000	99.505697
1731.000000	99.496346
1730.000000	99.492650
1729.000000	99.495127
1728.000000	99.499059
1727.000000	99.502239
1726.000000	99.503617
1725.000000	99.501473
1724.000000	99.496721
1723.000000	99.494280
1722.000000	99.496429
1721.000000	99.500631
1720.000000	99.505480
1719.000000	99.512219
1718.000000	99.521101
1717.000000	99.524822
1716.000000	99.512594
1715.000000	99.489288
1714.000000	99.464916
1713.000000	99.440950
1712.000000	99.417493
1711.000000	99.398873
1710.000000	99.387313
1709.000000	99.377604
1708.000000	99.363136
1707.000000	99.342695
1706.000000	99.319022
1705.000000	99.293803
1704.000000	99.266900
1703.000000	99.239634
1702.000000	99.209923
1701.000000	99.167670
1700.000000	99.113583
1699.000000	99.066851
1698.000000	99.030922
1697.000000	98.990065
1696.000000	98.936838
1695.000000	98.884632
1694.000000	98.842050
1693.000000	98.804683
1692.000000	98.767560
1691.000000	98.728646
1690.000000	98.687147
1689.000000	98.643237
1688.000000	98.600701
1687.000000	98.564042
1686.000000	98.530071
1685.000000	98.480914
1684.000000	98.410961
1683.000000	98.341451
1682.000000	98.277069
1681.000000	98.209737
1680.000000	98.139352
1679.000000	98.072927
1678.000000	98.010865
1677.000000	97.941345
1676.000000	97.853891
1675.000000	97.759374
1674.000000	97.677137
1673.000000	97.605115
1672.000000	97.529472
1671.000000	97.442088
1670.000000	97.344126
1669.000000	97.246088
1668.000000	97.158768
1667.000000	97.084817
1666.000000	97.018454
1665.000000	96.949443
1664.000000	96.869649
1663.000000	96.781904
1662.000000	96.696935
1661.000000	96.618018
1660.000000	96.543769
1659.000000	96.477341
1658.000000	96.422074
1657.000000	96.376446
1656.000000	96.338375
1655.000000	96.306247
1654.000000	96.273324
1653.000000	96.244630
1652.000000	96.218163
1651.000000	96.185759
1650.000000	96.155268
1649.000000	96.126856
1648.000000	96.095640
1647.000000	96.071717
1646.000000	96.067385
1645.000000	96.064860
1644.000000	96.049994
1643.000000	96.030100
1642.000000	96.013185
1641.000000	95.999396
1640.000000	95.986097
1639.000000	95.974253
1638.000000	95.965999
1637.000000	95.957892
1636.000000	95.947333
1635.000000	95.938673
1634.000000	95.929101
1633.000000	95.915094
1632.000000	95.900392
1631.000000	95.891209
1630.000000	95.892114
1629.000000	95.904083
1628.000000	95.926273
1627.000000	95.956990
1626.000000	95.993751
1625.000000	96.038187
1624.000000	96.098052
1623.000000	96.177096
1622.000000	96.259631
1621.000000	96.326863
1620.000000	96.381678
1619.000000	96.439375
1618.000000	96.514097
1617.000000	96.611467
1616.000000	96.717444
1615.000000	96.807504
1614.000000	96.877066
1613.000000	96.937878
1612.000000	97.001198
1611.000000	97.072069
1610.000000	97.147469
1609.000000	97.221440
1608.000000	97.291636
1607.000000	97.358009
1606.000000	97.418680
1605.000000	97.472870
1604.000000	97.523023
1603.000000	97.570473
1602.000000	97.613439
1601.000000	97.651333
1600.000000	97.686440
1599.000000	97.719201
1598.000000	97.746879
1597.000000	97.769300
1596.000000	97.790677
1595.000000	97.812934
1594.000000	97.831749
1593.000000	97.842689
1592.000000	97.846538
1591.000000	97.845261
1590.000000	97.837691
1589.000000	97.822798
1588.000000	97.801950
1587.000000	97.774566
1586.000000	97.736541
1585.000000	97.685591
1584.000000	97.625054
1583.000000	97.558125
1582.000000	97.484618
1581.000000	97.407077
1580.000000	97.333858
1579.000000	97.270940
1578.000000	97.214076
1577.000000	97.153103
1576.000000	97.089559
1575.000000	97.035320
1574.000000	96.991555
1573.000000	96.954653
1572.000000	96.924037
1571.000000	96.899047
1570.000000	96.878060
1569.000000	96.859964
1568.000000	96.842397
1567.000000	96.821045
1566.000000	96.791181
1565.000000	96.750765
1564.000000	96.705867
1563.000000	96.665915
1562.000000	96.634590
1561.000000	96.607758
1560.000000	96.563588
1559.000000	96.481479
1558.000000	96.406259
1557.000000	96.353706
1556.000000	96.308948
1555.000000	96.266451
1554.000000	96.222690
1553.000000	96.176538
1552.000000	96.127430
1551.000000	96.075075
1550.000000	96.021377
1549.000000	95.970149
1548.000000	95.920787
1547.000000	95.866883
1546.000000	95.801248
1545.000000	95.723322
1544.000000	95.644941
1543.000000	95.578054
1542.000000	95.519852
1541.000000	95.460381
1540.000000	95.416973
1539.000000	95.414723
1538.000000	95.430555
1537.000000	95.443863
1536.000000	95.461904
1535.000000	95.501553
1534.000000	95.578686
1533.000000	95.682750
1532.000000	95.775116
1531.000000	95.840346
1530.000000	95.892158
1529.000000	95.941905
1528.000000	95.992244
1527.000000	96.043571
1526.000000	96.094256
1525.000000	96.139163
1524.000000	96.178207
1523.000000	96.220398
1522.000000	96.272635
1521.000000	96.323906
1520.000000	96.354646
1519.000000	96.369224
1518.000000	96.384256
1517.000000	96.404935
1516.000000	96.426200
1515.000000	96.441085
1514.000000	96.449120
1513.000000	96.454980
1512.000000	96.464277
1511.000000	96.480376
1510.000000	96.501854
1509.000000	96.524182
1508.000000	96.545819
1507.000000	96.577796
1506.000000	96.616072
1505.000000	96.626671
1504.000000	96.614397
1503.000000	96.601612
1502.000000	96.594924
1501.000000	96.592551
1500.000000	96.593496
1499.000000	96.600273
1498.000000	96.609426
1497.000000	96.610984
1496.000000	96.602111
1495.000000	96.590727
1494.000000	96.580608
1493.000000	96.569260
1492.000000	96.557071
1491.000000	96.549198
1490.000000	96.547061
1489.000000	96.541836
1488.000000	96.526150
1487.000000	96.504162
1486.000000	96.478538
1485.000000	96.445042
1484.000000	96.403577
1483.000000	96.358600
1482.000000	96.310934
1481.000000	96.258079
1480.000000	96.202283
1479.000000	96.148493
1478.000000	96.094007
1477.000000	96.029948
1476.000000	95.955202
1475.000000	95.878981
1474.000000	95.802360
1473.000000	95.716379
1472.000000	95.627195
1471.000000	95.550462
1470.000000	95.485377
1469.000000	95.424020
1468.000000	95.366116
1467.000000	95.315926
1466.000000	95.272538
1465.000000	95.229767
1464.000000	95.188024
1463.000000	95.152179
1462.000000	95.121129
1461.000000	95.089836
1460.000000	95.055651
1459.000000	95.016472
1458.000000	94.965411
1457.000000	94.905222
1456.000000	94.853339
1455.000000	94.812336
1454.000000	94.773770
1453.000000	94.735651
1452.000000	94.702833
1451.000000	94.679507
1450.000000	94.661523
1449.000000	94.642495
1448.000000	94.624466
1447.000000	94.614291
1446.000000	94.609580
1445.000000	94.603212
1444.000000	94.595220
1443.000000	94.590418
1442.000000	94.589552
1441.000000	94.588168
1440.000000	94.583695
1439.000000	94.577537
1438.000000	94.571683
1437.000000	94.567741
1436.000000	94.567226
1435.000000	94.565724
1434.000000	94.557959
1433.000000	94.545858
1432.000000	94.535834
1431.000000	94.531940
1430.000000	94.530648
1429.000000	94.525819
1428.000000	94.516904
1427.000000	94.506980
1426.000000	94.495966
1425.000000	94.482284
1424.000000	94.468639
1423.000000	94.458083
1422.000000	94.447500
1421.000000	94.432211
1420.000000	94.413207
1419.000000	94.397939
1418.000000	94.391588
1417.000000	94.391004
1416.000000	94.394283
1415.000000	94.401130
1414.000000	94.408304
1413.000000	94.415326
1412.000000	94.428604
1411.000000	94.453337
1410.000000	94.484481
1409.000000	94.513533
1408.000000	94.539177
1407.000000	94.565117
1406.000000	94.592290
1405.000000	94.619783
1404.000000	94.648837
1403.000000	94.678882
1402.000000	94.706655
1401.000000	94.732222
1400.000000	94.760899
1399.000000	94.796074
1398.000000	94.832563
1397.000000	94.864723
1396.000000	94.895711
1395.000000	94.931277
1394.000000	94.970441
1393.000000	95.010140
1392.000000	95.052745
1391.000000	95.100925
1390.000000	95.152324
1389.000000	95.203825
1388.000000	95.256171
1387.000000	95.309810
1386.000000	95.359844
1385.000000	95.403260
1384.000000	95.444567
1383.000000	95.488088
1382.000000	95.532408
1381.000000	95.575055
1380.000000	95.618083
1379.000000	95.664539
1378.000000	95.712674
1377.000000	95.759245
1376.000000	95.805768
1375.000000	95.856756
1374.000000	95.912304
1373.000000	95.966663
1372.000000	96.015702
1371.000000	96.062006
1370.000000	96.111208
1369.000000	96.167486
1368.000000	96.230396
1367.000000	96.294151
1366.000000	96.353593
1365.000000	96.409471
1364.000000	96.465331
1363.000000	96.521519
1362.000000	96.574728
1361.000000	96.623008
1360.000000	96.667532
1359.000000	96.708926
1358.000000	96.746301
1357.000000	96.779918
1356.000000	96.810391
1355.000000	96.835525
1354.000000	96.852511
1353.000000	96.863426
1352.000000	96.873389
1351.000000	96.883225
1350.000000	96.887916
1349.000000	96.883757
1348.000000	96.873540
1347.000000	96.862896
1346.000000	96.854753
1345.000000	96.848991
1344.000000	96.844440
1343.000000	96.839605
1342.000000	96.833841
1341.000000	96.829130
1340.000000	96.829161
1339.000000	96.834308
1338.000000	96.839894
1337.000000	96.842970
1336.000000	96.846668
1335.000000	96.855732
1334.000000	96.871943
1333.000000	96.894976
1332.000000	96.924454
1331.000000	96.958972
1330.000000	96.994716
1329.000000	97.027527
1328.000000	97.055899
1327.000000	97.080884
1326.000000	97.103801
1325.000000	97.125114
1324.000000	97.144344
1323.000000	97.159872
1322.000000	97.169980
1321.000000	97.174993
1320.000000	97.178114
1319.000000	97.183860
1318.000000	97.195385
1317.000000	97.212725
1316.000000	97.233000
1315.000000	97.252397
1314.000000	97.269387
1313.000000	97.286621
1312.000000	97.308167
1311.000000	97.334593
1310.000000	97.362452
1309.000000	97.388559
1308.000000	97.412686
1307.000000	97.435800
1306.000000	97.457177
1305.000000	97.474663
1304.000000	97.487362
1303.000000	97.497038
1302.000000	97.506943
1301.000000	97.519414
1300.000000	97.534516
1299.000000	97.551044
1298.000000	97.568230
1297.000000	97.585392
1296.000000	97.599988
1295.000000	97.607876
1294.000000	97.607158
1293.000000	97.600556
1292.000000	97.592483
1291.000000	97.584385
1290.000000	97.574219
1289.000000	97.560431
1288.000000	97.544730
1287.000000	97.530349
1286.000000	97.518718
1285.000000	97.509078
1284.000000	97.501040
1283.000000	97.495878
1282.000000	97.494562
1281.000000	97.495325
1280.000000	97.495226
1279.000000	97.494465
1278.000000	97.497465
1277.000000	97.508125
1276.000000	97.524685
1275.000000	97.541336
1274.000000	97.554596
1273.000000	97.566129
1272.000000	97.578897
1271.000000	97.592352
1270.000000	97.602673
1269.000000	97.606538
1268.000000	97.603571
1267.000000	97.596325
1266.000000	97.589034
1265.000000	97.584977
1264.000000	97.583829
1263.000000	97.582238
1262.000000	97.577397
1261.000000	97.569113
1260.000000	97.558109
1259.000000	97.544361
1258.000000	97.528161
1257.000000	97.510713
1256.000000	97.492293
1255.000000	97.471330
1254.000000	97.446887
1253.000000	97.420834
1252.000000	97.395696
1251.000000	97.371428
1250.000000	97.345931
1249.000000	97.318050
1248.000000	97.288335
1247.000000	97.257202
1246.000000	97.224563
1245.000000	97.191386
1244.000000	97.159635
1243.000000	97.130103
1242.000000	97.102178
1241.000000	97.076401
1240.000000	97.055240
1239.000000	97.039910
1238.000000	97.027993
1237.000000	97.016565
1236.000000	97.006470
1235.000000	97.001671
1234.000000	97.005574
1233.000000	97.019569
1232.000000	97.044348
1231.000000	97.079202
1230.000000	97.120185
1229.000000	97.162436
1228.000000	97.204736
1227.000000	97.250004
1226.000000	97.300656
1225.000000	97.355472
1224.000000	97.411745
1223.000000	97.467956
1222.000000	97.522688
1221.000000	97.572617
1220.000000	97.614311
1219.000000	97.648031
1218.000000	97.677845
1217.000000	97.706732
1216.000000	97.732937
1215.000000	97.752410
1214.000000	97.763425
1213.000000	97.767726
1212.000000	97.767719
1211.000000	97.764392
1210.000000	97.757781
1209.000000	97.747402
1208.000000	97.732548
1207.000000	97.713613
1206.000000	97.693488
1205.000000	97.676499
1204.000000	97.665665
1203.000000	97.661695
1202.000000	97.664375
1201.000000	97.673965
1200.000000	97.690806
1199.000000	97.714325
1198.000000	97.742279
1197.000000	97.771109
1196.000000	97.798186
1195.000000	97.824453
1194.000000	97.853901
1193.000000	97.888420
1192.000000	97.923887
1191.000000	97.953961
1190.000000	97.977788
1189.000000	98.000846
1188.000000	98.027213
1187.000000	98.054033
1186.000000	98.075429
1185.000000	98.089677
1184.000000	98.099757
1183.000000	98.108595
1182.000000	98.116613
1181.000000	98.123246
1180.000000	98.128774
1179.000000	98.134026
1178.000000	98.139341
1177.000000	98.144133
1176.000000	98.147183
1175.000000	98.147878
1174.000000	98.147406
1173.000000	98.148159
1172.000000	98.151828
1171.000000	98.158409
1170.000000	98.166412
1169.000000	98.172802
1168.000000	98.173626
1167.000000	98.167259
1166.000000	98.157385
1165.000000	98.150561
1164.000000	98.150128
1163.000000	98.154232
1162.000000	98.159871
1161.000000	98.166300
1160.000000	98.173608
1159.000000	98.180925
1158.000000	98.188174
1157.000000	98.197471
1156.000000	98.210708
1155.000000	98.226892
1154.000000	98.243545
1153.000000	98.259586
1152.000000	98.275317
1151.000000	98.291108
1150.000000	98.307777
1149.000000	98.326821
1148.000000	98.348192
1147.000000	98.368931
1146.000000	98.385951
1145.000000	98.399318
1144.000000	98.411084
1143.000000	98.421858
1142.000000	98.430633
1141.000000	98.437373
1140.000000	98.443765
1139.000000	98.451309
1138.000000	98.459736
1137.000000	98.467446
1136.000000	98.472878
1135.000000	98.475750
1134.000000	98.477375
1133.000000	98.479233
1132.000000	98.481335
1131.000000	98.482771
1130.000000	98.483586
1129.000000	98.484815
1128.000000	98.486835
1127.000000	98.489317
1126.000000	98.492482
1125.000000	98.496248
1124.000000	98.498472
1123.000000	98.496753
1122.000000	98.492237
1121.000000	98.488404
1120.000000	98.485216
1119.000000	98.478094
1118.000000	98.464206
1117.000000	98.446659
1116.000000	98.430371
1115.000000	98.416664
1114.000000	98.404137
1113.000000	98.391947
1112.000000	98.379432
1111.000000	98.365073
1110.000000	98.349358
1109.000000	98.336904
1108.000000	98.332249
1107.000000	98.334289
1106.000000	98.337866
1105.000000	98.340062
1104.000000	98.341553
1103.000000	98.342266
1102.000000	98.339216
1101.000000	98.329862
1100.000000	98.315106
1099.000000	98.298430
1098.000000	98.283334
1097.000000	98.271277
1096.000000	98.260984
1095.000000	98.249777
1094.000000	98.236967
1093.000000	98.225048
1092.000000	98.215633
1091.000000	98.205079
1090.000000	98.186699
1089.000000	98.157843
1088.000000	98.122580
1087.000000	98.086927
1086.000000	98.053769
1085.000000	98.023584
1084.000000	97.998101
1083.000000	97.980159
1082.000000	97.969573
1081.000000	97.961414
1080.000000	97.950970
1079.000000	97.940531
1078.000000	97.939207
1077.000000	97.954319
1076.000000	97.982945
1075.000000	98.013727
1074.000000	98.037363
1073.000000	98.053598
1072.000000	98.067189
1071.000000	98.079712
1070.000000	98.088019
1069.000000	98.089434
1068.000000	98.085430
1067.000000	98.080085
1066.000000	98.077070
1065.000000	98.077946
1064.000000	98.081372
1063.000000	98.083611
1062.000000	98.081263
1061.000000	98.074264
1060.000000	98.065759
1059.000000	98.059481
1058.000000	98.057902
1057.000000	98.061703
1056.000000	98.069010
1055.000000	98.075684
1054.000000	98.078793
1053.000000	98.080287
1052.000000	98.085502
1051.000000	98.096972
1050.000000	98.110754
1049.000000	98.119422
1048.000000	98.117957
1047.000000	98.107151
1046.000000	98.092958
1045.000000	98.082338
1044.000000	98.077944
1043.000000	98.076194
1042.000000	98.071192
1041.000000	98.060890
1040.000000	98.048379
1039.000000	98.037470
1038.000000	98.028528
1037.000000	98.018447
1036.000000	98.003409
1035.000000	97.981721
1034.000000	97.956089
1033.000000	97.933702
1032.000000	97.922184
1031.000000	97.923930
1030.000000	97.934992
1029.000000	97.950175
1028.000000	97.967684
1027.000000	97.988128
1026.000000	98.010894
1025.000000	98.033633
1024.000000	98.054953
1023.000000	98.075777
1022.000000	98.097778
1021.000000	98.121072
1020.000000	98.143510
1019.000000	98.162050
1018.000000	98.175179
1017.000000	98.184056
1016.000000	98.190978
1015.000000	98.197320
1014.000000	98.203742
1013.000000	98.211766
1012.000000	98.223482
1011.000000	98.239566
1010.000000	98.258992
1009.000000	98.281045
1008.000000	98.305972
1007.000000	98.332934
1006.000000	98.359137
1005.000000	98.382367
1004.000000	98.403546
1003.000000	98.425395
1002.000000	98.449098
1001.000000	98.473436
1000.000000	98.496779
999.000000	98.518861
998.000000	98.540506
997.000000	98.562344
996.000000	98.584024
995.000000	98.604414
994.000000	98.622776
993.000000	98.640258
992.000000	98.660019
991.000000	98.684970
990.000000	98.714604
989.000000	98.744403
988.000000	98.769466
987.000000	98.788954
986.000000	98.806145
985.000000	98.823761
984.000000	98.840406
983.000000	98.852882
982.000000	98.860713
981.000000	98.865991
980.000000	98.869287
979.000000	98.868429
978.000000	98.862055
977.000000	98.852211
976.000000	98.842568
975.000000	98.835994
974.000000	98.834470
973.000000	98.838956
972.000000	98.847732
971.000000	98.857051
970.000000	98.865630
969.000000	98.876907
968.000000	98.894850
967.000000	98.918949
966.000000	98.945667
965.000000	98.973106
964.000000	99.000611
963.000000	99.024630
962.000000	99.039413
961.000000	99.043236
960.000000	99.041178
959.000000	99.040397
958.000000	99.044600
957.000000	99.053707
956.000000	99.066441
955.000000	99.081633
954.000000	99.098349
953.000000	99.116044
952.000000	99.133311
951.000000	99.145785
950.000000	99.147917
949.000000	99.139283
948.000000	99.127870
947.000000	99.124307
946.000000	99.132113
945.000000	99.145121
944.000000	99.154449
943.000000	99.156485
942.000000	99.154428
941.000000	99.153880
940.000000	99.157967
939.000000	99.165530
938.000000	99.172800
937.000000	99.177519
936.000000	99.181865
935.000000	99.190277
934.000000	99.203723
933.000000	99.217443
932.000000	99.226090
931.000000	99.230097
930.000000	99.234771
929.000000	99.243628
928.000000	99.255046
927.000000	99.265697
926.000000	99.274477
925.000000	99.281878
924.000000	99.288306
923.000000	99.295032
922.000000	99.304253
921.000000	99.315595
920.000000	99.324880
919.000000	99.329807
918.000000	99.335107
917.000000	99.347174
916.000000	99.364309
915.000000	99.377576
914.000000	99.382531
913.000000	99.385063
912.000000	99.392335
911.000000	99.402475
910.000000	99.407609
909.000000	99.404895
908.000000	99.399914
907.000000	99.399529
906.000000	99.405642
905.000000	99.416263
904.000000	99.429091
903.000000	99.442069
902.000000	99.452371
901.000000	99.457609
900.000000	99.458716
899.000000	99.460949
898.000000	99.470443
897.000000	99.488055
896.000000	99.506586
895.000000	99.516072
894.000000	99.513758
893.000000	99.507648
892.000000	99.508463
891.000000	99.518529
890.000000	99.529113
889.000000	99.527923
888.000000	99.507830
887.000000	99.468527
886.000000	99.412519
885.000000	99.340428
884.000000	99.250116
883.000000	99.139260
882.000000	99.005327
881.000000	98.842678
880.000000	98.642585
879.000000	98.401193
878.000000	98.126875
877.000000	97.835427
876.000000	97.539773
875.000000	97.253579
874.000000	97.011195
873.000000	96.875253
872.000000	96.910224
871.000000	97.133250
870.000000	97.489392
869.000000	97.882190
868.000000	98.229339
867.000000	98.495359
866.000000	98.685223
865.000000	98.820220
864.000000	98.920344
863.000000	98.999124
862.000000	99.064191
861.000000	99.118998
860.000000	99.164598
859.000000	99.200795
858.000000	99.227407
857.000000	99.244807
856.000000	99.254459
855.000000	99.260165
854.000000	99.268299
853.000000	99.284007
852.000000	99.304099
851.000000	99.315677
850.000000	99.307279
849.000000	99.283177
848.000000	99.263029
847.000000	99.264100
846.000000	99.285844
845.000000	99.314665
844.000000	99.340259
843.000000	99.362602
842.000000	99.384911
841.000000	99.406290
840.000000	99.422950
839.000000	99.432170
838.000000	99.433604
837.000000	99.430278
836.000000	99.429676
835.000000	99.439657
834.000000	99.459924
833.000000	99.480494
832.000000	99.492258
831.000000	99.496918
830.000000	99.503174
829.000000	99.514925
828.000000	99.527107
827.000000	99.532411
826.000000	99.527669
825.000000	99.513708
824.000000	99.493989
823.000000	99.475204
822.000000	99.464941
821.000000	99.465801
820.000000	99.473558
819.000000	99.482176
818.000000	99.488833
817.000000	99.493130
816.000000	99.494332
815.000000	99.492253
814.000000	99.490081
813.000000	99.493188
812.000000	99.503214
811.000000	99.514021
810.000000	99.515614
809.000000	99.504146
808.000000	99.487777
807.000000	99.480184
806.000000	99.487117
805.000000	99.501094
804.000000	99.510912
803.000000	99.513830
802.000000	99.514995
801.000000	99.516990
800.000000	99.515485
799.000000	99.506340
798.000000	99.492380
797.000000	99.480148
796.000000	99.472671
795.000000	99.468696
794.000000	99.467173
793.000000	99.468584
792.000000	99.471977
791.000000	99.474228
790.000000	99.473997
789.000000	99.474493
788.000000	99.479858
787.000000	99.489091
786.000000	99.496021
785.000000	99.496469
784.000000	99.493306
783.000000	99.491978
782.000000	99.492480
781.000000	99.489740
780.000000	99.482486
779.000000	99.477186
778.000000	99.480062
777.000000	99.488151
776.000000	99.492531
775.000000	99.489380
774.000000	99.483858
773.000000	99.483093
772.000000	99.488941
771.000000	99.498047
770.000000	99.505336
769.000000	99.506092
768.000000	99.497800
767.000000	99.482797
766.000000	99.468011
765.000000	99.459942
764.000000	99.459808
763.000000	99.464008
762.000000	99.468440
761.000000	99.471510
760.000000	99.473603
759.000000	99.474790
758.000000	99.474067
757.000000	99.471429
756.000000	99.469953
755.000000	99.474016
754.000000	99.484373
753.000000	99.496534
752.000000	99.505482
751.000000	99.510452
750.000000	99.513268
749.000000	99.513741
748.000000	99.509737
747.000000	99.500810
746.000000	99.488941
745.000000	99.476231
744.000000	99.464577
743.000000	99.457057
742.000000	99.455985
741.000000	99.458870
740.000000	99.459843
739.000000	99.456555
738.000000	99.452199
737.000000	99.448919
736.000000	99.442610
735.000000	99.427756
734.000000	99.405954
733.000000	99.385518
732.000000	99.371664
731.000000	99.359642
730.000000	99.339821
729.000000	99.309093
728.000000	99.276019
727.000000	99.252654
726.000000	99.240510
725.000000	99.228356
724.000000	99.205590
723.000000	99.173728
722.000000	99.141374
721.000000	99.111737
720.000000	99.081160
719.000000	99.047651
718.000000	99.011933
717.000000	98.967116
716.000000	98.895510
715.000000	98.786449
714.000000	98.659193
713.000000	98.561102
712.000000	98.535887
711.000000	98.590170
710.000000	98.690847
709.000000	98.792755
708.000000	98.867660
707.000000	98.911182
706.000000	98.929998
705.000000	98.931891
704.000000	98.927178
703.000000	98.927605
702.000000	98.938087
701.000000	98.952973
700.000000	98.963251
699.000000	98.965368
698.000000	98.959795
697.000000	98.947213
696.000000	98.932346
695.000000	98.925268
694.000000	98.932894
693.000000	98.949634
692.000000	98.961889
691.000000	98.962411
690.000000	98.952709
689.000000	98.935095
688.000000	98.912301
687.000000	98.893932
686.000000	98.892656
685.000000	98.907153
684.000000	98.916956
683.000000	98.904151
682.000000	98.874518
681.000000	98.849262
680.000000	98.839401
679.000000	98.837486
678.000000	98.831656
677.000000	98.816615
676.000000	98.794624
675.000000	98.772460
674.000000	98.759163
673.000000	98.762118
672.000000	98.780845
671.000000	98.810734
670.000000	98.847118
669.000000	98.883487
668.000000	98.888815
667.000000	98.849809
666.000000	98.802419
665.000000	98.753390
664.000000	98.699259
663.000000	98.656374
662.000000	98.638608
661.000000	98.644478
660.000000	98.661027
659.000000	98.679377
658.000000	98.691194
657.000000	98.684312
656.000000	98.657869
655.000000	98.631219
654.000000	98.623468
653.000000	98.631536
652.000000	98.640339
651.000000	98.644940
650.000000	98.650993
649.000000	98.659013
648.000000	98.661340
647.000000	98.653353
646.000000	98.639033
645.000000	98.627871
644.000000	98.628224
643.000000	98.640544
642.000000	98.656168
641.000000	98.665525
640.000000	98.668382
639.000000	98.671103
638.000000	98.673956
637.000000	98.670531
636.000000	98.661321
635.000000	98.656112
634.000000	98.659365
633.000000	98.663805
632.000000	98.662639
631.000000	98.659115
630.000000	98.658841
629.000000	98.660818
628.000000	98.662390
627.000000	98.664471
626.000000	98.665354
625.000000	98.658685
624.000000	98.642792
623.000000	98.624598
622.000000	98.610018
621.000000	98.597866
620.000000	98.587331
619.000000	98.581828
618.000000	98.580437
617.000000	98.575260
616.000000	98.564617
615.000000	98.559994
614.000000	98.571066
613.000000	98.591954
612.000000	98.610387
611.000000	98.622081
610.000000	98.628444
609.000000	98.628814
608.000000	98.625003
607.000000	98.626701
606.000000	98.639921
605.000000	98.655298
604.000000	98.657627
603.000000	98.644168
602.000000	98.627250
601.000000	98.621960
600.000000	98.636690
599.000000	98.668433
598.000000	98.700125
597.000000	98.710368
596.000000	98.693393
595.000000	98.665576
594.000000	98.647261
593.000000	98.642535
592.000000	98.643145
591.000000	98.644903
590.000000	98.649652
589.000000	98.656421
588.000000	98.661146
587.000000	98.661053
586.000000	98.652145
585.000000	98.628760
584.000000	98.594178
583.000000	98.565468
582.000000	98.558301
581.000000	98.572177
580.000000	98.597404
579.000000	98.628537
578.000000	98.660784
577.000000	98.682566
576.000000	98.685135
575.000000	98.674441
574.000000	98.660755
573.000000	98.641996
572.000000	98.611473
571.000000	98.575311
570.000000	98.548236
569.000000	98.534037
568.000000	98.523162
567.000000	98.507562
566.000000	98.486252
565.000000	98.460947
564.000000	98.436828
563.000000	98.422056
562.000000	98.416105
561.000000	98.406409
560.000000	98.388474
559.000000	98.378935
558.000000	98.393979
557.000000	98.425526
556.000000	98.453981
555.000000	98.475046
554.000000	98.495352
553.000000	98.509685
552.000000	98.505068
551.000000	98.485044
550.000000	98.471741
549.000000	98.481407
548.000000	98.511312
547.000000	98.548111
546.000000	98.574017
545.000000	98.571080
544.000000	98.536996
543.000000	98.494888
542.000000	98.473908
541.000000	98.479653
540.000000	98.493185
539.000000	98.494613
538.000000	98.475135
537.000000	98.433241
536.000000	98.377383
535.000000	98.330634
534.000000	98.313658
533.000000	98.322411
532.000000	98.336630
531.000000	98.345822
530.000000	98.352389
529.000000	98.355116
528.000000	98.347432
527.000000	98.333668
526.000000	98.331559
525.000000	98.350318
524.000000	98.378457
523.000000	98.397803
522.000000	98.398589
521.000000	98.385463
520.000000	98.379423
519.000000	98.405780
518.000000	98.465238
517.000000	98.526208
516.000000	98.563227
515.000000	98.585700
514.000000	98.613433
513.000000	98.644790
512.000000	98.665949
511.000000	98.678079
510.000000	98.694292
509.000000	98.715470
508.000000	98.729783
507.000000	98.734754
506.000000	98.740049
505.000000	98.746825
504.000000	98.743848
503.000000	98.726952
502.000000	98.709565
501.000000	98.707212
500.000000	98.719009
499.000000	98.730975
498.000000	98.728203
497.000000	98.707192
496.000000	98.684989
495.000000	98.687685
494.000000	98.721948
493.000000	98.764563
492.000000	98.790849
491.000000	98.805202
490.000000	98.828954
489.000000	98.870415
488.000000	98.919819
487.000000	98.959313
486.000000	98.965537
485.000000	98.921961
484.000000	98.851431
483.000000	98.814629
482.000000	98.844634
481.000000	98.901498
480.000000	98.916008
479.000000	98.862219
478.000000	98.771989
477.000000	98.693135
476.000000	98.653425
475.000000	98.660091
474.000000	98.706091
473.000000	98.769405
472.000000	98.826448
471.000000	98.872599
470.000000	98.913398
469.000000	98.945450
468.000000	98.962946
467.000000	98.967075
466.000000	98.953163
465.000000	98.908844
464.000000	98.844243
463.000000	98.802344
462.000000	98.812958
461.000000	98.853590
460.000000	98.890787
459.000000	98.933677
458.000000	99.007409
457.000000	99.092851
456.000000	99.158171
455.000000	99.224051
454.000000	99.326685
453.000000	99.448503
452.000000	99.532186
451.000000	99.543407
450.000000	99.509552
