PE IR       SUBTECH     SPECTRUM    ASCII       PEDS        4.00        
   -1
AG10-F008_1.ASC
23/09/08
10:40:14.00
23/09/08
11:14:38.00
uco
Sample 008 By uco Date Friday, September 08 2023
450.000000
#HDR
-1
-1
#GR
cm-1
%T
1.0
0.0
4000.000000
-1.000000
3551
8
99.933074
90.694696
#DATA
4000.000000	99.747692
3999.000000	99.748464
3998.000000	99.750761
3997.000000	99.753024
3996.000000	99.753576
3995.000000	99.751933
3994.000000	99.749593
3993.000000	99.748891
3992.000000	99.750943
3991.000000	99.754491
3990.000000	99.756778
3989.000000	99.755815
3988.000000	99.751901
3987.000000	99.747294
3986.000000	99.744468
3985.000000	99.744272
3984.000000	99.745499
3983.000000	99.746001
3982.000000	99.744464
3981.000000	99.741423
3980.000000	99.738750
3979.000000	99.738166
3978.000000	99.740064
3977.000000	99.743408
3976.000000	99.746636
3975.000000	99.748701
3974.000000	99.749580
3973.000000	99.749975
3972.000000	99.750333
3971.000000	99.750178
3970.000000	99.748509
3969.000000	99.745057
3968.000000	99.740969
3967.000000	99.738020
3966.000000	99.737095
3965.000000	99.737435
3964.000000	99.737380
3963.000000	99.735818
3962.000000	99.732961
3961.000000	99.729892
3960.000000	99.727387
3959.000000	99.725672
3958.000000	99.724977
3957.000000	99.725707
3956.000000	99.727463
3955.000000	99.728435
3954.000000	99.726846
3953.000000	99.722772
3952.000000	99.718254
3951.000000	99.715457
3950.000000	99.714782
3949.000000	99.715033
3948.000000	99.715382
3947.000000	99.716890
3946.000000	99.721579
3945.000000	99.729304
3944.000000	99.736352
3943.000000	99.738263
3942.000000	99.733758
3941.000000	99.725413
3940.000000	99.716848
3939.000000	99.710499
3938.000000	99.707463
3937.000000	99.708382
3936.000000	99.712801
3935.000000	99.717717
3934.000000	99.718800
3933.000000	99.714203
3932.000000	99.707077
3931.000000	99.702663
3930.000000	99.702967
3929.000000	99.706214
3928.000000	99.710043
3927.000000	99.712737
3926.000000	99.712755
3925.000000	99.710353
3924.000000	99.709009
3923.000000	99.711926
3922.000000	99.717888
3921.000000	99.722385
3920.000000	99.722390
3919.000000	99.718987
3918.000000	99.715150
3917.000000	99.712445
3916.000000	99.710396
3915.000000	99.708435
3914.000000	99.706458
3913.000000	99.705216
3912.000000	99.705892
3911.000000	99.709530
3910.000000	99.715241
3909.000000	99.720730
3908.000000	99.723950
3907.000000	99.723284
3906.000000	99.716758
3905.000000	99.703360
3904.000000	99.687604
3903.000000	99.678639
3902.000000	99.681980
3901.000000	99.694284
3900.000000	99.707110
3899.000000	99.714494
3898.000000	99.715950
3897.000000	99.713586
3896.000000	99.708945
3895.000000	99.704216
3894.000000	99.701970
3893.000000	99.703382
3892.000000	99.705791
3891.000000	99.705887
3890.000000	99.704087
3889.000000	99.704785
3888.000000	99.709390
3887.000000	99.710907
3886.000000	99.702670
3885.000000	99.690612
3884.000000	99.687041
3883.000000	99.696073
3882.000000	99.709821
3881.000000	99.716760
3880.000000	99.713183
3879.000000	99.704975
3878.000000	99.699903
3877.000000	99.700696
3876.000000	99.702712
3875.000000	99.699496
3874.000000	99.692906
3873.000000	99.693231
3872.000000	99.705452
3871.000000	99.719984
3870.000000	99.723722
3869.000000	99.718129
3868.000000	99.715407
3867.000000	99.721128
3866.000000	99.727915
3865.000000	99.726920
3864.000000	99.719084
3863.000000	99.711069
3862.000000	99.705393
3861.000000	99.701101
3860.000000	99.696263
3859.000000	99.689149
3858.000000	99.680134
3857.000000	99.673477
3856.000000	99.674297
3855.000000	99.678939
3854.000000	99.677654
3853.000000	99.676535
3852.000000	99.683408
3851.000000	99.694050
3850.000000	99.703063
3849.000000	99.708508
3848.000000	99.711537
3847.000000	99.714593
3846.000000	99.717966
3845.000000	99.720185
3844.000000	99.718913
3843.000000	99.713384
3842.000000	99.705891
3841.000000	99.700122
3840.000000	99.696607
3839.000000	99.694023
3838.000000	99.692378
3837.000000	99.692438
3836.000000	99.694897
3835.000000	99.700527
3834.000000	99.709206
3833.000000	99.718007
3832.000000	99.722513
3831.000000	99.721070
3830.000000	99.716623
3829.000000	99.713888
3828.000000	99.713833
3827.000000	99.712725
3826.000000	99.707504
3825.000000	99.701778
3824.000000	99.702201
3823.000000	99.709369
3822.000000	99.714843
3821.000000	99.713753
3820.000000	99.710884
3819.000000	99.710995
3818.000000	99.713228
3817.000000	99.709033
3816.000000	99.695361
3815.000000	99.683416
3814.000000	99.683083
3813.000000	99.690920
3812.000000	99.697898
3811.000000	99.701448
3810.000000	99.706273
3809.000000	99.714425
3808.000000	99.717820
3807.000000	99.708559
3806.000000	99.692421
3805.000000	99.683363
3804.000000	99.687840
3803.000000	99.698292
3802.000000	99.701385
3801.000000	99.696839
3800.000000	99.694489
3799.000000	99.699166
3798.000000	99.706969
3797.000000	99.711007
3796.000000	99.710095
3795.000000	99.708926
3794.000000	99.711233
3793.000000	99.715937
3792.000000	99.720440
3791.000000	99.723643
3790.000000	99.725160
3789.000000	99.724100
3788.000000	99.720388
3787.000000	99.715882
3786.000000	99.713134
3785.000000	99.713545
3784.000000	99.717099
3783.000000	99.723420
3782.000000	99.730955
3781.000000	99.735868
3780.000000	99.734153
3779.000000	99.727295
3778.000000	99.721265
3777.000000	99.720291
3776.000000	99.722895
3775.000000	99.724618
3774.000000	99.723493
3773.000000	99.721206
3772.000000	99.718432
3771.000000	99.713074
3770.000000	99.705750
3769.000000	99.701879
3768.000000	99.705638
3767.000000	99.715286
3766.000000	99.724758
3765.000000	99.729211
3764.000000	99.729060
3763.000000	99.727758
3762.000000	99.725843
3761.000000	99.721149
3760.000000	99.713828
3759.000000	99.706917
3758.000000	99.699989
3757.000000	99.691054
3756.000000	99.682862
3755.000000	99.680498
3754.000000	99.684287
3753.000000	99.688863
3752.000000	99.690687
3751.000000	99.692597
3750.000000	99.695404
3749.000000	99.694650
3748.000000	99.692816
3747.000000	99.697666
3746.000000	99.706828
3745.000000	99.707792
3744.000000	99.702543
3743.000000	99.704827
3742.000000	99.717209
3741.000000	99.731998
3740.000000	99.743637
3739.000000	99.753498
3738.000000	99.762323
3737.000000	99.763219
3736.000000	99.753622
3735.000000	99.745037
3734.000000	99.747111
3733.000000	99.753206
3732.000000	99.752617
3731.000000	99.745203
3730.000000	99.738949
3729.000000	99.739078
3728.000000	99.742727
3727.000000	99.743279
3726.000000	99.738843
3725.000000	99.732501
3724.000000	99.726430
3723.000000	99.720856
3722.000000	99.716626
3721.000000	99.715868
3720.000000	99.718972
3719.000000	99.722880
3718.000000	99.722877
3717.000000	99.718310
3716.000000	99.715015
3715.000000	99.718850
3714.000000	99.727660
3713.000000	99.731748
3712.000000	99.724911
3711.000000	99.714467
3710.000000	99.711995
3709.000000	99.719533
3708.000000	99.730307
3707.000000	99.737098
3706.000000	99.738217
3705.000000	99.737100
3704.000000	99.737897
3703.000000	99.741569
3702.000000	99.746044
3701.000000	99.748717
3700.000000	99.749171
3699.000000	99.748892
3698.000000	99.747719
3697.000000	99.743166
3696.000000	99.734459
3695.000000	99.723532
3694.000000	99.712201
3693.000000	99.702442
3692.000000	99.697742
3691.000000	99.701487
3690.000000	99.711506
3689.000000	99.720235
3688.000000	99.722385
3687.000000	99.721211
3686.000000	99.723762
3685.000000	99.730958
3684.000000	99.738197
3683.000000	99.741779
3682.000000	99.740906
3681.000000	99.733903
3680.000000	99.720528
3679.000000	99.707710
3678.000000	99.705304
3677.000000	99.711832
3676.000000	99.714271
3675.000000	99.708689
3674.000000	99.702255
3673.000000	99.703443
3672.000000	99.712419
3671.000000	99.720035
3670.000000	99.722111
3669.000000	99.725338
3668.000000	99.732878
3667.000000	99.741582
3666.000000	99.747852
3665.000000	99.750256
3664.000000	99.749922
3663.000000	99.748479
3662.000000	99.745833
3661.000000	99.741336
3660.000000	99.737536
3659.000000	99.738801
3658.000000	99.745498
3657.000000	99.750458
3656.000000	99.746836
3655.000000	99.736846
3654.000000	99.729210
3653.000000	99.729402
3652.000000	99.733549
3651.000000	99.732355
3650.000000	99.723658
3649.000000	99.717158
3648.000000	99.717875
3647.000000	99.719785
3646.000000	99.718065
3645.000000	99.713837
3644.000000	99.709262
3643.000000	99.705277
3642.000000	99.702604
3641.000000	99.701920
3640.000000	99.701948
3639.000000	99.699403
3638.000000	99.693778
3637.000000	99.689390
3636.000000	99.690092
3635.000000	99.693240
3634.000000	99.692929
3633.000000	99.688598
3632.000000	99.685701
3631.000000	99.686842
3630.000000	99.685809
3629.000000	99.680560
3628.000000	99.679658
3627.000000	99.685449
3626.000000	99.693680
3625.000000	99.700370
3624.000000	99.704899
3623.000000	99.710392
3622.000000	99.719720
3621.000000	99.730839
3620.000000	99.738033
3619.000000	99.737404
3618.000000	99.729044
3617.000000	99.715967
3616.000000	99.702838
3615.000000	99.692562
3614.000000	99.685416
3613.000000	99.680938
3612.000000	99.678679
3611.000000	99.678024
3610.000000	99.677714
3609.000000	99.676965
3608.000000	99.676858
3607.000000	99.678157
3606.000000	99.679450
3605.000000	99.678864
3604.000000	99.676234
3603.000000	99.672497
3602.000000	99.669015
3601.000000	99.666921
3600.000000	99.666924
3599.000000	99.667738
3598.000000	99.666383
3597.000000	99.661075
3596.000000	99.653834
3595.000000	99.649067
3594.000000	99.649726
3593.000000	99.654306
3592.000000	99.658294
3591.000000	99.658840
3590.000000	99.655527
3589.000000	99.649395
3588.000000	99.643882
3587.000000	99.643360
3586.000000	99.646973
3585.000000	99.650521
3584.000000	99.651991
3583.000000	99.650994
3582.000000	99.647557
3581.000000	99.642220
3580.000000	99.636525
3579.000000	99.632407
3578.000000	99.630764
3577.000000	99.630836
3576.000000	99.630473
3575.000000	99.627691
3574.000000	99.622052
3573.000000	99.615409
3572.000000	99.610634
3571.000000	99.609966
3570.000000	99.613367
3569.000000	99.617812
3568.000000	99.620111
3567.000000	99.620499
3566.000000	99.619828
3565.000000	99.617035
3564.000000	99.612932
3563.000000	99.610290
3562.000000	99.610622
3561.000000	99.612865
3560.000000	99.614351
3559.000000	99.613029
3558.000000	99.608720
3557.000000	99.602789
3556.000000	99.597083
3555.000000	99.592909
3554.000000	99.590195
3553.000000	99.587880
3552.000000	99.585314
3551.000000	99.582707
3550.000000	99.580253
3549.000000	99.577260
3548.000000	99.572829
3547.000000	99.567826
3546.000000	99.565050
3545.000000	99.566352
3544.000000	99.570441
3543.000000	99.574435
3542.000000	99.576344
3541.000000	99.576109
3540.000000	99.574870
3539.000000	99.573307
3538.000000	99.570667
3537.000000	99.565475
3536.000000	99.557740
3535.000000	99.549578
3534.000000	99.543819
3533.000000	99.541943
3532.000000	99.543434
3531.000000	99.546373
3530.000000	99.548570
3529.000000	99.548962
3528.000000	99.548543
3527.000000	99.549525
3526.000000	99.552959
3525.000000	99.557406
3524.000000	99.559843
3523.000000	99.557834
3522.000000	99.551237
3521.000000	99.542498
3520.000000	99.535302
3519.000000	99.531966
3518.000000	99.531846
3517.000000	99.532123
3516.000000	99.530595
3515.000000	99.527324
3514.000000	99.523921
3513.000000	99.521789
3512.000000	99.521567
3511.000000	99.523632
3510.000000	99.527950
3509.000000	99.532900
3508.000000	99.535619
3507.000000	99.534447
3506.000000	99.530497
3505.000000	99.526291
3504.000000	99.523675
3503.000000	99.522741
3502.000000	99.522255
3501.000000	99.520988
3500.000000	99.518578
3499.000000	99.515446
3498.000000	99.512549
3497.000000	99.511245
3496.000000	99.512209
3495.000000	99.514174
3494.000000	99.514481
3493.000000	99.511407
3492.000000	99.505490
3491.000000	99.498456
3490.000000	99.491656
3489.000000	99.485976
3488.000000	99.482672
3487.000000	99.482968
3486.000000	99.486314
3485.000000	99.489815
3484.000000	99.490290
3483.000000	99.487227
3482.000000	99.483767
3481.000000	99.483917
3480.000000	99.488533
3479.000000	99.494436
3478.000000	99.497517
3477.000000	99.495971
3476.000000	99.490557
3475.000000	99.482877
3474.000000	99.474579
3473.000000	99.468152
3472.000000	99.466645
3471.000000	99.471072
3470.000000	99.478420
3469.000000	99.483262
3468.000000	99.481548
3467.000000	99.473138
3466.000000	99.461544
3465.000000	99.451885
3464.000000	99.448357
3463.000000	99.451907
3462.000000	99.459695
3461.000000	99.467362
3460.000000	99.472170
3459.000000	99.473719
3458.000000	99.472326
3457.000000	99.468121
3456.000000	99.462182
3455.000000	99.457082
3454.000000	99.455191
3453.000000	99.456549
3452.000000	99.459124
3451.000000	99.460726
3450.000000	99.460249
3449.000000	99.457906
3448.000000	99.455364
3447.000000	99.454977
3446.000000	99.457229
3445.000000	99.459522
3444.000000	99.458677
3443.000000	99.454190
3442.000000	99.448420
3441.000000	99.443918
3440.000000	99.441393
3439.000000	99.439939
3438.000000	99.438169
3437.000000	99.434912
3436.000000	99.430079
3435.000000	99.425177
3434.000000	99.422215
3433.000000	99.421662
3432.000000	99.422217
3431.000000	99.422631
3430.000000	99.422895
3429.000000	99.423655
3428.000000	99.425369
3427.000000	99.428212
3426.000000	99.431709
3425.000000	99.434068
3424.000000	99.432810
3423.000000	99.426879
3422.000000	99.417944
3421.000000	99.409178
3420.000000	99.402738
3419.000000	99.398517
3418.000000	99.395124
3417.000000	99.391648
3416.000000	99.388532
3415.000000	99.386927
3414.000000	99.387051
3413.000000	99.387415
3412.000000	99.386231
3411.000000	99.383459
3410.000000	99.380908
3409.000000	99.380319
3408.000000	99.381904
3407.000000	99.384620
3406.000000	99.387014
3405.000000	99.387643
3404.000000	99.385683
3403.000000	99.381788
3402.000000	99.377775
3401.000000	99.374689
3400.000000	99.371457
3399.000000	99.366301
3398.000000	99.359501
3397.000000	99.353907
3396.000000	99.352287
3395.000000	99.354890
3394.000000	99.359977
3393.000000	99.365802
3392.000000	99.371075
3391.000000	99.374095
3390.000000	99.373029
3389.000000	99.367603
3388.000000	99.359650
3387.000000	99.351318
3386.000000	99.343301
3385.000000	99.335431
3384.000000	99.328325
3383.000000	99.323207
3382.000000	99.320362
3381.000000	99.318966
3380.000000	99.318675
3379.000000	99.320305
3378.000000	99.324233
3377.000000	99.328850
3376.000000	99.331289
3375.000000	99.329669
3374.000000	99.324442
3373.000000	99.317953
3372.000000	99.312846
3371.000000	99.310268
3370.000000	99.308896
3369.000000	99.306004
3368.000000	99.300304
3367.000000	99.293725
3366.000000	99.289593
3365.000000	99.288913
3364.000000	99.289327
3363.000000	99.287978
3362.000000	99.284536
3361.000000	99.280894
3360.000000	99.278616
3359.000000	99.277619
3358.000000	99.277113
3357.000000	99.276803
3356.000000	99.276733
3355.000000	99.276479
3354.000000	99.275036
3353.000000	99.271595
3352.000000	99.266319
3351.000000	99.260405
3350.000000	99.255282
3349.000000	99.251464
3348.000000	99.248292
3347.000000	99.245053
3346.000000	99.242327
3345.000000	99.241693
3344.000000	99.243855
3343.000000	99.247360
3342.000000	99.249525
3341.000000	99.248529
3340.000000	99.244548
3339.000000	99.239449
3338.000000	99.235796
3337.000000	99.235391
3336.000000	99.237535
3335.000000	99.238685
3334.000000	99.235065
3333.000000	99.226442
3332.000000	99.216903
3331.000000	99.211278
3330.000000	99.210931
3329.000000	99.213192
3328.000000	99.214371
3327.000000	99.212705
3326.000000	99.208809
3325.000000	99.204385
3324.000000	99.200904
3323.000000	99.198906
3322.000000	99.198019
3321.000000	99.197829
3320.000000	99.198726
3319.000000	99.201390
3318.000000	99.205151
3317.000000	99.207433
3316.000000	99.205612
3315.000000	99.199565
3314.000000	99.191983
3313.000000	99.185990
3312.000000	99.182594
3311.000000	99.180399
3310.000000	99.177520
3309.000000	99.173595
3308.000000	99.170002
3307.000000	99.168328
3306.000000	99.168685
3305.000000	99.169419
3304.000000	99.168331
3303.000000	99.164301
3302.000000	99.158023
3301.000000	99.151338
3300.000000	99.145802
3299.000000	99.141810
3298.000000	99.139041
3297.000000	99.137498
3296.000000	99.137740
3295.000000	99.140013
3294.000000	99.143595
3293.000000	99.147411
3292.000000	99.150966
3291.000000	99.154193
3290.000000	99.156528
3289.000000	99.156740
3288.000000	99.153954
3287.000000	99.148608
3286.000000	99.142255
3285.000000	99.136624
3284.000000	99.132792
3283.000000	99.130792
3282.000000	99.129804
3281.000000	99.128945
3280.000000	99.127987
3279.000000	99.127315
3278.000000	99.127440
3277.000000	99.128713
3276.000000	99.131124
3275.000000	99.133803
3274.000000	99.134918
3273.000000	99.132949
3272.000000	99.128344
3271.000000	99.123428
3270.000000	99.120357
3269.000000	99.119558
3268.000000	99.120155
3267.000000	99.121179
3266.000000	99.122098
3265.000000	99.122980
3264.000000	99.124729
3263.000000	99.128619
3262.000000	99.134792
3261.000000	99.141357
3260.000000	99.145476
3259.000000	99.145509
3258.000000	99.141977
3257.000000	99.136832
3256.000000	99.132309
3255.000000	99.130085
3254.000000	99.130693
3253.000000	99.133527
3252.000000	99.137692
3251.000000	99.142651
3250.000000	99.147634
3249.000000	99.150918
3248.000000	99.150894
3247.000000	99.148200
3246.000000	99.145915
3245.000000	99.146795
3244.000000	99.150486
3243.000000	99.154161
3242.000000	99.155687
3241.000000	99.155715
3240.000000	99.156658
3239.000000	99.159972
3238.000000	99.164435
3237.000000	99.166883
3236.000000	99.165048
3235.000000	99.160084
3234.000000	99.155924
3233.000000	99.155625
3232.000000	99.158533
3231.000000	99.161701
3230.000000	99.163737
3229.000000	99.165862
3228.000000	99.168934
3227.000000	99.170950
3226.000000	99.169108
3225.000000	99.163813
3224.000000	99.159076
3223.000000	99.158534
3222.000000	99.161993
3221.000000	99.166503
3220.000000	99.169783
3219.000000	99.171715
3218.000000	99.172828
3217.000000	99.172670
3216.000000	99.170299
3215.000000	99.165925
3214.000000	99.161398
3213.000000	99.158897
3212.000000	99.159408
3211.000000	99.162426
3210.000000	99.166709
3209.000000	99.171030
3208.000000	99.174506
3207.000000	99.176875
3206.000000	99.178721
3205.000000	99.181222
3204.000000	99.185247
3203.000000	99.190410
3202.000000	99.195018
3201.000000	99.197148
3200.000000	99.196080
3199.000000	99.192923
3198.000000	99.189700
3197.000000	99.187549
3196.000000	99.185792
3195.000000	99.183165
3194.000000	99.179909
3193.000000	99.178110
3192.000000	99.179621
3191.000000	99.183817
3190.000000	99.187796
3189.000000	99.188926
3188.000000	99.187161
3187.000000	99.185020
3186.000000	99.185363
3185.000000	99.188797
3184.000000	99.193082
3183.000000	99.195476
3182.000000	99.195786
3181.000000	99.196472
3180.000000	99.199250
3179.000000	99.202394
3178.000000	99.202469
3177.000000	99.198618
3176.000000	99.193736
3175.000000	99.191043
3174.000000	99.190701
3173.000000	99.190681
3172.000000	99.189974
3171.000000	99.189657
3170.000000	99.191031
3169.000000	99.194143
3168.000000	99.198518
3167.000000	99.204239
3166.000000	99.211241
3165.000000	99.217905
3164.000000	99.221636
3163.000000	99.221420
3162.000000	99.219324
3161.000000	99.218682
3160.000000	99.220808
3159.000000	99.223760
3158.000000	99.224490
3157.000000	99.222001
3156.000000	99.218309
3155.000000	99.216502
3154.000000	99.218078
3153.000000	99.222152
3152.000000	99.227032
3151.000000	99.232250
3150.000000	99.238576
3149.000000	99.245897
3148.000000	99.251619
3147.000000	99.252139
3146.000000	99.246353
3145.000000	99.237314
3144.000000	99.230060
3143.000000	99.227758
3142.000000	99.230104
3141.000000	99.234754
3140.000000	99.239614
3139.000000	99.243848
3138.000000	99.247697
3137.000000	99.251754
3136.000000	99.255976
3135.000000	99.259014
3134.000000	99.258926
3133.000000	99.255088
3132.000000	99.249443
3131.000000	99.245583
3130.000000	99.246377
3129.000000	99.252021
3128.000000	99.259892
3127.000000	99.266255
3126.000000	99.268716
3125.000000	99.267580
3124.000000	99.265175
3123.000000	99.263992
3122.000000	99.265182
3121.000000	99.268069
3120.000000	99.270545
3119.000000	99.270239
3118.000000	99.266415
3117.000000	99.261167
3116.000000	99.258155
3115.000000	99.259433
3114.000000	99.263625
3113.000000	99.267289
3112.000000	99.267806
3111.000000	99.264941
3110.000000	99.260513
3109.000000	99.257216
3108.000000	99.257391
3107.000000	99.261699
3106.000000	99.268288
3105.000000	99.273650
3104.000000	99.275058
3103.000000	99.272543
3102.000000	99.268467
3101.000000	99.265258
3100.000000	99.263462
3099.000000	99.261789
3098.000000	99.258825
3097.000000	99.254651
3096.000000	99.250821
3095.000000	99.248980
3094.000000	99.249752
3093.000000	99.252882
3092.000000	99.257793
3091.000000	99.263489
3090.000000	99.268376
3089.000000	99.270866
3088.000000	99.270287
3087.000000	99.266944
3086.000000	99.261657
3085.000000	99.255889
3084.000000	99.252045
3083.000000	99.252283
3082.000000	99.256273
3081.000000	99.260762
3080.000000	99.262279
3079.000000	99.260355
3078.000000	99.257612
3077.000000	99.256659
3076.000000	99.257343
3075.000000	99.257152
3074.000000	99.254036
3073.000000	99.248675
3072.000000	99.244024
3071.000000	99.242605
3070.000000	99.244149
3069.000000	99.245990
3068.000000	99.245734
3067.000000	99.243356
3066.000000	99.240701
3065.000000	99.239398
3064.000000	99.239676
3063.000000	99.240968
3062.000000	99.242925
3061.000000	99.245531
3060.000000	99.248532
3059.000000	99.251240
3058.000000	99.253168
3057.000000	99.254701
3056.000000	99.256785
3055.000000	99.259755
3054.000000	99.262650
3053.000000	99.263946
3052.000000	99.262932
3051.000000	99.260306
3050.000000	99.257543
3049.000000	99.255930
3048.000000	99.256052
3047.000000	99.257720
3046.000000	99.260102
3045.000000	99.261994
3044.000000	99.262300
3043.000000	99.260604
3042.000000	99.257492
3041.000000	99.254303
3040.000000	99.252471
3039.000000	99.253044
3038.000000	99.256591
3037.000000	99.262883
3036.000000	99.270201
3035.000000	99.275515
3034.000000	99.276526
3033.000000	99.273808
3032.000000	99.270258
3031.000000	99.268297
3030.000000	99.268428
3029.000000	99.270482
3028.000000	99.274585
3027.000000	99.279768
3026.000000	99.282838
3025.000000	99.280522
3024.000000	99.272828
3023.000000	99.263282
3022.000000	99.255972
3021.000000	99.253286
3020.000000	99.255900
3019.000000	99.262922
3018.000000	99.271314
3017.000000	99.276682
3016.000000	99.276084
3015.000000	99.270103
3014.000000	99.262063
3013.000000	99.255736
3012.000000	99.253587
3011.000000	99.255441
3010.000000	99.257830
3009.000000	99.255686
3008.000000	99.246272
3007.000000	99.231773
3006.000000	99.217549
3005.000000	99.207851
3004.000000	99.203242
3003.000000	99.201418
3002.000000	99.199694
3001.000000	99.196901
3000.000000	99.193755
2999.000000	99.191778
2998.000000	99.191561
2997.000000	99.192101
2996.000000	99.191805
2995.000000	99.189793
2994.000000	99.185833
2993.000000	99.179360
2992.000000	99.169263
2991.000000	99.154741
2990.000000	99.136279
2989.000000	99.115984
2988.000000	99.097134
2987.000000	99.082567
2986.000000	99.072451
2985.000000	99.063558
2984.000000	99.051407
2983.000000	99.033732
2982.000000	99.011864
2981.000000	98.988987
2980.000000	98.967361
2979.000000	98.947123
2978.000000	98.926957
2977.000000	98.905392
2976.000000	98.881637
2975.000000	98.855618
2974.000000	98.827367
2973.000000	98.796524
2972.000000	98.762720
2971.000000	98.726378
2970.000000	98.688805
2969.000000	98.651344
2968.000000	98.614929
2967.000000	98.580478
2966.000000	98.548775
2965.000000	98.519109
2964.000000	98.488563
2963.000000	98.454224
2962.000000	98.416399
2961.000000	98.378590
2960.000000	98.343708
2959.000000	98.311346
2958.000000	98.279788
2957.000000	98.249545
2956.000000	98.223351
2955.000000	98.203007
2954.000000	98.188028
2953.000000	98.177724
2952.000000	98.172645
2951.000000	98.172815
2950.000000	98.175420
2949.000000	98.175685
2948.000000	98.169873
2947.000000	98.156769
2946.000000	98.136745
2945.000000	98.110173
2944.000000	98.076808
2943.000000	98.035886
2942.000000	97.986919
2941.000000	97.930693
2940.000000	97.869192
2939.000000	97.803938
2938.000000	97.734497
2937.000000	97.659262
2936.000000	97.577309
2935.000000	97.488995
2934.000000	97.395233
2933.000000	97.297078
2932.000000	97.195936
2931.000000	97.093199
2930.000000	96.989845
2929.000000	96.887166
2928.000000	96.787903
2927.000000	96.695705
2926.000000	96.613282
2925.000000	96.541946
2924.000000	96.482719
2923.000000	96.436964
2922.000000	96.405763
2921.000000	96.390119
2920.000000	96.392769
2919.000000	96.418317
2918.000000	96.470275
2917.000000	96.547907
2916.000000	96.646866
2915.000000	96.762628
2914.000000	96.891871
2913.000000	97.030509
2912.000000	97.171347
2911.000000	97.305022
2910.000000	97.423186
2909.000000	97.521461
2908.000000	97.600648
2907.000000	97.665917
2906.000000	97.724195
2905.000000	97.780495
2904.000000	97.835654
2903.000000	97.887109
2902.000000	97.932251
2901.000000	97.970813
2900.000000	98.004964
2899.000000	98.037625
2898.000000	98.070885
2897.000000	98.105731
2896.000000	98.142149
2895.000000	98.178800
2894.000000	98.212998
2893.000000	98.242121
2892.000000	98.265868
2891.000000	98.287044
2890.000000	98.309671
2889.000000	98.336023
2888.000000	98.365104
2887.000000	98.393493
2886.000000	98.417623
2885.000000	98.435819
2884.000000	98.448863
2883.000000	98.458662
2882.000000	98.466291
2881.000000	98.471465
2880.000000	98.473822
2879.000000	98.474008
2878.000000	98.472792
2877.000000	98.469421
2876.000000	98.461851
2875.000000	98.448967
2874.000000	98.432134
2873.000000	98.414172
2872.000000	98.397336
2871.000000	98.382786
2870.000000	98.371404
2869.000000	98.363705
2868.000000	98.358298
2867.000000	98.351111
2866.000000	98.337214
2865.000000	98.313824
2864.000000	98.281183
2863.000000	98.240690
2862.000000	98.192656
2861.000000	98.135887
2860.000000	98.068686
2859.000000	97.989701
2858.000000	97.898687
2857.000000	97.797930
2856.000000	97.693319
2855.000000	97.593202
2854.000000	97.505878
2853.000000	97.437892
2852.000000	97.394580
2851.000000	97.381600
2850.000000	97.404783
2849.000000	97.467839
2848.000000	97.569090
2847.000000	97.699821
2846.000000	97.846271
2845.000000	97.994680
2844.000000	98.135478
2843.000000	98.263978
2842.000000	98.378155
2841.000000	98.476705
2840.000000	98.559509
2839.000000	98.628347
2838.000000	98.686132
2837.000000	98.735542
2836.000000	98.778497
2835.000000	98.816279
2834.000000	98.849339
2833.000000	98.877287
2832.000000	98.900068
2831.000000	98.919276
2830.000000	98.937507
2829.000000	98.956128
2828.000000	98.973975
2827.000000	98.988486
2826.000000	98.998105
2825.000000	99.003580
2824.000000	99.007370
2823.000000	99.012045
2822.000000	99.019047
2821.000000	99.028445
2820.000000	99.039282
2819.000000	99.050060
2818.000000	99.059472
2817.000000	99.067341
2816.000000	99.074832
2815.000000	99.083126
2814.000000	99.091755
2813.000000	99.098800
2812.000000	99.102956
2811.000000	99.104802
2810.000000	99.105768
2809.000000	99.106538
2808.000000	99.107210
2807.000000	99.108491
2806.000000	99.111564
2805.000000	99.116609
2804.000000	99.122232
2803.000000	99.126892
2802.000000	99.130491
2801.000000	99.134090
2800.000000	99.138172
2799.000000	99.141730
2798.000000	99.143460
2797.000000	99.143815
2796.000000	99.145348
2795.000000	99.150440
2794.000000	99.158676
2793.000000	99.166990
2792.000000	99.172551
2791.000000	99.175080
2790.000000	99.176264
2789.000000	99.177708
2788.000000	99.180077
2787.000000	99.183498
2786.000000	99.187489
2785.000000	99.190402
2784.000000	99.190055
2783.000000	99.185836
2782.000000	99.179961
2781.000000	99.176124
2780.000000	99.176600
2779.000000	99.180593
2778.000000	99.185228
2777.000000	99.188075
2776.000000	99.188912
2775.000000	99.189371
2774.000000	99.191132
2773.000000	99.194637
2772.000000	99.199233
2771.000000	99.203942
2770.000000	99.207866
2769.000000	99.210430
2768.000000	99.211881
2767.000000	99.213324
2766.000000	99.215694
2765.000000	99.218674
2764.000000	99.221175
2763.000000	99.222930
2762.000000	99.225017
2761.000000	99.228414
2760.000000	99.232439
2759.000000	99.235086
2758.000000	99.234861
2757.000000	99.231980
2756.000000	99.227970
2755.000000	99.224599
2754.000000	99.223274
2753.000000	99.224775
2752.000000	99.228789
2751.000000	99.233709
2750.000000	99.237533
2749.000000	99.239379
2748.000000	99.239864
2747.000000	99.239794
2746.000000	99.238946
2745.000000	99.236665
2744.000000	99.233347
2743.000000	99.230553
2742.000000	99.229551
2741.000000	99.230304
2740.000000	99.231938
2739.000000	99.233591
2738.000000	99.234635
2737.000000	99.234828
2736.000000	99.234700
2735.000000	99.235246
2734.000000	99.236739
2733.000000	99.238267
2732.000000	99.238978
2731.000000	99.239265
2730.000000	99.240036
2729.000000	99.241204
2728.000000	99.241893
2727.000000	99.242124
2726.000000	99.243315
2725.000000	99.246678
2724.000000	99.251733
2723.000000	99.256825
2722.000000	99.260667
2721.000000	99.262898
2720.000000	99.263458
2719.000000	99.262137
2718.000000	99.259089
2717.000000	99.255692
2716.000000	99.254411
2715.000000	99.257206
2714.000000	99.263675
2713.000000	99.270941
2712.000000	99.275770
2711.000000	99.276905
2710.000000	99.275276
2709.000000	99.272368
2708.000000	99.269168
2707.000000	99.266660
2706.000000	99.266217
2705.000000	99.268425
2704.000000	99.271710
2703.000000	99.273194
2702.000000	99.271573
2701.000000	99.268810
2700.000000	99.268322
2699.000000	99.271348
2698.000000	99.275539
2697.000000	99.277403
2696.000000	99.275895
2695.000000	99.273168
2694.000000	99.271989
2693.000000	99.273122
2692.000000	99.275325
2691.000000	99.277006
2690.000000	99.277120
2689.000000	99.275019
2688.000000	99.270800
2687.000000	99.266230
2686.000000	99.264299
2685.000000	99.266741
2684.000000	99.271991
2683.000000	99.276251
2682.000000	99.276855
2681.000000	99.274387
2680.000000	99.271603
2679.000000	99.270719
2678.000000	99.271936
2677.000000	99.274024
2676.000000	99.275604
2675.000000	99.275852
2674.000000	99.274710
2673.000000	99.273125
2672.000000	99.272889
2671.000000	99.275382
2670.000000	99.279922
2669.000000	99.283662
2668.000000	99.283780
2667.000000	99.279978
2666.000000	99.274560
2665.000000	99.270018
2664.000000	99.266939
2663.000000	99.264442
2662.000000	99.262052
2661.000000	99.260274
2660.000000	99.259295
2659.000000	99.258079
2658.000000	99.255642
2657.000000	99.252996
2656.000000	99.252843
2655.000000	99.256778
2654.000000	99.263250
2653.000000	99.268918
2652.000000	99.271817
2651.000000	99.272668
2650.000000	99.273229
2649.000000	99.274375
2648.000000	99.276199
2647.000000	99.279050
2646.000000	99.283180
2645.000000	99.287426
2644.000000	99.289501
2643.000000	99.288291
2642.000000	99.285308
2641.000000	99.283241
2640.000000	99.283407
2639.000000	99.285256
2638.000000	99.287875
2637.000000	99.290868
2636.000000	99.293721
2635.000000	99.295521
2634.000000	99.296034
2633.000000	99.296345
2632.000000	99.297687
2631.000000	99.300107
2630.000000	99.302981
2629.000000	99.306330
2628.000000	99.310638
2627.000000	99.315653
2626.000000	99.320403
2625.000000	99.324368
2624.000000	99.327641
2623.000000	99.329881
2622.000000	99.330358
2621.000000	99.329444
2620.000000	99.328887
2619.000000	99.329738
2618.000000	99.330666
2617.000000	99.329283
2616.000000	99.325063
2615.000000	99.320632
2614.000000	99.320406
2613.000000	99.327601
2612.000000	99.341109
2611.000000	99.354708
2610.000000	99.360892
2609.000000	99.357066
2608.000000	99.347708
2607.000000	99.339587
2606.000000	99.335669
2605.000000	99.334811
2604.000000	99.335891
2603.000000	99.339585
2602.000000	99.345921
2601.000000	99.352591
2600.000000	99.357188
2599.000000	99.359832
2598.000000	99.362308
2597.000000	99.365247
2596.000000	99.367430
2595.000000	99.367712
2594.000000	99.366569
2593.000000	99.365389
2592.000000	99.364719
2591.000000	99.363848
2590.000000	99.362104
2589.000000	99.360070
2588.000000	99.359025
2587.000000	99.359395
2586.000000	99.360539
2585.000000	99.362009
2584.000000	99.364133
2583.000000	99.367063
2582.000000	99.370242
2581.000000	99.373134
2580.000000	99.375325
2579.000000	99.375433
2578.000000	99.371697
2577.000000	99.365160
2576.000000	99.360816
2575.000000	99.363333
2574.000000	99.371813
2573.000000	99.380385
2572.000000	99.383676
2571.000000	99.380549
2570.000000	99.373537
2569.000000	99.366984
2568.000000	99.365515
2567.000000	99.371679
2566.000000	99.383970
2565.000000	99.398214
2564.000000	99.411045
2563.000000	99.420933
2562.000000	99.426662
2561.000000	99.427447
2560.000000	99.424731
2559.000000	99.421215
2558.000000	99.417255
2557.000000	99.410513
2556.000000	99.400307
2555.000000	99.390044
2554.000000	99.383737
2553.000000	99.381937
2552.000000	99.382666
2551.000000	99.384696
2550.000000	99.388085
2549.000000	99.392559
2548.000000	99.397049
2547.000000	99.400173
2546.000000	99.400250
2545.000000	99.396392
2544.000000	99.390953
2543.000000	99.389021
2542.000000	99.392957
2541.000000	99.398354
2540.000000	99.397919
2539.000000	99.389185
2538.000000	99.376394
2537.000000	99.365319
2536.000000	99.358732
2535.000000	99.356957
2534.000000	99.359644
2533.000000	99.365071
2532.000000	99.369400
2531.000000	99.368916
2530.000000	99.363085
2529.000000	99.354690
2528.000000	99.347404
2527.000000	99.343728
2526.000000	99.344226
2525.000000	99.347279
2524.000000	99.349808
2523.000000	99.349662
2522.000000	99.347752
2521.000000	99.346705
2520.000000	99.346911
2519.000000	99.345165
2518.000000	99.338495
2517.000000	99.328705
2516.000000	99.321175
2515.000000	99.318917
2514.000000	99.319468
2513.000000	99.318625
2512.000000	99.315669
2511.000000	99.313073
2510.000000	99.311899
2509.000000	99.309887
2508.000000	99.304792
2507.000000	99.298041
2506.000000	99.293832
2505.000000	99.295002
2504.000000	99.300346
2503.000000	99.305860
2502.000000	99.308589
2501.000000	99.309571
2500.000000	99.312740
2499.000000	99.320289
2498.000000	99.329438
2497.000000	99.334884
2496.000000	99.334672
2495.000000	99.332545
2494.000000	99.334162
2493.000000	99.341691
2492.000000	99.352329
2491.000000	99.361087
2490.000000	99.364511
2489.000000	99.362906
2488.000000	99.359827
2487.000000	99.358909
2486.000000	99.360520
2485.000000	99.361903
2484.000000	99.361087
2483.000000	99.359921
2482.000000	99.362522
2481.000000	99.371269
2480.000000	99.384797
2479.000000	99.399302
2478.000000	99.410889
2477.000000	99.417201
2476.000000	99.418398
2475.000000	99.417209
2474.000000	99.417385
2473.000000	99.421185
2472.000000	99.428005
2471.000000	99.435228
2470.000000	99.440319
2469.000000	99.442344
2468.000000	99.442056
2467.000000	99.441196
2466.000000	99.441687
2465.000000	99.444718
2464.000000	99.449676
2463.000000	99.454006
2462.000000	99.455148
2461.000000	99.452988
2460.000000	99.449714
2459.000000	99.446835
2458.000000	99.443359
2457.000000	99.437925
2456.000000	99.431883
2455.000000	99.428597
2454.000000	99.429499
2453.000000	99.432039
2452.000000	99.432116
2451.000000	99.428028
2450.000000	99.421965
2449.000000	99.418013
2448.000000	99.418689
2447.000000	99.422822
2446.000000	99.426701
2445.000000	99.427535
2444.000000	99.425556
2443.000000	99.422780
2442.000000	99.420772
2441.000000	99.420555
2440.000000	99.423521
2439.000000	99.430392
2438.000000	99.439326
2437.000000	99.446737
2436.000000	99.450558
2435.000000	99.451626
2434.000000	99.451608
2433.000000	99.450920
2432.000000	99.449323
2431.000000	99.447421
2430.000000	99.446499
2429.000000	99.447384
2428.000000	99.450139
2427.000000	99.454475
2426.000000	99.459851
2425.000000	99.465300
2424.000000	99.469615
2423.000000	99.471669
2422.000000	99.470527
2421.000000	99.465762
2420.000000	99.458172
2419.000000	99.450079
2418.000000	99.444348
2417.000000	99.442618
2416.000000	99.444400
2415.000000	99.448115
2414.000000	99.452842
2413.000000	99.458380
2412.000000	99.463494
2411.000000	99.465576
2410.000000	99.463589
2409.000000	99.460588
2408.000000	99.461072
2407.000000	99.465432
2406.000000	99.469086
2405.000000	99.468023
2404.000000	99.463568
2403.000000	99.460640
2402.000000	99.462763
2401.000000	99.469846
2400.000000	99.478997
2399.000000	99.485820
2398.000000	99.486511
2397.000000	99.481006
2396.000000	99.473720
2395.000000	99.469537
2394.000000	99.469293
2393.000000	99.470401
2392.000000	99.470865
2391.000000	99.471091
2390.000000	99.472199
2389.000000	99.474392
2388.000000	99.477173
2387.000000	99.479166
2386.000000	99.478544
2385.000000	99.474504
2384.000000	99.468663
2383.000000	99.464414
2382.000000	99.464114
2381.000000	99.468382
2380.000000	99.476237
2379.000000	99.484506
2378.000000	99.488441
2377.000000	99.484841
2376.000000	99.475225
2375.000000	99.465052
2374.000000	99.461119
2373.000000	99.468763
2372.000000	99.488221
2371.000000	99.511126
2370.000000	99.524806
2369.000000	99.523305
2368.000000	99.509858
2367.000000	99.490297
2366.000000	99.469595
2365.000000	99.454778
2364.000000	99.452212
2363.000000	99.457507
2362.000000	99.458804
2361.000000	99.453899
2360.000000	99.453444
2359.000000	99.465720
2358.000000	99.485086
2357.000000	99.498780
2356.000000	99.496060
2355.000000	99.475460
2354.000000	99.452944
2353.000000	99.447820
2352.000000	99.458883
2351.000000	99.467714
2350.000000	99.463953
2349.000000	99.453758
2348.000000	99.449640
2347.000000	99.458987
2346.000000	99.472551
2345.000000	99.469032
2344.000000	99.441862
2343.000000	99.408939
2342.000000	99.390956
2341.000000	99.392333
2340.000000	99.402609
2339.000000	99.410522
2338.000000	99.414929
2337.000000	99.419994
2336.000000	99.426686
2335.000000	99.433903
2334.000000	99.444771
2333.000000	99.461933
2332.000000	99.478090
2331.000000	99.481698
2330.000000	99.469937
2329.000000	99.450350
2328.000000	99.429498
2327.000000	99.408855
2326.000000	99.390171
2325.000000	99.378567
2324.000000	99.379150
2323.000000	99.390187
2322.000000	99.400845
2321.000000	99.397494
2320.000000	99.376150
2319.000000	99.346337
2318.000000	99.321230
2317.000000	99.307077
2316.000000	99.303690
2315.000000	99.311226
2314.000000	99.330060
2313.000000	99.355960
2312.000000	99.379731
2311.000000	99.394265
2310.000000	99.399043
2309.000000	99.398016
2308.000000	99.396124
2307.000000	99.397231
2306.000000	99.402143
2305.000000	99.407337
2304.000000	99.408181
2303.000000	99.403671
2302.000000	99.397376
2301.000000	99.393863
2300.000000	99.395869
2299.000000	99.403676
2298.000000	99.414563
2297.000000	99.423480
2296.000000	99.425462
2295.000000	99.419464
2294.000000	99.409268
2293.000000	99.401098
2292.000000	99.399569
2291.000000	99.404589
2290.000000	99.411630
2289.000000	99.416090
2288.000000	99.417858
2287.000000	99.419807
2286.000000	99.422097
2285.000000	99.421176
2284.000000	99.416132
2283.000000	99.411763
2282.000000	99.412847
2281.000000	99.418362
2280.000000	99.425242
2279.000000	99.434495
2278.000000	99.448495
2277.000000	99.463861
2276.000000	99.472543
2275.000000	99.471087
2274.000000	99.465004
2273.000000	99.462735
2272.000000	99.467365
2271.000000	99.474962
2270.000000	99.479225
2269.000000	99.477621
2268.000000	99.474337
2267.000000	99.476759
2266.000000	99.487111
2265.000000	99.498065
2264.000000	99.498883
2263.000000	99.486040
2262.000000	99.466269
2261.000000	99.449533
2260.000000	99.440926
2259.000000	99.439556
2258.000000	99.443428
2257.000000	99.452842
2256.000000	99.467754
2255.000000	99.482691
2254.000000	99.487747
2253.000000	99.477609
2252.000000	99.458136
2251.000000	99.441110
2250.000000	99.434068
2249.000000	99.438306
2248.000000	99.453376
2247.000000	99.476548
2246.000000	99.498206
2245.000000	99.506219
2244.000000	99.498965
2243.000000	99.488598
2242.000000	99.487701
2241.000000	99.497158
2240.000000	99.509672
2239.000000	99.519264
2238.000000	99.522362
2237.000000	99.514924
2236.000000	99.496242
2235.000000	99.474573
2234.000000	99.463395
2233.000000	99.470377
2232.000000	99.490240
2231.000000	99.507317
2230.000000	99.506238
2229.000000	99.485370
2228.000000	99.461763
2227.000000	99.458043
2226.000000	99.481488
2225.000000	99.518820
2224.000000	99.551625
2223.000000	99.570821
2222.000000	99.574881
2221.000000	99.563218
2220.000000	99.537906
2219.000000	99.506318
2218.000000	99.476862
2217.000000	99.456616
2216.000000	99.454997
2215.000000	99.480590
2214.000000	99.527369
2213.000000	99.571244
2212.000000	99.590130
2211.000000	99.584413
2210.000000	99.569884
2209.000000	99.555776
2208.000000	99.539331
2207.000000	99.518646
2206.000000	99.500256
2205.000000	99.491614
2204.000000	99.491876
2203.000000	99.492420
2202.000000	99.484889
2201.000000	99.470483
2200.000000	99.462635
2199.000000	99.475137
2198.000000	99.503184
2197.000000	99.521057
2196.000000	99.506453
2195.000000	99.465468
2194.000000	99.428451
2193.000000	99.423548
2192.000000	99.456436
2191.000000	99.509895
2190.000000	99.555885
2189.000000	99.571933
2188.000000	99.557191
2187.000000	99.533957
2186.000000	99.527505
2185.000000	99.543716
2184.000000	99.567270
2183.000000	99.578169
2182.000000	99.565995
2181.000000	99.534082
2180.000000	99.498891
2179.000000	99.482603
2178.000000	99.497654
2177.000000	99.535744
2176.000000	99.574675
2175.000000	99.596334
2174.000000	99.595289
2173.000000	99.572981
2172.000000	99.531856
2171.000000	99.477273
2170.000000	99.421293
2169.000000	99.381506
2168.000000	99.372510
2167.000000	99.395021
2166.000000	99.433273
2165.000000	99.465645
2164.000000	99.480848
2163.000000	99.482720
2162.000000	99.480514
2161.000000	99.482842
2160.000000	99.501899
2159.000000	99.550265
2158.000000	99.622779
2157.000000	99.691733
2156.000000	99.731480
2155.000000	99.738546
2154.000000	99.724607
2153.000000	99.702633
2152.000000	99.681571
2151.000000	99.664797
2150.000000	99.650359
2149.000000	99.636319
2148.000000	99.626073
2147.000000	99.625166
2146.000000	99.635119
2145.000000	99.654125
2144.000000	99.679466
2143.000000	99.703040
2142.000000	99.710076
2141.000000	99.693699
2140.000000	99.669492
2139.000000	99.663133
2138.000000	99.681679
2137.000000	99.706390
2136.000000	99.714596
2135.000000	99.700421
2134.000000	99.672766
2133.000000	99.643936
2132.000000	99.623983
2131.000000	99.616635
2130.000000	99.616133
2129.000000	99.613555
2128.000000	99.608498
2127.000000	99.608508
2126.000000	99.615538
2125.000000	99.620831
2124.000000	99.617029
2123.000000	99.607670
2122.000000	99.599367
2121.000000	99.590759
2120.000000	99.576047
2119.000000	99.555787
2118.000000	99.537841
2117.000000	99.529558
2116.000000	99.532678
2115.000000	99.543207
2114.000000	99.552537
2113.000000	99.551856
2112.000000	99.540684
2111.000000	99.529025
2110.000000	99.526931
2109.000000	99.534047
2108.000000	99.542422
2107.000000	99.546464
2106.000000	99.546032
2105.000000	99.543740
2104.000000	99.545205
2103.000000	99.558490
2102.000000	99.585357
2101.000000	99.613032
2100.000000	99.622037
2099.000000	99.605055
2098.000000	99.574721
2097.000000	99.551939
2096.000000	99.548476
2095.000000	99.560387
2094.000000	99.574394
2093.000000	99.578808
2092.000000	99.571505
2091.000000	99.560250
2090.000000	99.554987
2089.000000	99.557634
2088.000000	99.558581
2087.000000	99.545471
2086.000000	99.517251
2085.000000	99.488472
2084.000000	99.475841
2083.000000	99.479429
2082.000000	99.482438
2081.000000	99.472604
2080.000000	99.458635
2079.000000	99.459438
2078.000000	99.480091
2077.000000	99.506113
2076.000000	99.520014
2075.000000	99.515784
2074.000000	99.498309
2073.000000	99.478813
2072.000000	99.472110
2071.000000	99.487185
2070.000000	99.515621
2069.000000	99.536817
2068.000000	99.539528
2067.000000	99.531965
2066.000000	99.527626
2065.000000	99.529575
2064.000000	99.533476
2063.000000	99.537868
2062.000000	99.543157
2061.000000	99.545440
2060.000000	99.538287
2059.000000	99.518336
2058.000000	99.487136
2057.000000	99.453395
2056.000000	99.434552
2055.000000	99.445407
2054.000000	99.478320
2053.000000	99.503579
2052.000000	99.499419
2051.000000	99.476194
2050.000000	99.463642
2049.000000	99.478082
2048.000000	99.508203
2047.000000	99.532500
2046.000000	99.541472
2045.000000	99.539188
2044.000000	99.533561
2043.000000	99.531285
2042.000000	99.537146
2041.000000	99.551771
2040.000000	99.567585
2039.000000	99.569940
2038.000000	99.549178
2037.000000	99.517736
2036.000000	99.509994
2035.000000	99.551688
2034.000000	99.629825
2033.000000	99.702347
2032.000000	99.736351
2031.000000	99.727462
2030.000000	99.688681
2029.000000	99.644969
2028.000000	99.633785
2027.000000	99.678682
2026.000000	99.755669
2025.000000	99.807154
2024.000000	99.801053
2023.000000	99.760404
2022.000000	99.728132
2021.000000	99.724183
2020.000000	99.742716
2019.000000	99.767793
2018.000000	99.778927
2017.000000	99.759949
2016.000000	99.719613
2015.000000	99.688107
2014.000000	99.682609
2013.000000	99.690111
2012.000000	99.689456
2011.000000	99.678571
2010.000000	99.672868
2009.000000	99.687183
2008.000000	99.724319
2007.000000	99.770461
2006.000000	99.798484
2005.000000	99.788244
2004.000000	99.747891
2003.000000	99.703043
2002.000000	99.667229
2001.000000	99.635802
2000.000000	99.604204
1999.000000	99.576349
1998.000000	99.554919
1997.000000	99.540134
1996.000000	99.539332
1995.000000	99.560270
1994.000000	99.591321
1993.000000	99.604626
1992.000000	99.588867
1991.000000	99.564150
1990.000000	99.552680
1989.000000	99.554720
1988.000000	99.562286
1987.000000	99.573363
1986.000000	99.582689
1985.000000	99.578165
1984.000000	99.558720
1983.000000	99.538932
1982.000000	99.525876
1981.000000	99.510798
1980.000000	99.497320
1979.000000	99.516213
1978.000000	99.586481
1977.000000	99.675544
1976.000000	99.731252
1975.000000	99.742131
1974.000000	99.732521
1973.000000	99.718363
1972.000000	99.700851
1971.000000	99.687514
1970.000000	99.690524
1969.000000	99.708340
1968.000000	99.727290
1967.000000	99.740103
1966.000000	99.751021
1965.000000	99.764710
1964.000000	99.779539
1963.000000	99.788003
1962.000000	99.778353
1961.000000	99.744538
1960.000000	99.698431
1959.000000	99.660673
1958.000000	99.638498
1957.000000	99.626058
1956.000000	99.625367
1955.000000	99.648613
1954.000000	99.694358
1953.000000	99.738128
1952.000000	99.755991
1951.000000	99.746347
1950.000000	99.722816
1949.000000	99.698522
1948.000000	99.683828
1947.000000	99.684992
1946.000000	99.695056
1945.000000	99.697585
1944.000000	99.688062
1943.000000	99.680719
1942.000000	99.683387
1941.000000	99.680926
1940.000000	99.661080
1939.000000	99.638089
1938.000000	99.635290
1937.000000	99.656140
1936.000000	99.682177
1935.000000	99.695917
1934.000000	99.694882
1933.000000	99.686684
1932.000000	99.681155
1931.000000	99.684615
1930.000000	99.694504
1929.000000	99.699887
1928.000000	99.694557
1927.000000	99.685947
1926.000000	99.685297
1925.000000	99.694200
1924.000000	99.705712
1923.000000	99.715392
1922.000000	99.722808
1921.000000	99.724730
1920.000000	99.716434
1919.000000	99.699082
1918.000000	99.681392
1917.000000	99.671120
1916.000000	99.667087
1915.000000	99.663900
1914.000000	99.658583
1913.000000	99.651863
1912.000000	99.647536
1911.000000	99.649745
1910.000000	99.659254
1909.000000	99.672132
1908.000000	99.684086
1907.000000	99.692694
1906.000000	99.694574
1905.000000	99.686763
1904.000000	99.672685
1903.000000	99.661716
1902.000000	99.658246
1901.000000	99.656031
1900.000000	99.648983
1899.000000	99.641014
1898.000000	99.639349
1897.000000	99.643980
1896.000000	99.649407
1895.000000	99.654236
1894.000000	99.661391
1893.000000	99.669850
1892.000000	99.674143
1891.000000	99.671255
1890.000000	99.664122
1889.000000	99.659315
1888.000000	99.661678
1887.000000	99.670834
1886.000000	99.680781
1885.000000	99.683439
1884.000000	99.677011
1883.000000	99.669609
1882.000000	99.670645
1881.000000	99.680437
1880.000000	99.691887
1879.000000	99.698897
1878.000000	99.699977
1877.000000	99.697777
1876.000000	99.697006
1875.000000	99.699379
1874.000000	99.699842
1873.000000	99.691660
1872.000000	99.676815
1871.000000	99.666483
1870.000000	99.668786
1869.000000	99.678961
1868.000000	99.686858
1867.000000	99.692077
1866.000000	99.700296
1865.000000	99.710649
1864.000000	99.717960
1863.000000	99.720910
1862.000000	99.721256
1861.000000	99.718840
1860.000000	99.713485
1859.000000	99.708862
1858.000000	99.708077
1857.000000	99.708210
1856.000000	99.706022
1855.000000	99.705493
1854.000000	99.712273
1853.000000	99.721827
1852.000000	99.723174
1851.000000	99.714011
1850.000000	99.702754
1849.000000	99.697889
1848.000000	99.700115
1847.000000	99.706061
1846.000000	99.713931
1845.000000	99.722446
1844.000000	99.728745
1843.000000	99.731342
1842.000000	99.732422
1841.000000	99.733867
1840.000000	99.735426
1839.000000	99.736327
1838.000000	99.736409
1837.000000	99.736622
1836.000000	99.738576
1835.000000	99.743500
1834.000000	99.750346
1833.000000	99.756372
1832.000000	99.760573
1831.000000	99.762515
1830.000000	99.759343
1829.000000	99.749670
1828.000000	99.737346
1827.000000	99.727875
1826.000000	99.722821
1825.000000	99.720904
1824.000000	99.722491
1823.000000	99.728453
1822.000000	99.736135
1821.000000	99.740067
1820.000000	99.738272
1819.000000	99.735070
1818.000000	99.736525
1817.000000	99.744195
1816.000000	99.753519
1815.000000	99.759443
1814.000000	99.760572
1813.000000	99.758656
1812.000000	99.756100
1811.000000	99.752237
1810.000000	99.744594
1809.000000	99.733654
1808.000000	99.723716
1807.000000	99.718169
1806.000000	99.713811
1805.000000	99.702724
1804.000000	99.680637
1803.000000	99.651829
1802.000000	99.623585
1801.000000	99.599973
1800.000000	99.582085
1799.000000	99.569083
1798.000000	99.559275
1797.000000	99.550712
1796.000000	99.542357
1795.000000	99.534967
1794.000000	99.528739
1793.000000	99.524419
1792.000000	99.528264
1791.000000	99.546311
1790.000000	99.574240
1789.000000	99.600716
1788.000000	99.618387
1787.000000	99.629339
1786.000000	99.640937
1785.000000	99.655870
1784.000000	99.669123
1783.000000	99.676768
1782.000000	99.678914
1781.000000	99.676958
1780.000000	99.675161
1779.000000	99.678259
1778.000000	99.686810
1777.000000	99.696109
1776.000000	99.702584
1775.000000	99.708599
1774.000000	99.716489
1773.000000	99.721487
1772.000000	99.718663
1771.000000	99.710723
1770.000000	99.701900
1769.000000	99.693625
1768.000000	99.686324
1767.000000	99.681051
1766.000000	99.676899
1765.000000	99.669997
1764.000000	99.658240
1763.000000	99.644956
1762.000000	99.635404
1761.000000	99.629969
1760.000000	99.624571
1759.000000	99.616615
1758.000000	99.605804
1757.000000	99.590513
1756.000000	99.571639
1755.000000	99.551543
1754.000000	99.527710
1753.000000	99.494234
1752.000000	99.451052
1751.000000	99.409672
1750.000000	99.381223
1749.000000	99.360634
1748.000000	99.336226
1747.000000	99.306153
1746.000000	99.272729
1745.000000	99.236020
1744.000000	99.198000
1743.000000	99.163592
1742.000000	99.134161
1741.000000	99.104725
1740.000000	99.072292
1739.000000	99.043434
1738.000000	99.022280
1737.000000	99.005568
1736.000000	98.993108
1735.000000	98.997629
1734.000000	99.032610
1733.000000	99.079616
1732.000000	99.115437
1731.000000	99.147605
1730.000000	99.187955
1729.000000	99.233190
1728.000000	99.273863
1727.000000	99.306115
1726.000000	99.331685
1725.000000	99.351879
1724.000000	99.368067
1723.000000	99.381116
1722.000000	99.391052
1721.000000	99.396118
1720.000000	99.396279
1719.000000	99.392868
1718.000000	99.388139
1717.000000	99.387629
1716.000000	99.393003
1715.000000	99.402590
1714.000000	99.414069
1713.000000	99.421513
1712.000000	99.422329
1711.000000	99.421313
1710.000000	99.422877
1709.000000	99.423478
1708.000000	99.418239
1707.000000	99.410225
1706.000000	99.408993
1705.000000	99.417364
1704.000000	99.423774
1703.000000	99.421110
1702.000000	99.413468
1701.000000	99.403089
1700.000000	99.388757
1699.000000	99.375006
1698.000000	99.367603
1697.000000	99.363689
1696.000000	99.354808
1695.000000	99.337996
1694.000000	99.320699
1693.000000	99.306776
1692.000000	99.291217
1691.000000	99.267968
1690.000000	99.235511
1689.000000	99.197137
1688.000000	99.159889
1687.000000	99.129864
1686.000000	99.106996
1685.000000	99.082681
1684.000000	99.051615
1683.000000	99.020959
1682.000000	98.993705
1681.000000	98.967376
1680.000000	98.942472
1679.000000	98.920025
1678.000000	98.898916
1677.000000	98.874637
1676.000000	98.848416
1675.000000	98.828930
1674.000000	98.818788
1673.000000	98.809863
1672.000000	98.797925
1671.000000	98.784676
1670.000000	98.772893
1669.000000	98.762014
1668.000000	98.751571
1667.000000	98.744272
1666.000000	98.738909
1665.000000	98.731256
1664.000000	98.718947
1663.000000	98.703783
1662.000000	98.688311
1661.000000	98.670320
1660.000000	98.650338
1659.000000	98.630755
1658.000000	98.611342
1657.000000	98.587663
1656.000000	98.565282
1655.000000	98.556977
1654.000000	98.573552
1653.000000	98.593773
1652.000000	98.581932
1651.000000	98.553435
1650.000000	98.530602
1649.000000	98.513131
1648.000000	98.501617
1647.000000	98.508928
1646.000000	98.533520
1645.000000	98.552252
1644.000000	98.557243
1643.000000	98.558370
1642.000000	98.561463
1641.000000	98.566905
1640.000000	98.572737
1639.000000	98.579035
1638.000000	98.588596
1637.000000	98.603843
1636.000000	98.626444
1635.000000	98.651157
1634.000000	98.665686
1633.000000	98.670800
1632.000000	98.674310
1631.000000	98.680992
1630.000000	98.693356
1629.000000	98.709196
1628.000000	98.725721
1627.000000	98.742575
1626.000000	98.759508
1625.000000	98.775905
1624.000000	98.794097
1623.000000	98.816879
1622.000000	98.839217
1621.000000	98.853083
1620.000000	98.861864
1619.000000	98.875123
1618.000000	98.896686
1617.000000	98.920133
1616.000000	98.938629
1615.000000	98.955589
1614.000000	98.974565
1613.000000	98.992855
1612.000000	99.008322
1611.000000	99.024037
1610.000000	99.041723
1609.000000	99.057078
1608.000000	99.067332
1607.000000	99.076392
1606.000000	99.086620
1605.000000	99.094476
1604.000000	99.099122
1603.000000	99.104778
1602.000000	99.112905
1601.000000	99.119015
1600.000000	99.119815
1599.000000	99.117139
1598.000000	99.112498
1597.000000	99.105347
1596.000000	99.097548
1595.000000	99.093268
1594.000000	99.092059
1593.000000	99.087923
1592.000000	99.078335
1591.000000	99.067052
1590.000000	99.055706
1589.000000	99.040112
1588.000000	99.018109
1587.000000	98.993518
1586.000000	98.969380
1585.000000	98.943113
1584.000000	98.913417
1583.000000	98.884032
1582.000000	98.855158
1581.000000	98.821807
1580.000000	98.784020
1579.000000	98.750933
1578.000000	98.731088
1577.000000	98.725065
1576.000000	98.729088
1575.000000	98.739962
1574.000000	98.751991
1573.000000	98.760964
1572.000000	98.770038
1571.000000	98.786454
1570.000000	98.813714
1569.000000	98.840193
1568.000000	98.854650
1567.000000	98.861961
1566.000000	98.868715
1565.000000	98.871652
1564.000000	98.866953
1563.000000	98.857085
1562.000000	98.846564
1561.000000	98.840705
1560.000000	98.836439
1559.000000	98.826632
1558.000000	98.809820
1557.000000	98.776804
1556.000000	98.737455
1555.000000	98.708638
1554.000000	98.686175
1553.000000	98.662174
1552.000000	98.626935
1551.000000	98.581849
1550.000000	98.531610
1549.000000	98.481044
1548.000000	98.427145
1547.000000	98.362056
1546.000000	98.278482
1545.000000	98.178998
1544.000000	98.081816
1543.000000	98.005129
1542.000000	97.948374
1541.000000	97.902878
1540.000000	97.877733
1539.000000	97.876284
1538.000000	97.875051
1537.000000	97.865622
1536.000000	97.856659
1535.000000	97.856397
1534.000000	97.868107
1533.000000	97.879383
1532.000000	97.877122
1531.000000	97.861550
1530.000000	97.837159
1529.000000	97.801959
1528.000000	97.755589
1527.000000	97.705998
1526.000000	97.661832
1525.000000	97.623068
1524.000000	97.585046
1523.000000	97.542976
1522.000000	97.492025
1521.000000	97.435293
1520.000000	97.383793
1519.000000	97.341086
1518.000000	97.297876
1517.000000	97.245700
1516.000000	97.189215
1515.000000	97.134717
1514.000000	97.076813
1513.000000	97.007781
1512.000000	96.929992
1511.000000	96.852204
1510.000000	96.777069
1509.000000	96.702802
1508.000000	96.637255
1507.000000	96.606690
1506.000000	96.601274
1505.000000	96.572211
1504.000000	96.518310
1503.000000	96.457635
1502.000000	96.391131
1501.000000	96.319777
1500.000000	96.247221
1499.000000	96.180045
1498.000000	96.115099
1497.000000	96.047873
1496.000000	95.983497
1495.000000	95.926595
1494.000000	95.868782
1493.000000	95.798912
1492.000000	95.716879
1491.000000	95.634306
1490.000000	95.563476
1489.000000	95.505474
1488.000000	95.453593
1487.000000	95.402831
1486.000000	95.349435
1485.000000	95.287522
1484.000000	95.216156
1483.000000	95.139883
1482.000000	95.060878
1481.000000	94.979688
1480.000000	94.898824
1479.000000	94.819916
1478.000000	94.738004
1477.000000	94.646041
1476.000000	94.544196
1475.000000	94.441273
1474.000000	94.343323
1473.000000	94.251624
1472.000000	94.169629
1471.000000	94.092892
1470.000000	94.010264
1469.000000	93.918842
1468.000000	93.827208
1467.000000	93.749049
1466.000000	93.693084
1465.000000	93.654821
1464.000000	93.619873
1463.000000	93.574968
1462.000000	93.516097
1461.000000	93.444328
1460.000000	93.363119
1459.000000	93.279573
1458.000000	93.207384
1457.000000	93.165471
1456.000000	93.146808
1455.000000	93.123109
1454.000000	93.084106
1453.000000	93.036863
1452.000000	92.991532
1451.000000	92.951080
1450.000000	92.908631
1449.000000	92.862942
1448.000000	92.822386
1447.000000	92.789437
1446.000000	92.752322
1445.000000	92.704134
1444.000000	92.654263
1443.000000	92.612746
1442.000000	92.575694
1441.000000	92.530305
1440.000000	92.470909
1439.000000	92.403855
1438.000000	92.343187
1437.000000	92.305965
1436.000000	92.292321
1435.000000	92.275937
1434.000000	92.236430
1433.000000	92.178370
1432.000000	92.117856
1431.000000	92.066893
1430.000000	92.022566
1429.000000	91.975544
1428.000000	91.922655
1427.000000	91.865079
1426.000000	91.803445
1425.000000	91.741141
1424.000000	91.685550
1423.000000	91.632523
1422.000000	91.566674
1421.000000	91.484538
1420.000000	91.406654
1419.000000	91.356648
1418.000000	91.323601
1417.000000	91.282098
1416.000000	91.230836
1415.000000	91.176478
1414.000000	91.116340
1413.000000	91.050314
1412.000000	90.990741
1411.000000	90.948149
1410.000000	90.913623
1409.000000	90.873190
1408.000000	90.828876
1407.000000	90.793608
1406.000000	90.774993
1405.000000	90.772482
1404.000000	90.781519
1403.000000	90.789267
1402.000000	90.781661
1401.000000	90.760490
1400.000000	90.744320
1399.000000	90.742585
1398.000000	90.737251
1397.000000	90.714619
1396.000000	90.694696
1395.000000	90.704855
1394.000000	90.736710
1393.000000	90.760374
1392.000000	90.768275
1391.000000	90.769505
1390.000000	90.768911
1389.000000	90.773641
1388.000000	90.803412
1387.000000	90.869580
1386.000000	90.950091
1385.000000	91.018690
1384.000000	91.079624
1383.000000	91.148854
1382.000000	91.226951
1381.000000	91.305370
1380.000000	91.386528
1379.000000	91.479089
1378.000000	91.579093
1377.000000	91.677125
1376.000000	91.779151
1375.000000	91.901514
1374.000000	92.042324
1373.000000	92.178249
1372.000000	92.296482
1371.000000	92.405724
1370.000000	92.517907
1369.000000	92.637187
1368.000000	92.759350
1367.000000	92.872818
1366.000000	92.968726
1365.000000	93.055022
1364.000000	93.155928
1363.000000	93.289690
1362.000000	93.445282
1361.000000	93.596636
1360.000000	93.733759
1359.000000	93.860227
1358.000000	93.978037
1357.000000	94.089224
1356.000000	94.199549
1355.000000	94.311038
1354.000000	94.417780
1353.000000	94.516225
1352.000000	94.611052
1351.000000	94.705781
1350.000000	94.796238
1349.000000	94.877661
1348.000000	94.951985
1347.000000	95.022593
1346.000000	95.089234
1345.000000	95.151902
1344.000000	95.212192
1343.000000	95.267636
1342.000000	95.313199
1341.000000	95.351871
1340.000000	95.396751
1339.000000	95.455939
1338.000000	95.522254
1337.000000	95.586108
1336.000000	95.646243
1335.000000	95.702655
1334.000000	95.752192
1333.000000	95.795084
1332.000000	95.837490
1331.000000	95.883677
1330.000000	95.931655
1329.000000	95.979118
1328.000000	96.026739
1327.000000	96.073110
1326.000000	96.113704
1325.000000	96.147922
1324.000000	96.181047
1323.000000	96.215849
1322.000000	96.248834
1321.000000	96.277347
1320.000000	96.304188
1319.000000	96.332599
1318.000000	96.362249
1317.000000	96.392830
1316.000000	96.425606
1315.000000	96.459460
1314.000000	96.491577
1313.000000	96.523557
1312.000000	96.560283
1311.000000	96.601199
1310.000000	96.639502
1309.000000	96.671600
1308.000000	96.700730
1307.000000	96.730160
1306.000000	96.759220
1305.000000	96.787598
1304.000000	96.817484
1303.000000	96.848475
1302.000000	96.876117
1301.000000	96.898181
1300.000000	96.918014
1299.000000	96.939834
1298.000000	96.964878
1297.000000	96.992917
1296.000000	97.022761
1295.000000	97.050535
1294.000000	97.072357
1293.000000	97.089314
1292.000000	97.105236
1291.000000	97.119945
1290.000000	97.130265
1289.000000	97.137826
1288.000000	97.149225
1287.000000	97.166968
1286.000000	97.185997
1285.000000	97.201049
1284.000000	97.212118
1283.000000	97.221016
1282.000000	97.227911
1281.000000	97.233289
1280.000000	97.239438
1279.000000	97.248177
1278.000000	97.259659
1277.000000	97.273822
1276.000000	97.289907
1275.000000	97.304946
1274.000000	97.316508
1273.000000	97.326715
1272.000000	97.339540
1271.000000	97.354355
1270.000000	97.366471
1269.000000	97.373738
1268.000000	97.377948
1267.000000	97.380304
1266.000000	97.380728
1265.000000	97.381514
1264.000000	97.386310
1263.000000	97.394864
1262.000000	97.403305
1261.000000	97.409977
1260.000000	97.416489
1259.000000	97.423194
1258.000000	97.428447
1257.000000	97.432128
1256.000000	97.434896
1255.000000	97.434365
1254.000000	97.427414
1253.000000	97.416496
1252.000000	97.408517
1251.000000	97.406828
1250.000000	97.408585
1249.000000	97.410118
1248.000000	97.410316
1247.000000	97.408360
1246.000000	97.403297
1245.000000	97.397209
1244.000000	97.394259
1243.000000	97.395255
1242.000000	97.397078
1241.000000	97.398058
1240.000000	97.399338
1239.000000	97.400225
1238.000000	97.397341
1237.000000	97.390250
1236.000000	97.383536
1235.000000	97.381334
1234.000000	97.383400
1233.000000	97.388080
1232.000000	97.395455
1231.000000	97.405468
1230.000000	97.416393
1229.000000	97.427391
1228.000000	97.439646
1227.000000	97.453451
1226.000000	97.467068
1225.000000	97.480085
1224.000000	97.495171
1223.000000	97.514500
1222.000000	97.536555
1221.000000	97.557845
1220.000000	97.576039
1219.000000	97.590941
1218.000000	97.604375
1217.000000	97.619341
1216.000000	97.637104
1215.000000	97.654996
1214.000000	97.669280
1213.000000	97.679983
1212.000000	97.690192
1211.000000	97.700870
1210.000000	97.709424
1209.000000	97.713372
1208.000000	97.712767
1207.000000	97.708968
1206.000000	97.703790
1205.000000	97.699823
1204.000000	97.698787
1203.000000	97.699538
1202.000000	97.699900
1201.000000	97.699969
1200.000000	97.700961
1199.000000	97.701476
1198.000000	97.698407
1197.000000	97.691884
1196.000000	97.686295
1195.000000	97.685695
1194.000000	97.690359
1193.000000	97.697826
1192.000000	97.704884
1191.000000	97.708460
1190.000000	97.707221
1189.000000	97.702887
1188.000000	97.698292
1187.000000	97.694180
1186.000000	97.689255
1185.000000	97.682555
1184.000000	97.673888
1183.000000	97.663237
1182.000000	97.652233
1181.000000	97.644882
1180.000000	97.643672
1179.000000	97.645553
1178.000000	97.644899
1177.000000	97.639732
1176.000000	97.632096
1175.000000	97.623549
1174.000000	97.613936
1173.000000	97.604177
1172.000000	97.596868
1171.000000	97.593661
1170.000000	97.594307
1169.000000	97.598247
1168.000000	97.604856
1167.000000	97.612463
1166.000000	97.619844
1165.000000	97.628229
1164.000000	97.639267
1163.000000	97.651472
1162.000000	97.661455
1161.000000	97.668447
1160.000000	97.674985
1159.000000	97.683552
1158.000000	97.694997
1157.000000	97.709488
1156.000000	97.726356
1155.000000	97.743468
1154.000000	97.759330
1153.000000	97.775314
1152.000000	97.793467
1151.000000	97.813465
1150.000000	97.834262
1149.000000	97.856931
1148.000000	97.882405
1147.000000	97.907967
1146.000000	97.930030
1145.000000	97.949412
1144.000000	97.969839
1143.000000	97.991904
1142.000000	98.012355
1141.000000	98.029029
1140.000000	98.043062
1139.000000	98.056613
1138.000000	98.071373
1137.000000	98.088573
1136.000000	98.107376
1135.000000	98.124178
1134.000000	98.136491
1133.000000	98.146084
1132.000000	98.155448
1131.000000	98.163110
1130.000000	98.166211
1129.000000	98.165957
1128.000000	98.166219
1127.000000	98.168264
1126.000000	98.171009
1125.000000	98.174954
1124.000000	98.181221
1123.000000	98.187764
1122.000000	98.191427
1121.000000	98.193238
1120.000000	98.196798
1119.000000	98.201650
1118.000000	98.202855
1117.000000	98.197405
1116.000000	98.186942
1115.000000	98.174202
1114.000000	98.161124
1113.000000	98.150686
1112.000000	98.146326
1111.000000	98.148446
1110.000000	98.154327
1109.000000	98.161557
1108.000000	98.168787
1107.000000	98.173884
1106.000000	98.175547
1105.000000	98.176453
1104.000000	98.180414
1103.000000	98.186251
1102.000000	98.188321
1101.000000	98.183544
1100.000000	98.174106
1099.000000	98.163204
1098.000000	98.152405
1097.000000	98.143044
1096.000000	98.136437
1095.000000	98.131649
1094.000000	98.126458
1093.000000	98.120957
1092.000000	98.116832
1091.000000	98.112817
1090.000000	98.104488
1089.000000	98.089473
1088.000000	98.069708
1087.000000	98.048156
1086.000000	98.026827
1085.000000	98.008667
1084.000000	97.997581
1083.000000	97.994310
1082.000000	97.994296
1081.000000	97.991439
1080.000000	97.983388
1079.000000	97.973197
1078.000000	97.967341
1077.000000	97.971623
1076.000000	97.986308
1075.000000	98.005061
1074.000000	98.020505
1073.000000	98.030606
1072.000000	98.037982
1071.000000	98.044687
1070.000000	98.050991
1069.000000	98.057908
1068.000000	98.066670
1067.000000	98.075650
1066.000000	98.081631
1065.000000	98.084431
1064.000000	98.086819
1063.000000	98.089605
1062.000000	98.090292
1061.000000	98.087486
1060.000000	98.083742
1059.000000	98.082945
1058.000000	98.087097
1057.000000	98.095965
1056.000000	98.107218
1055.000000	98.116241
1054.000000	98.118582
1053.000000	98.114171
1052.000000	98.107824
1051.000000	98.104646
1050.000000	98.105898
1049.000000	98.109683
1048.000000	98.114363
1047.000000	98.120461
1046.000000	98.129198
1045.000000	98.138847
1044.000000	98.143614
1043.000000	98.138948
1042.000000	98.128658
1041.000000	98.123031
1040.000000	98.127486
1039.000000	98.136397
1038.000000	98.140739
1037.000000	98.138456
1036.000000	98.133458
1035.000000	98.128116
1034.000000	98.122902
1033.000000	98.121205
1032.000000	98.127620
1031.000000	98.140675
1030.000000	98.152839
1029.000000	98.159103
1028.000000	98.161269
1027.000000	98.162561
1026.000000	98.162677
1025.000000	98.160547
1024.000000	98.158478
1023.000000	98.160833
1022.000000	98.170086
1021.000000	98.185410
1020.000000	98.203259
1019.000000	98.218170
1018.000000	98.225278
1017.000000	98.223932
1016.000000	98.218176
1015.000000	98.213415
1014.000000	98.213713
1013.000000	98.221584
1012.000000	98.237462
1011.000000	98.257982
1010.000000	98.276839
1009.000000	98.289583
1008.000000	98.297424
1007.000000	98.305445
1006.000000	98.317479
1005.000000	98.333211
1004.000000	98.349968
1003.000000	98.366281
1002.000000	98.382706
1001.000000	98.399473
1000.000000	98.415337
999.000000	98.430595
998.000000	98.449568
997.000000	98.476420
996.000000	98.508202
995.000000	98.535308
994.000000	98.550685
993.000000	98.556705
992.000000	98.561792
991.000000	98.572774
990.000000	98.591112
989.000000	98.613472
988.000000	98.634318
987.000000	98.650457
986.000000	98.664658
985.000000	98.682453
984.000000	98.704191
983.000000	98.723842
982.000000	98.737227
981.000000	98.747269
980.000000	98.758459
979.000000	98.769977
978.000000	98.778225
977.000000	98.783009
976.000000	98.787153
975.000000	98.792239
974.000000	98.798335
973.000000	98.805773
972.000000	98.813626
971.000000	98.818421
970.000000	98.818212
969.000000	98.816409
968.000000	98.818492
967.000000	98.826695
966.000000	98.840767
965.000000	98.861153
964.000000	98.886821
963.000000	98.911804
962.000000	98.929028
961.000000	98.938065
960.000000	98.945823
959.000000	98.959732
958.000000	98.982434
957.000000	99.011132
956.000000	99.039016
955.000000	99.059224
954.000000	99.071368
953.000000	99.083190
952.000000	99.102108
951.000000	99.126067
950.000000	99.146410
949.000000	99.158627
948.000000	99.166390
947.000000	99.175768
946.000000	99.189105
945.000000	99.204503
944.000000	99.218057
943.000000	99.226499
942.000000	99.230315
941.000000	99.233777
940.000000	99.239979
939.000000	99.247328
938.000000	99.253158
937.000000	99.258967
936.000000	99.268641
935.000000	99.282827
934.000000	99.298329
933.000000	99.312191
932.000000	99.323567
931.000000	99.332624
930.000000	99.340573
929.000000	99.349566
928.000000	99.359649
927.000000	99.367188
926.000000	99.369289
925.000000	99.368377
924.000000	99.369703
923.000000	99.375650
922.000000	99.384922
921.000000	99.395423
920.000000	99.405336
919.000000	99.413787
918.000000	99.423399
917.000000	99.439116
916.000000	99.460913
915.000000	99.480894
914.000000	99.492025
913.000000	99.496882
912.000000	99.502499
911.000000	99.510018
910.000000	99.515778
909.000000	99.520114
908.000000	99.527377
907.000000	99.537939
906.000000	99.547812
905.000000	99.556624
904.000000	99.569085
903.000000	99.586947
902.000000	99.605805
901.000000	99.621676
900.000000	99.635655
899.000000	99.650458
898.000000	99.667063
897.000000	99.685726
896.000000	99.705637
895.000000	99.722799
894.000000	99.733590
893.000000	99.741489
892.000000	99.754649
891.000000	99.775417
890.000000	99.796973
889.000000	99.811047
888.000000	99.812475
887.000000	99.792980
886.000000	99.737578
885.000000	99.630310
884.000000	99.458655
883.000000	99.210688
882.000000	98.870536
881.000000	98.421927
880.000000	97.852700
879.000000	97.157974
878.000000	96.347743
877.000000	95.449674
876.000000	94.498007
875.000000	93.522305
874.000000	92.580398
873.000000	91.822898
872.000000	91.501056
871.000000	91.829785
870.000000	92.792633
869.000000	94.104603
868.000000	95.390090
867.000000	96.406129
866.000000	97.116281
865.000000	97.602096
864.000000	97.949359
863.000000	98.208839
862.000000	98.409612
861.000000	98.569998
860.000000	98.698126
859.000000	98.797926
858.000000	98.878405
857.000000	98.948701
856.000000	99.009112
855.000000	99.056339
854.000000	99.094116
853.000000	99.129196
852.000000	99.156313
851.000000	99.158611
850.000000	99.129198
849.000000	99.086985
848.000000	99.065531
847.000000	99.086011
846.000000	99.142534
845.000000	99.211649
844.000000	99.272032
843.000000	99.315570
842.000000	99.344857
841.000000	99.365618
840.000000	99.382707
839.000000	99.399557
838.000000	99.417491
837.000000	99.435932
836.000000	99.455615
835.000000	99.479998
834.000000	99.509682
833.000000	99.536706
832.000000	99.550616
831.000000	99.551726
830.000000	99.552426
829.000000	99.561985
828.000000	99.575315
827.000000	99.582191
826.000000	99.582772
825.000000	99.586339
824.000000	99.596772
823.000000	99.607071
822.000000	99.609106
821.000000	99.603396
820.000000	99.598458
819.000000	99.603708
818.000000	99.621760
817.000000	99.644507
816.000000	99.658548
815.000000	99.658275
814.000000	99.652125
813.000000	99.651988
812.000000	99.658841
811.000000	99.663786
810.000000	99.661457
809.000000	99.656558
808.000000	99.656986
807.000000	99.665489
806.000000	99.678681
805.000000	99.690199
804.000000	99.694278
803.000000	99.689559
802.000000	99.679989
801.000000	99.670258
800.000000	99.661673
799.000000	99.654582
798.000000	99.651677
797.000000	99.654489
796.000000	99.659127
795.000000	99.660758
794.000000	99.660597
793.000000	99.663225
792.000000	99.668518
791.000000	99.671969
790.000000	99.672298
789.000000	99.673052
788.000000	99.676518
787.000000	99.681136
786.000000	99.685204
785.000000	99.688498
784.000000	99.689888
783.000000	99.687698
782.000000	99.683151
781.000000	99.679917
780.000000	99.679967
779.000000	99.682739
778.000000	99.687315
777.000000	99.691906
776.000000	99.692720
775.000000	99.687719
774.000000	99.680435
773.000000	99.675989
772.000000	99.674884
771.000000	99.674999
770.000000	99.676915
769.000000	99.681263
768.000000	99.683384
767.000000	99.678640
766.000000	99.672261
765.000000	99.675354
764.000000	99.690010
763.000000	99.706176
762.000000	99.715251
761.000000	99.719434
760.000000	99.724709
759.000000	99.731256
758.000000	99.735349
757.000000	99.735924
756.000000	99.735149
755.000000	99.735798
754.000000	99.740523
753.000000	99.750445
752.000000	99.762330
751.000000	99.770002
750.000000	99.769910
749.000000	99.763123
748.000000	99.752206
747.000000	99.739984
746.000000	99.731324
745.000000	99.730831
744.000000	99.737190
743.000000	99.744137
742.000000	99.748165
741.000000	99.751218
740.000000	99.755302
739.000000	99.758948
738.000000	99.759827
737.000000	99.756847
736.000000	99.749406
735.000000	99.738714
734.000000	99.729499
733.000000	99.725133
732.000000	99.721051
731.000000	99.708566
730.000000	99.685859
729.000000	99.659670
728.000000	99.638410
727.000000	99.626963
726.000000	99.623423
725.000000	99.617886
724.000000	99.597995
723.000000	99.560278
722.000000	99.512570
721.000000	99.461017
720.000000	99.398625
719.000000	99.310762
718.000000	99.184630
717.000000	99.004844
716.000000	98.752574
715.000000	98.435418
714.000000	98.122757
713.000000	97.926576
712.000000	97.924821
711.000000	98.100810
710.000000	98.362142
709.000000	98.611890
708.000000	98.800991
707.000000	98.930279
706.000000	99.018869
705.000000	99.080525
704.000000	99.124850
703.000000	99.164623
702.000000	99.212544
701.000000	99.268866
700.000000	99.318331
699.000000	99.348862
698.000000	99.365871
697.000000	99.382892
696.000000	99.405011
695.000000	99.427779
694.000000	99.451164
693.000000	99.479069
692.000000	99.504632
691.000000	99.516402
690.000000	99.516893
689.000000	99.522491
688.000000	99.541046
687.000000	99.560514
686.000000	99.569727
685.000000	99.571753
684.000000	99.569920
683.000000	99.561103
682.000000	99.548803
681.000000	99.545825
680.000000	99.554457
679.000000	99.560987
678.000000	99.556617
677.000000	99.543906
676.000000	99.529259
675.000000	99.519050
674.000000	99.523504
673.000000	99.551685
672.000000	99.601578
671.000000	99.670060
670.000000	99.763775
669.000000	99.879046
668.000000	99.933074
667.000000	99.855539
666.000000	99.741418
665.000000	99.646773
664.000000	99.577280
663.000000	99.537827
662.000000	99.521679
661.000000	99.516558
660.000000	99.515018
659.000000	99.518427
658.000000	99.526529
657.000000	99.529394
656.000000	99.524159
655.000000	99.521980
654.000000	99.528228
653.000000	99.533496
652.000000	99.533981
651.000000	99.539706
650.000000	99.555861
649.000000	99.569903
648.000000	99.569908
647.000000	99.561676
646.000000	99.558308
645.000000	99.567780
644.000000	99.591044
643.000000	99.619140
642.000000	99.633430
641.000000	99.618998
640.000000	99.583472
639.000000	99.554241
638.000000	99.549333
637.000000	99.560695
636.000000	99.571792
635.000000	99.576885
634.000000	99.578156
633.000000	99.575715
632.000000	99.569131
631.000000	99.563726
630.000000	99.566091
629.000000	99.574563
628.000000	99.581639
627.000000	99.583053
626.000000	99.578506
625.000000	99.569968
624.000000	99.560140
623.000000	99.550869
622.000000	99.542459
621.000000	99.534930
620.000000	99.528969
619.000000	99.523908
618.000000	99.516980
617.000000	99.507463
616.000000	99.499306
615.000000	99.496214
614.000000	99.496212
613.000000	99.495650
612.000000	99.496953
611.000000	99.505630
610.000000	99.519742
609.000000	99.529153
608.000000	99.527799
607.000000	99.521020
606.000000	99.516720
605.000000	99.518458
604.000000	99.527701
603.000000	99.545189
602.000000	99.567067
601.000000	99.584189
600.000000	99.590079
599.000000	99.587577
598.000000	99.584141
597.000000	99.582656
596.000000	99.580976
595.000000	99.577782
594.000000	99.572590
593.000000	99.561789
592.000000	99.543362
591.000000	99.527587
590.000000	99.533242
589.000000	99.566058
588.000000	99.607009
587.000000	99.627211
586.000000	99.613031
585.000000	99.575152
584.000000	99.535004
583.000000	99.508438
582.000000	99.502659
581.000000	99.517776
580.000000	99.543819
579.000000	99.561364
578.000000	99.554782
577.000000	99.527991
576.000000	99.504025
575.000000	99.505341
574.000000	99.532538
573.000000	99.565286
572.000000	99.582668
571.000000	99.578885
570.000000	99.564330
569.000000	99.553023
568.000000	99.547200
567.000000	99.535045
566.000000	99.504803
565.000000	99.460460
564.000000	99.421746
563.000000	99.407994
562.000000	99.421645
561.000000	99.449445
560.000000	99.478120
559.000000	99.502739
558.000000	99.520909
557.000000	99.526839
556.000000	99.516266
555.000000	99.494839
554.000000	99.475463
553.000000	99.465587
552.000000	99.460203
551.000000	99.448038
550.000000	99.423993
549.000000	99.395855
548.000000	99.379458
547.000000	99.386657
546.000000	99.413741
545.000000	99.440229
544.000000	99.443247
543.000000	99.416616
542.000000	99.378427
541.000000	99.359610
540.000000	99.377684
539.000000	99.415811
538.000000	99.431221
537.000000	99.393621
536.000000	99.317864
535.000000	99.253892
534.000000	99.241358
533.000000	99.277006
532.000000	99.327420
531.000000	99.362835
530.000000	99.375307
529.000000	99.374592
528.000000	99.373866
527.000000	99.378678
526.000000	99.382603
525.000000	99.373904
524.000000	99.350142
523.000000	99.320418
522.000000	99.295433
521.000000	99.282500
520.000000	99.288803
519.000000	99.322331
518.000000	99.381912
517.000000	99.449808
516.000000	99.503187
515.000000	99.529726
514.000000	99.529173
513.000000	99.508186
512.000000	99.480453
511.000000	99.464736
510.000000	99.471757
509.000000	99.493798
508.000000	99.513491
507.000000	99.520257
506.000000	99.513052
505.000000	99.493560
504.000000	99.467853
503.000000	99.456439
502.000000	99.484670
501.000000	99.547053
500.000000	99.600548
499.000000	99.607110
498.000000	99.569942
497.000000	99.525731
496.000000	99.505100
495.000000	99.505531
494.000000	99.507265
493.000000	99.504111
492.000000	99.505249
491.000000	99.512069
490.000000	99.511727
489.000000	99.500184
488.000000	99.492212
487.000000	99.496462
486.000000	99.496290
485.000000	99.476404
484.000000	99.461769
483.000000	99.494401
482.000000	99.566986
481.000000	99.618353
480.000000	99.604241
479.000000	99.542745
478.000000	99.480166
477.000000	99.436211
476.000000	99.402198
475.000000	99.374994
474.000000	99.363360
473.000000	99.365438
472.000000	99.367338
471.000000	99.369839
470.000000	99.388744
469.000000	99.428913
468.000000	99.480230
467.000000	99.527549
466.000000	99.549449
465.000000	99.519681
464.000000	99.431953
463.000000	99.321995
462.000000	99.244310
461.000000	99.217208
460.000000	99.224488
459.000000	99.276102
458.000000	99.412631
457.000000	99.611616
456.000000	99.761929
455.000000	99.793737
454.000000	99.741503
453.000000	99.686603
452.000000	99.688732
451.000000	99.727955
450.000000	99.756126
