PE IR       SUBTECH     SPECTRUM    ASCII       PEDS        4.00        
   -1
AG10-C011_1.ASC
23/09/08
10:31:12.00
23/09/08
11:14:38.00
uco
Sample 011 By uco Date Friday, September 08 2023
450.000000
#HDR
-1
-1
#GR
cm-1
%T
1.0
0.0
4000.000000
-1.000000
3551
8
99.906953
96.005653
#DATA
4000.000000	99.824663
3999.000000	99.831335
3998.000000	99.835345
3997.000000	99.835070
3996.000000	99.832415
3995.000000	99.830592
3994.000000	99.834539
3993.000000	99.835127
3992.000000	99.833568
3991.000000	99.828986
3990.000000	99.822972
3989.000000	99.817746
3988.000000	99.814248
3987.000000	99.812007
3986.000000	99.810351
3985.000000	99.809115
3984.000000	99.808201
3983.000000	99.807099
3982.000000	99.805436
3981.000000	99.803891
3980.000000	99.803933
3979.000000	99.806206
3978.000000	99.809412
3977.000000	99.811186
3976.000000	99.810225
3975.000000	99.807343
3974.000000	99.804318
3973.000000	99.802100
3972.000000	99.800285
3971.000000	99.798041
3970.000000	99.795105
3969.000000	99.792063
3968.000000	99.790084
3967.000000	99.790442
3966.000000	99.793689
3965.000000	99.798718
3964.000000	99.802854
3963.000000	99.803505
3962.000000	99.800263
3961.000000	99.795375
3960.000000	99.791847
3959.000000	99.791344
3958.000000	99.793449
3957.000000	99.796293
3956.000000	99.797581
3955.000000	99.795792
3954.000000	99.791362
3953.000000	99.786525
3952.000000	99.783594
3951.000000	99.783281
3950.000000	99.784615
3949.000000	99.786398
3948.000000	99.788505
3947.000000	99.791774
3946.000000	99.796917
3945.000000	99.803327
3944.000000	99.809003
3943.000000	99.811853
3942.000000	99.810897
3941.000000	99.806598
3940.000000	99.800563
3939.000000	99.795055
3938.000000	99.792178
3937.000000	99.793244
3936.000000	99.797750
3935.000000	99.802973
3934.000000	99.805506
3933.000000	99.803880
3932.000000	99.799855
3931.000000	99.796343
3930.000000	99.794415
3929.000000	99.793246
3928.000000	99.791913
3927.000000	99.790150
3926.000000	99.788071
3925.000000	99.786423
3924.000000	99.786214
3923.000000	99.787157
3922.000000	99.787699
3921.000000	99.787008
3920.000000	99.786491
3919.000000	99.788667
3918.000000	99.794122
3917.000000	99.800245
3916.000000	99.803257
3915.000000	99.801128
3914.000000	99.793983
3913.000000	99.783792
3912.000000	99.773856
3911.000000	99.767930
3910.000000	99.767769
3909.000000	99.772469
3908.000000	99.779593
3907.000000	99.786553
3906.000000	99.790924
3905.000000	99.790954
3904.000000	99.787056
3903.000000	99.781398
3902.000000	99.775971
3901.000000	99.771927
3900.000000	99.770042
3899.000000	99.770708
3898.000000	99.772827
3897.000000	99.774072
3896.000000	99.772867
3895.000000	99.770378
3894.000000	99.769441
3893.000000	99.772445
3892.000000	99.778373
3891.000000	99.783383
3890.000000	99.784591
3889.000000	99.783648
3888.000000	99.782978
3887.000000	99.781503
3886.000000	99.778454
3885.000000	99.776685
3884.000000	99.778385
3883.000000	99.782503
3882.000000	99.785594
3881.000000	99.785055
3880.000000	99.781556
3879.000000	99.777343
3878.000000	99.774686
3877.000000	99.775039
3876.000000	99.777110
3875.000000	99.778586
3874.000000	99.780043
3873.000000	99.784681
3872.000000	99.793498
3871.000000	99.802836
3870.000000	99.808995
3869.000000	99.812331
3868.000000	99.814657
3867.000000	99.815862
3866.000000	99.813146
3865.000000	99.805941
3864.000000	99.798277
3863.000000	99.793129
3862.000000	99.789015
3861.000000	99.784423
3860.000000	99.779560
3859.000000	99.775712
3858.000000	99.774641
3857.000000	99.778151
3856.000000	99.785336
3855.000000	99.789651
3854.000000	99.788174
3853.000000	99.790472
3852.000000	99.798235
3851.000000	99.803683
3850.000000	99.803364
3849.000000	99.798070
3848.000000	99.790586
3847.000000	99.784270
3846.000000	99.781113
3845.000000	99.781472
3844.000000	99.783643
3843.000000	99.785181
3842.000000	99.785099
3841.000000	99.784854
3840.000000	99.785688
3839.000000	99.787906
3838.000000	99.790847
3837.000000	99.793312
3836.000000	99.795253
3835.000000	99.798087
3834.000000	99.802807
3833.000000	99.808394
3832.000000	99.812712
3831.000000	99.814432
3830.000000	99.813768
3829.000000	99.811708
3828.000000	99.808284
3827.000000	99.802923
3826.000000	99.796328
3825.000000	99.791417
3824.000000	99.790430
3823.000000	99.791952
3822.000000	99.792861
3821.000000	99.793766
3820.000000	99.795196
3819.000000	99.794796
3818.000000	99.791220
3817.000000	99.783685
3816.000000	99.776551
3815.000000	99.776809
3814.000000	99.783957
3813.000000	99.791111
3812.000000	99.792790
3811.000000	99.789415
3810.000000	99.785628
3809.000000	99.784825
3808.000000	99.786150
3807.000000	99.787962
3806.000000	99.790314
3805.000000	99.794416
3804.000000	99.800404
3803.000000	99.804988
3802.000000	99.804767
3801.000000	99.802595
3800.000000	99.802339
3799.000000	99.804626
3798.000000	99.807079
3797.000000	99.805743
3796.000000	99.799563
3795.000000	99.791313
3794.000000	99.784597
3793.000000	99.780676
3792.000000	99.778864
3791.000000	99.777746
3790.000000	99.775728
3789.000000	99.771787
3788.000000	99.766778
3787.000000	99.763397
3786.000000	99.764357
3785.000000	99.770199
3784.000000	99.778732
3783.000000	99.786675
3782.000000	99.791038
3781.000000	99.789891
3780.000000	99.783802
3779.000000	99.777090
3778.000000	99.774089
3777.000000	99.775621
3776.000000	99.779084
3775.000000	99.781321
3774.000000	99.781139
3773.000000	99.779331
3772.000000	99.776591
3771.000000	99.773546
3770.000000	99.772537
3769.000000	99.775784
3768.000000	99.782560
3767.000000	99.790092
3766.000000	99.795332
3765.000000	99.796405
3764.000000	99.793865
3763.000000	99.790306
3762.000000	99.787770
3761.000000	99.787097
3760.000000	99.788410
3759.000000	99.790368
3758.000000	99.789461
3757.000000	99.784887
3756.000000	99.780524
3755.000000	99.780023
3754.000000	99.782362
3753.000000	99.783540
3752.000000	99.782931
3751.000000	99.784508
3750.000000	99.788532
3749.000000	99.790773
3748.000000	99.792219
3747.000000	99.797181
3746.000000	99.803762
3745.000000	99.806767
3744.000000	99.808909
3743.000000	99.813084
3742.000000	99.817318
3741.000000	99.820273
3740.000000	99.822992
3739.000000	99.827924
3738.000000	99.833995
3737.000000	99.835481
3736.000000	99.831619
3735.000000	99.829795
3734.000000	99.833435
3733.000000	99.835995
3732.000000	99.831280
3731.000000	99.821221
3730.000000	99.812352
3729.000000	99.808800
3728.000000	99.809950
3727.000000	99.813450
3726.000000	99.818401
3725.000000	99.823350
3724.000000	99.824942
3723.000000	99.821316
3722.000000	99.814826
3721.000000	99.809796
3720.000000	99.807605
3719.000000	99.805636
3718.000000	99.800508
3717.000000	99.792726
3716.000000	99.787010
3715.000000	99.787432
3714.000000	99.793522
3713.000000	99.801305
3712.000000	99.807797
3711.000000	99.813360
3710.000000	99.819270
3709.000000	99.825719
3708.000000	99.830934
3707.000000	99.832118
3706.000000	99.828125
3705.000000	99.820851
3704.000000	99.813781
3703.000000	99.810043
3702.000000	99.811064
3701.000000	99.815723
3700.000000	99.821417
3699.000000	99.826245
3698.000000	99.828729
3697.000000	99.827510
3696.000000	99.822848
3695.000000	99.816128
3694.000000	99.808299
3693.000000	99.800509
3692.000000	99.795485
3691.000000	99.796730
3690.000000	99.804964
3689.000000	99.815657
3688.000000	99.821896
3687.000000	99.822080
3686.000000	99.820982
3685.000000	99.822586
3684.000000	99.827020
3683.000000	99.832325
3682.000000	99.835419
3681.000000	99.832230
3680.000000	99.821373
3679.000000	99.807491
3678.000000	99.798198
3677.000000	99.797471
3676.000000	99.805793
3675.000000	99.819469
3674.000000	99.828539
3673.000000	99.830160
3672.000000	99.827995
3671.000000	99.824543
3670.000000	99.824217
3669.000000	99.829503
3668.000000	99.835356
3667.000000	99.837438
3666.000000	99.835617
3665.000000	99.831259
3664.000000	99.826148
3663.000000	99.821725
3662.000000	99.818246
3661.000000	99.815186
3660.000000	99.812926
3659.000000	99.812210
3658.000000	99.812278
3657.000000	99.810438
3656.000000	99.805665
3655.000000	99.800366
3654.000000	99.799116
3653.000000	99.805092
3652.000000	99.816640
3651.000000	99.828220
3650.000000	99.835013
3649.000000	99.835579
3648.000000	99.830991
3647.000000	99.824161
3646.000000	99.817670
3645.000000	99.812535
3644.000000	99.808402
3643.000000	99.804681
3642.000000	99.801342
3641.000000	99.798499
3640.000000	99.795166
3639.000000	99.789897
3638.000000	99.783704
3637.000000	99.780346
3636.000000	99.782484
3635.000000	99.788276
3634.000000	99.793655
3633.000000	99.797346
3632.000000	99.801374
3631.000000	99.806335
3630.000000	99.809579
3629.000000	99.811766
3628.000000	99.813713
3627.000000	99.811091
3626.000000	99.803394
3625.000000	99.794390
3624.000000	99.788269
3623.000000	99.787933
3622.000000	99.793117
3621.000000	99.800278
3620.000000	99.805925
3619.000000	99.809110
3618.000000	99.809771
3617.000000	99.808413
3616.000000	99.807008
3615.000000	99.806231
3614.000000	99.804136
3613.000000	99.798396
3612.000000	99.789027
3611.000000	99.778800
3610.000000	99.771415
3609.000000	99.770113
3608.000000	99.775962
3607.000000	99.785171
3606.000000	99.791425
3605.000000	99.791518
3604.000000	99.786977
3603.000000	99.781419
3602.000000	99.777703
3601.000000	99.776608
3600.000000	99.777606
3599.000000	99.779317
3598.000000	99.779820
3597.000000	99.777125
3596.000000	99.770892
3595.000000	99.763616
3594.000000	99.760041
3593.000000	99.763282
3592.000000	99.772131
3591.000000	99.782263
3590.000000	99.788325
3589.000000	99.786607
3588.000000	99.778928
3587.000000	99.771474
3586.000000	99.767043
3585.000000	99.763835
3584.000000	99.759691
3583.000000	99.753318
3582.000000	99.744437
3581.000000	99.734329
3580.000000	99.725731
3579.000000	99.721003
3578.000000	99.720359
3577.000000	99.721997
3576.000000	99.723597
3575.000000	99.723613
3574.000000	99.721622
3573.000000	99.718283
3572.000000	99.714864
3571.000000	99.712523
3570.000000	99.711552
3569.000000	99.711749
3568.000000	99.714493
3567.000000	99.721350
3566.000000	99.728600
3565.000000	99.729998
3564.000000	99.725275
3563.000000	99.719220
3562.000000	99.715770
3561.000000	99.715004
3560.000000	99.714256
3559.000000	99.711404
3558.000000	99.706580
3557.000000	99.701070
3556.000000	99.695508
3555.000000	99.689688
3554.000000	99.683618
3553.000000	99.678473
3552.000000	99.675821
3551.000000	99.675537
3550.000000	99.675227
3549.000000	99.672036
3548.000000	99.665275
3547.000000	99.657995
3546.000000	99.655118
3545.000000	99.658713
3544.000000	99.665880
3543.000000	99.671835
3542.000000	99.673639
3541.000000	99.671320
3540.000000	99.666617
3539.000000	99.661068
3538.000000	99.654923
3537.000000	99.647668
3536.000000	99.639675
3535.000000	99.632803
3534.000000	99.629489
3533.000000	99.630928
3532.000000	99.636004
3531.000000	99.641489
3530.000000	99.643715
3529.000000	99.641129
3528.000000	99.635761
3527.000000	99.631837
3526.000000	99.632394
3525.000000	99.637178
3524.000000	99.643025
3523.000000	99.645830
3522.000000	99.642989
3521.000000	99.635065
3520.000000	99.625279
3519.000000	99.616856
3518.000000	99.610745
3517.000000	99.605548
3516.000000	99.599773
3515.000000	99.593782
3514.000000	99.589610
3513.000000	99.589051
3512.000000	99.592190
3511.000000	99.597442
3510.000000	99.602596
3509.000000	99.605762
3508.000000	99.606000
3507.000000	99.603489
3506.000000	99.599304
3505.000000	99.595162
3504.000000	99.593296
3503.000000	99.595089
3502.000000	99.599015
3501.000000	99.600975
3500.000000	99.597720
3499.000000	99.589955
3498.000000	99.582073
3497.000000	99.578713
3496.000000	99.580563
3495.000000	99.583677
3494.000000	99.583431
3493.000000	99.579033
3492.000000	99.573540
3491.000000	99.569851
3490.000000	99.567559
3489.000000	99.563936
3488.000000	99.557598
3487.000000	99.550526
3486.000000	99.546384
3485.000000	99.547253
3484.000000	99.552074
3483.000000	99.557554
3482.000000	99.560503
3481.000000	99.559803
3480.000000	99.556514
3479.000000	99.552329
3478.000000	99.548289
3477.000000	99.545010
3476.000000	99.543320
3475.000000	99.543762
3474.000000	99.545421
3473.000000	99.546084
3472.000000	99.544010
3471.000000	99.539284
3470.000000	99.533369
3469.000000	99.527780
3468.000000	99.523386
3467.000000	99.520561
3466.000000	99.519433
3465.000000	99.520057
3464.000000	99.522694
3463.000000	99.527716
3462.000000	99.534659
3461.000000	99.541319
3460.000000	99.544594
3459.000000	99.542781
3458.000000	99.536898
3457.000000	99.529529
3456.000000	99.522736
3455.000000	99.517146
3454.000000	99.512670
3453.000000	99.509282
3452.000000	99.507111
3451.000000	99.506220
3450.000000	99.506599
3449.000000	99.508255
3448.000000	99.511088
3447.000000	99.514343
3446.000000	99.515991
3445.000000	99.513303
3444.000000	99.504877
3443.000000	99.492564
3442.000000	99.481169
3441.000000	99.475028
3440.000000	99.474275
3439.000000	99.474915
3438.000000	99.472984
3437.000000	99.468412
3436.000000	99.464649
3435.000000	99.464748
3434.000000	99.468262
3433.000000	99.471941
3432.000000	99.473153
3431.000000	99.472151
3430.000000	99.471195
3429.000000	99.472056
3428.000000	99.474615
3427.000000	99.477516
3426.000000	99.479471
3425.000000	99.479703
3424.000000	99.477569
3423.000000	99.472497
3422.000000	99.464812
3421.000000	99.456454
3420.000000	99.450117
3419.000000	99.447164
3418.000000	99.446553
3417.000000	99.445870
3416.000000	99.443126
3415.000000	99.437683
3414.000000	99.430172
3413.000000	99.422235
3412.000000	99.416154
3411.000000	99.413839
3410.000000	99.415564
3409.000000	99.419781
3408.000000	99.424401
3407.000000	99.428176
3406.000000	99.430775
3405.000000	99.431829
3404.000000	99.430428
3403.000000	99.425818
3402.000000	99.418494
3401.000000	99.410192
3400.000000	99.402563
3399.000000	99.396085
3398.000000	99.390592
3397.000000	99.386464
3396.000000	99.384424
3395.000000	99.384071
3394.000000	99.383464
3393.000000	99.380863
3392.000000	99.376691
3391.000000	99.373304
3390.000000	99.372864
3389.000000	99.375616
3388.000000	99.379640
3387.000000	99.381668
3386.000000	99.378729
3385.000000	99.370185
3384.000000	99.358605
3383.000000	99.348252
3382.000000	99.342400
3381.000000	99.341809
3380.000000	99.344932
3379.000000	99.348801
3378.000000	99.350112
3377.000000	99.346776
3376.000000	99.339193
3375.000000	99.329975
3374.000000	99.322112
3373.000000	99.317266
3372.000000	99.315310
3371.000000	99.314760
3370.000000	99.313389
3369.000000	99.309177
3368.000000	99.301569
3367.000000	99.291952
3366.000000	99.282383
3365.000000	99.273627
3364.000000	99.264764
3363.000000	99.254960
3362.000000	99.245263
3361.000000	99.238056
3360.000000	99.234508
3359.000000	99.232921
3358.000000	99.230027
3357.000000	99.223840
3356.000000	99.215029
3355.000000	99.205705
3354.000000	99.197445
3353.000000	99.190562
3352.000000	99.184513
3351.000000	99.178319
3350.000000	99.170895
3349.000000	99.161793
3348.000000	99.151848
3347.000000	99.142740
3346.000000	99.135647
3345.000000	99.130317
3344.000000	99.125346
3343.000000	99.119140
3342.000000	99.110765
3341.000000	99.100389
3340.000000	99.089253
3339.000000	99.079051
3338.000000	99.070936
3337.000000	99.064726
3336.000000	99.058900
3335.000000	99.051584
3334.000000	99.042052
3333.000000	99.031585
3332.000000	99.022687
3331.000000	99.017171
3330.000000	99.014842
3329.000000	99.013965
3328.000000	99.012730
3327.000000	99.010147
3326.000000	99.006044
3325.000000	99.000885
3324.000000	98.995633
3323.000000	98.991223
3322.000000	98.987862
3321.000000	98.984976
3320.000000	98.981854
3319.000000	98.978031
3318.000000	98.973067
3317.000000	98.966518
3316.000000	98.958676
3315.000000	98.951144
3314.000000	98.945945
3313.000000	98.943545
3312.000000	98.941927
3311.000000	98.938191
3310.000000	98.931473
3309.000000	98.924192
3308.000000	98.920119
3307.000000	98.921081
3306.000000	98.925550
3305.000000	98.929946
3304.000000	98.930804
3303.000000	98.926209
3302.000000	98.916534
3301.000000	98.904471
3300.000000	98.893699
3299.000000	98.886595
3298.000000	98.883258
3297.000000	98.882855
3296.000000	98.885198
3295.000000	98.890139
3294.000000	98.895935
3293.000000	98.899874
3292.000000	98.900983
3291.000000	98.901019
3290.000000	98.901956
3289.000000	98.903141
3288.000000	98.902032
3287.000000	98.897617
3286.000000	98.892081
3285.000000	98.888663
3284.000000	98.888364
3283.000000	98.889042
3282.000000	98.887615
3281.000000	98.882929
3280.000000	98.876548
3279.000000	98.871233
3278.000000	98.868885
3277.000000	98.869492
3276.000000	98.871467
3275.000000	98.872983
3274.000000	98.873481
3273.000000	98.874273
3272.000000	98.877310
3271.000000	98.882814
3270.000000	98.888258
3269.000000	98.890302
3268.000000	98.887936
3267.000000	98.883547
3266.000000	98.880947
3265.000000	98.882570
3264.000000	98.888361
3263.000000	98.896428
3262.000000	98.904147
3261.000000	98.909160
3260.000000	98.910261
3259.000000	98.907927
3258.000000	98.903974
3257.000000	98.900558
3256.000000	98.899281
3255.000000	98.900683
3254.000000	98.904106
3253.000000	98.908168
3252.000000	98.911877
3251.000000	98.915490
3250.000000	98.920027
3249.000000	98.925732
3248.000000	98.931223
3247.000000	98.934354
3246.000000	98.933923
3245.000000	98.930575
3244.000000	98.926172
3243.000000	98.922515
3242.000000	98.920620
3241.000000	98.920872
3240.000000	98.923508
3239.000000	98.928676
3238.000000	98.935784
3237.000000	98.942841
3236.000000	98.946980
3235.000000	98.946441
3234.000000	98.942225
3233.000000	98.937515
3232.000000	98.935339
3231.000000	98.936768
3230.000000	98.941064
3229.000000	98.946675
3228.000000	98.951708
3227.000000	98.954241
3226.000000	98.953307
3225.000000	98.949905
3224.000000	98.946650
3223.000000	98.946001
3222.000000	98.948683
3221.000000	98.953561
3220.000000	98.958558
3219.000000	98.961777
3218.000000	98.962360
3217.000000	98.960909
3216.000000	98.959257
3215.000000	98.959419
3214.000000	98.962028
3213.000000	98.965472
3212.000000	98.966917
3211.000000	98.964818
3210.000000	98.960559
3209.000000	98.957333
3208.000000	98.957375
3207.000000	98.960454
3206.000000	98.964896
3205.000000	98.969299
3204.000000	98.973015
3203.000000	98.975789
3202.000000	98.977690
3201.000000	98.979266
3200.000000	98.981162
3199.000000	98.983471
3198.000000	98.985590
3197.000000	98.986581
3196.000000	98.985769
3195.000000	98.983586
3194.000000	98.982026
3193.000000	98.983506
3192.000000	98.988448
3191.000000	98.994342
3190.000000	98.998044
3189.000000	98.998882
3188.000000	98.998887
3187.000000	99.000188
3186.000000	99.002999
3185.000000	99.005962
3184.000000	99.007476
3183.000000	99.006561
3182.000000	99.003431
3181.000000	98.999801
3180.000000	98.998051
3179.000000	98.999548
3178.000000	99.003859
3177.000000	99.009805
3176.000000	99.016882
3175.000000	99.025331
3174.000000	99.035144
3173.000000	99.045256
3172.000000	99.053556
3171.000000	99.057863
3170.000000	99.057621
3169.000000	99.054956
3168.000000	99.053479
3167.000000	99.055414
3166.000000	99.060025
3165.000000	99.064982
3164.000000	99.068880
3163.000000	99.072079
3162.000000	99.075491
3161.000000	99.079070
3160.000000	99.081598
3159.000000	99.081758
3158.000000	99.079552
3157.000000	99.076743
3156.000000	99.075670
3155.000000	99.077350
3154.000000	99.080894
3153.000000	99.084867
3152.000000	99.088952
3151.000000	99.094028
3150.000000	99.100716
3149.000000	99.107985
3148.000000	99.113141
3147.000000	99.113380
3146.000000	99.108054
3145.000000	99.099874
3144.000000	99.093689
3143.000000	99.093343
3142.000000	99.099241
3141.000000	99.108535
3140.000000	99.117440
3139.000000	99.123760
3138.000000	99.128114
3137.000000	99.133001
3136.000000	99.140077
3135.000000	99.147833
3134.000000	99.152516
3133.000000	99.151930
3132.000000	99.148127
3131.000000	99.145622
3130.000000	99.147162
3129.000000	99.151561
3128.000000	99.155242
3127.000000	99.155228
3126.000000	99.150963
3125.000000	99.144296
3124.000000	99.138253
3123.000000	99.135207
3122.000000	99.135424
3121.000000	99.137147
3120.000000	99.138269
3119.000000	99.137955
3118.000000	99.136949
3117.000000	99.136728
3116.000000	99.138506
3115.000000	99.142505
3114.000000	99.147642
3113.000000	99.151874
3112.000000	99.153341
3111.000000	99.151638
3110.000000	99.148163
3109.000000	99.145072
3108.000000	99.143637
3107.000000	99.143363
3106.000000	99.142520
3105.000000	99.139593
3104.000000	99.134453
3103.000000	99.128358
3102.000000	99.122926
3101.000000	99.119117
3100.000000	99.116871
3099.000000	99.115406
3098.000000	99.113769
3097.000000	99.111444
3096.000000	99.108760
3095.000000	99.106704
3094.000000	99.106086
3093.000000	99.106754
3092.000000	99.107635
3091.000000	99.107464
3090.000000	99.105434
3089.000000	99.101411
3088.000000	99.096083
3087.000000	99.091014
3086.000000	99.087989
3085.000000	99.087633
3084.000000	99.088701
3083.000000	99.089132
3082.000000	99.087819
3081.000000	99.085155
3080.000000	99.082190
3079.000000	99.079954
3078.000000	99.079439
3077.000000	99.081089
3076.000000	99.083719
3075.000000	99.084749
3074.000000	99.082416
3073.000000	99.077598
3072.000000	99.072999
3071.000000	99.070797
3070.000000	99.071455
3069.000000	99.074160
3068.000000	99.077452
3067.000000	99.079685
3066.000000	99.080095
3065.000000	99.079818
3064.000000	99.081034
3063.000000	99.084722
3062.000000	99.089663
3061.000000	99.093654
3060.000000	99.095129
3059.000000	99.093834
3058.000000	99.091095
3057.000000	99.089745
3056.000000	99.092521
3055.000000	99.099499
3054.000000	99.107551
3053.000000	99.113107
3052.000000	99.115198
3051.000000	99.115480
3050.000000	99.116028
3049.000000	99.117887
3048.000000	99.121345
3047.000000	99.126415
3046.000000	99.132659
3045.000000	99.139113
3044.000000	99.144909
3043.000000	99.149908
3042.000000	99.154515
3041.000000	99.158817
3040.000000	99.162077
3039.000000	99.163395
3038.000000	99.163005
3037.000000	99.162633
3036.000000	99.164196
3035.000000	99.168188
3034.000000	99.173575
3033.000000	99.178930
3032.000000	99.183060
3031.000000	99.184988
3030.000000	99.184653
3029.000000	99.183934
3028.000000	99.185794
3027.000000	99.191459
3026.000000	99.198865
3025.000000	99.204518
3024.000000	99.206594
3023.000000	99.205924
3022.000000	99.204688
3021.000000	99.205090
3020.000000	99.208729
3019.000000	99.215760
3018.000000	99.224033
3017.000000	99.229634
3016.000000	99.229249
3015.000000	99.222736
3014.000000	99.213959
3013.000000	99.208746
3012.000000	99.210829
3011.000000	99.218785
3010.000000	99.227319
3009.000000	99.232043
3008.000000	99.232667
3007.000000	99.231449
3006.000000	99.229698
3005.000000	99.226990
3004.000000	99.223242
3003.000000	99.219978
3002.000000	99.219143
3001.000000	99.221553
3000.000000	99.226824
2999.000000	99.234008
2998.000000	99.241756
2997.000000	99.248356
2996.000000	99.252248
2995.000000	99.252690
2994.000000	99.250035
2993.000000	99.245475
2992.000000	99.240268
2991.000000	99.234829
2990.000000	99.228749
2989.000000	99.222063
2988.000000	99.216248
2987.000000	99.213189
2986.000000	99.213043
2985.000000	99.213615
2984.000000	99.212004
2983.000000	99.206722
2982.000000	99.198481
2981.000000	99.189658
2980.000000	99.182919
2979.000000	99.179650
2978.000000	99.179159
2977.000000	99.179624
2976.000000	99.179837
2975.000000	99.179695
2974.000000	99.179053
2973.000000	99.176905
2972.000000	99.172243
2971.000000	99.165297
2970.000000	99.157411
2969.000000	99.149883
2968.000000	99.143481
2967.000000	99.138887
2966.000000	99.136771
2965.000000	99.136769
2964.000000	99.136572
2963.000000	99.132862
2962.000000	99.123738
2961.000000	99.110351
2960.000000	99.096039
2959.000000	99.083999
2958.000000	99.075866
2957.000000	99.071805
2956.000000	99.070885
2955.000000	99.071231
2954.000000	99.070932
2953.000000	99.069579
2952.000000	99.068416
2951.000000	99.068483
2950.000000	99.069075
2949.000000	99.068625
2948.000000	99.066486
2947.000000	99.063016
2946.000000	99.058326
2945.000000	99.052177
2944.000000	99.045125
2943.000000	99.038541
2942.000000	99.032946
2941.000000	99.027072
2940.000000	99.019311
2939.000000	99.009662
2938.000000	98.999636
2937.000000	98.990402
2936.000000	98.981435
2935.000000	98.971038
2934.000000	98.957945
2933.000000	98.942379
2932.000000	98.925663
2931.000000	98.908872
2930.000000	98.891911
2929.000000	98.873853
2928.000000	98.853898
2927.000000	98.831978
2926.000000	98.808872
2925.000000	98.786168
2924.000000	98.765631
2923.000000	98.747855
2922.000000	98.731703
2921.000000	98.715956
2920.000000	98.701819
2919.000000	98.692982
2918.000000	98.692807
2917.000000	98.701940
2916.000000	98.718959
2915.000000	98.742754
2914.000000	98.773284
2913.000000	98.809901
2912.000000	98.849456
2911.000000	98.886689
2910.000000	98.916883
2909.000000	98.938741
2908.000000	98.955048
2907.000000	98.970343
2906.000000	98.987519
2905.000000	99.006201
2904.000000	99.024056
2903.000000	99.039112
2902.000000	99.050866
2901.000000	99.059676
2900.000000	99.066291
2899.000000	99.072088
2898.000000	99.078981
2897.000000	99.088362
2896.000000	99.099819
2895.000000	99.110976
2894.000000	99.118790
2893.000000	99.121422
2892.000000	99.119561
2891.000000	99.116403
2890.000000	99.115955
2889.000000	99.120454
2888.000000	99.128640
2887.000000	99.136577
2886.000000	99.140729
2885.000000	99.140689
2884.000000	99.139068
2883.000000	99.138654
2882.000000	99.139833
2881.000000	99.140845
2880.000000	99.140312
2879.000000	99.138991
2878.000000	99.138747
2877.000000	99.140137
2876.000000	99.141568
2875.000000	99.141087
2874.000000	99.138650
2873.000000	99.136267
2872.000000	99.136144
2871.000000	99.139078
2870.000000	99.144253
2869.000000	99.149677
2868.000000	99.152742
2867.000000	99.151553
2866.000000	99.146730
2865.000000	99.141504
2864.000000	99.139058
2863.000000	99.139734
2862.000000	99.141204
2861.000000	99.140918
2860.000000	99.137316
2859.000000	99.128989
2858.000000	99.114432
2857.000000	99.093587
2856.000000	99.068671
2855.000000	99.042404
2854.000000	99.015907
2853.000000	98.989288
2852.000000	98.964220
2851.000000	98.945024
2850.000000	98.936687
2849.000000	98.941886
2848.000000	98.959509
2847.000000	98.985628
2846.000000	99.015941
2845.000000	99.047662
2844.000000	99.079302
2843.000000	99.109260
2842.000000	99.135485
2841.000000	99.156796
2840.000000	99.173866
2839.000000	99.188150
2838.000000	99.200337
2837.000000	99.210561
2836.000000	99.219618
2835.000000	99.228815
2834.000000	99.238415
2833.000000	99.247214
2832.000000	99.254100
2831.000000	99.259411
2830.000000	99.264128
2829.000000	99.268137
2828.000000	99.270030
2827.000000	99.268762
2826.000000	99.265211
2825.000000	99.261840
2824.000000	99.260890
2823.000000	99.263019
2822.000000	99.267522
2821.000000	99.273347
2820.000000	99.279434
2819.000000	99.284454
2818.000000	99.287336
2817.000000	99.288526
2816.000000	99.289990
2815.000000	99.293200
2814.000000	99.297452
2813.000000	99.300920
2812.000000	99.302980
2811.000000	99.304526
2810.000000	99.306079
2809.000000	99.306770
2808.000000	99.305745
2807.000000	99.303723
2806.000000	99.302325
2805.000000	99.302186
2804.000000	99.302390
2803.000000	99.301765
2802.000000	99.300219
2801.000000	99.298774
2800.000000	99.298655
2799.000000	99.300417
2798.000000	99.303668
2797.000000	99.307335
2796.000000	99.310096
2795.000000	99.310718
2794.000000	99.308477
2793.000000	99.303900
2792.000000	99.299228
2791.000000	99.297519
2790.000000	99.300491
2789.000000	99.307005
2788.000000	99.313944
2787.000000	99.318698
2786.000000	99.320723
2785.000000	99.320891
2784.000000	99.320055
2783.000000	99.318754
2782.000000	99.317819
2781.000000	99.318206
2780.000000	99.319813
2779.000000	99.321114
2778.000000	99.320657
2777.000000	99.318800
2776.000000	99.317543
2775.000000	99.318687
2774.000000	99.322488
2773.000000	99.327855
2772.000000	99.333185
2771.000000	99.336961
2770.000000	99.338365
2769.000000	99.337929
2768.000000	99.337285
2767.000000	99.337744
2766.000000	99.339145
2765.000000	99.340360
2764.000000	99.340854
2763.000000	99.341414
2762.000000	99.343166
2761.000000	99.345953
2760.000000	99.347952
2759.000000	99.347344
2758.000000	99.344577
2757.000000	99.342574
2756.000000	99.344090
2755.000000	99.348992
2754.000000	99.354668
2753.000000	99.358815
2752.000000	99.360957
2751.000000	99.361370
2750.000000	99.359978
2749.000000	99.357132
2748.000000	99.354488
2747.000000	99.353927
2746.000000	99.355813
2745.000000	99.359007
2744.000000	99.362216
2743.000000	99.364590
2742.000000	99.365332
2741.000000	99.363777
2740.000000	99.360111
2739.000000	99.355515
2738.000000	99.351617
2737.000000	99.350147
2736.000000	99.352638
2735.000000	99.359411
2734.000000	99.368603
2733.000000	99.376931
2732.000000	99.381933
2731.000000	99.383281
2730.000000	99.382013
2729.000000	99.379094
2728.000000	99.375024
2727.000000	99.370439
2726.000000	99.366643
2725.000000	99.365408
2724.000000	99.368039
2723.000000	99.374266
2722.000000	99.382019
2721.000000	99.388539
2720.000000	99.391892
2719.000000	99.391621
2718.000000	99.388516
2717.000000	99.384274
2716.000000	99.380993
2715.000000	99.380077
2714.000000	99.381361
2713.000000	99.383642
2712.000000	99.385998
2711.000000	99.388141
2710.000000	99.389650
2709.000000	99.389786
2708.000000	99.388547
2707.000000	99.387356
2706.000000	99.387972
2705.000000	99.390603
2704.000000	99.393461
2703.000000	99.394463
2702.000000	99.393513
2701.000000	99.393017
2700.000000	99.395777
2699.000000	99.402045
2698.000000	99.408762
2697.000000	99.411992
2696.000000	99.410187
2695.000000	99.405105
2694.000000	99.400012
2693.000000	99.397429
2692.000000	99.398167
2691.000000	99.401397
2690.000000	99.405158
2689.000000	99.407370
2688.000000	99.407217
2687.000000	99.405894
2686.000000	99.405746
2685.000000	99.408223
2684.000000	99.412309
2683.000000	99.415059
2682.000000	99.414048
2681.000000	99.409518
2680.000000	99.403995
2679.000000	99.399855
2678.000000	99.397582
2677.000000	99.396320
2676.000000	99.395289
2675.000000	99.394296
2674.000000	99.393614
2673.000000	99.394099
2672.000000	99.396869
2671.000000	99.401922
2670.000000	99.407279
2669.000000	99.410442
2668.000000	99.410784
2667.000000	99.409801
2666.000000	99.408939
2665.000000	99.407849
2664.000000	99.404974
2663.000000	99.399290
2662.000000	99.391349
2661.000000	99.383076
2660.000000	99.376635
2659.000000	99.373079
2658.000000	99.372026
2657.000000	99.372834
2656.000000	99.375709
2655.000000	99.380956
2654.000000	99.387472
2653.000000	99.393167
2652.000000	99.396949
2651.000000	99.399261
2650.000000	99.400541
2649.000000	99.400517
2648.000000	99.399620
2647.000000	99.399634
2646.000000	99.401505
2645.000000	99.403315
2644.000000	99.402159
2643.000000	99.397967
2642.000000	99.394114
2641.000000	99.393949
2640.000000	99.397734
2639.000000	99.403338
2638.000000	99.408876
2637.000000	99.413799
2636.000000	99.418063
2635.000000	99.421446
2634.000000	99.423907
2633.000000	99.425951
2632.000000	99.428176
2631.000000	99.430578
2630.000000	99.432635
2629.000000	99.434100
2628.000000	99.435591
2627.000000	99.438232
2626.000000	99.442523
2625.000000	99.447385
2624.000000	99.450591
2623.000000	99.450835
2622.000000	99.449755
2621.000000	99.451233
2620.000000	99.457630
2619.000000	99.466598
2618.000000	99.472439
2617.000000	99.471198
2616.000000	99.464216
2615.000000	99.456711
2614.000000	99.453656
2613.000000	99.457051
2612.000000	99.465599
2611.000000	99.475504
2610.000000	99.482141
2609.000000	99.482822
2608.000000	99.478815
2607.000000	99.474101
2606.000000	99.471633
2605.000000	99.471054
2604.000000	99.470115
2603.000000	99.467845
2602.000000	99.465909
2601.000000	99.466838
2600.000000	99.471254
2599.000000	99.477193
2598.000000	99.482301
2597.000000	99.486225
2596.000000	99.490196
2595.000000	99.494778
2594.000000	99.499135
2593.000000	99.502353
2592.000000	99.504112
2591.000000	99.503855
2590.000000	99.500939
2589.000000	99.496338
2588.000000	99.492649
2587.000000	99.491218
2586.000000	99.490723
2585.000000	99.489946
2584.000000	99.490657
2583.000000	99.496001
2582.000000	99.506688
2581.000000	99.519989
2580.000000	99.531428
2579.000000	99.536429
2578.000000	99.532306
2577.000000	99.521324
2576.000000	99.510897
2575.000000	99.507939
2574.000000	99.512974
2573.000000	99.521378
2572.000000	99.529058
2571.000000	99.534418
2570.000000	99.536298
2569.000000	99.534319
2568.000000	99.531684
2567.000000	99.533480
2566.000000	99.540583
2565.000000	99.548057
2564.000000	99.550958
2563.000000	99.549120
2562.000000	99.545125
2561.000000	99.540917
2560.000000	99.538299
2559.000000	99.539486
2558.000000	99.543954
2557.000000	99.546874
2556.000000	99.544138
2555.000000	99.538070
2554.000000	99.535322
2553.000000	99.539559
2552.000000	99.548419
2551.000000	99.556855
2550.000000	99.561040
2549.000000	99.559292
2548.000000	99.551990
2547.000000	99.541561
2546.000000	99.531324
2545.000000	99.523910
2544.000000	99.521079
2543.000000	99.523928
2542.000000	99.531469
2541.000000	99.539516
2540.000000	99.543144
2539.000000	99.540926
2538.000000	99.535723
2537.000000	99.531381
2536.000000	99.529699
2535.000000	99.530260
2534.000000	99.531601
2533.000000	99.532286
2532.000000	99.532388
2531.000000	99.534416
2530.000000	99.541339
2529.000000	99.552728
2528.000000	99.563495
2527.000000	99.567332
2526.000000	99.561560
2525.000000	99.549048
2524.000000	99.536397
2523.000000	99.530140
2522.000000	99.532880
2521.000000	99.541468
2520.000000	99.548931
2519.000000	99.549281
2518.000000	99.541474
2517.000000	99.529543
2516.000000	99.519475
2515.000000	99.515670
2514.000000	99.518985
2513.000000	99.526792
2512.000000	99.534797
2511.000000	99.539657
2510.000000	99.540324
2509.000000	99.537015
2508.000000	99.529585
2507.000000	99.518229
2506.000000	99.506205
2505.000000	99.500134
2504.000000	99.505375
2503.000000	99.520526
2502.000000	99.537952
2501.000000	99.550583
2500.000000	99.557102
2499.000000	99.559964
2498.000000	99.559975
2497.000000	99.555195
2496.000000	99.544992
2495.000000	99.532917
2494.000000	99.524550
2493.000000	99.523140
2492.000000	99.527588
2491.000000	99.533821
2490.000000	99.537857
2489.000000	99.538723
2488.000000	99.538880
2487.000000	99.541082
2486.000000	99.544753
2485.000000	99.546512
2484.000000	99.544741
2483.000000	99.542263
2482.000000	99.543498
2481.000000	99.550034
2480.000000	99.559833
2479.000000	99.569877
2478.000000	99.578181
2477.000000	99.583775
2476.000000	99.586415
2475.000000	99.586602
2474.000000	99.584992
2473.000000	99.581674
2472.000000	99.576780
2471.000000	99.571492
2470.000000	99.567311
2469.000000	99.564283
2468.000000	99.561369
2467.000000	99.559070
2466.000000	99.560186
2465.000000	99.566489
2464.000000	99.575402
2463.000000	99.581901
2462.000000	99.583746
2461.000000	99.583062
2460.000000	99.582121
2459.000000	99.579575
2458.000000	99.572907
2457.000000	99.563641
2456.000000	99.557487
2455.000000	99.558450
2454.000000	99.564371
2453.000000	99.569305
2452.000000	99.569358
2451.000000	99.565358
2450.000000	99.560943
2449.000000	99.559407
2448.000000	99.561820
2447.000000	99.566556
2446.000000	99.570506
2445.000000	99.571799
2444.000000	99.571725
2443.000000	99.573510
2442.000000	99.578973
2441.000000	99.586585
2440.000000	99.592629
2439.000000	99.594019
2438.000000	99.590620
2437.000000	99.585696
2436.000000	99.583798
2435.000000	99.587225
2434.000000	99.594245
2433.000000	99.600925
2432.000000	99.604522
2431.000000	99.605007
2430.000000	99.604032
2429.000000	99.603285
2428.000000	99.603455
2427.000000	99.603802
2426.000000	99.602777
2425.000000	99.599754
2424.000000	99.596113
2423.000000	99.593877
2422.000000	99.593243
2421.000000	99.592268
2420.000000	99.589261
2419.000000	99.584936
2418.000000	99.581656
2417.000000	99.580639
2416.000000	99.580502
2415.000000	99.579215
2414.000000	99.577301
2413.000000	99.577880
2412.000000	99.582531
2411.000000	99.588178
2410.000000	99.590030
2409.000000	99.587439
2408.000000	99.584804
2407.000000	99.586109
2406.000000	99.590533
2405.000000	99.594318
2404.000000	99.594900
2403.000000	99.591969
2402.000000	99.586600
2401.000000	99.581462
2400.000000	99.580225
2399.000000	99.584055
2398.000000	99.589320
2397.000000	99.591036
2396.000000	99.588231
2395.000000	99.584023
2394.000000	99.581089
2393.000000	99.579732
2392.000000	99.580366
2391.000000	99.584881
2390.000000	99.593811
2389.000000	99.603735
2388.000000	99.609472
2387.000000	99.608307
2386.000000	99.601833
2385.000000	99.593994
2384.000000	99.588127
2383.000000	99.585818
2382.000000	99.587102
2381.000000	99.591540
2380.000000	99.597931
2379.000000	99.603243
2378.000000	99.603634
2377.000000	99.597631
2376.000000	99.587878
2375.000000	99.578842
2374.000000	99.574169
2373.000000	99.576261
2372.000000	99.585843
2371.000000	99.599407
2370.000000	99.609651
2369.000000	99.611424
2368.000000	99.605082
2367.000000	99.594268
2366.000000	99.583302
2365.000000	99.576977
2364.000000	99.577155
2363.000000	99.576277
2362.000000	99.563757
2361.000000	99.543025
2360.000000	99.530942
2359.000000	99.541242
2358.000000	99.569285
2357.000000	99.595827
2356.000000	99.603837
2355.000000	99.588167
2354.000000	99.563143
2353.000000	99.551318
2352.000000	99.560078
2351.000000	99.575061
2350.000000	99.578454
2349.000000	99.567878
2348.000000	99.553228
2347.000000	99.547614
2346.000000	99.553609
2345.000000	99.557754
2344.000000	99.548249
2343.000000	99.529232
2342.000000	99.516632
2341.000000	99.518015
2340.000000	99.525478
2339.000000	99.529134
2338.000000	99.529208
2337.000000	99.531385
2336.000000	99.537260
2335.000000	99.544820
2334.000000	99.554404
2333.000000	99.566605
2332.000000	99.575866
2331.000000	99.575203
2330.000000	99.563428
2329.000000	99.548374
2328.000000	99.534555
2327.000000	99.520484
2326.000000	99.504310
2325.000000	99.488853
2324.000000	99.481646
2323.000000	99.485651
2322.000000	99.496434
2321.000000	99.503687
2320.000000	99.501118
2319.000000	99.491890
2318.000000	99.483317
2317.000000	99.480366
2316.000000	99.483122
2315.000000	99.491198
2314.000000	99.503404
2313.000000	99.516389
2312.000000	99.524990
2311.000000	99.526919
2310.000000	99.523754
2309.000000	99.517865
2308.000000	99.510396
2307.000000	99.502864
2306.000000	99.498730
2305.000000	99.500210
2304.000000	99.505750
2303.000000	99.510966
2302.000000	99.513608
2301.000000	99.516295
2300.000000	99.523673
2299.000000	99.536745
2298.000000	99.549064
2297.000000	99.551388
2296.000000	99.539584
2295.000000	99.519312
2294.000000	99.501480
2293.000000	99.494402
2292.000000	99.499816
2291.000000	99.513789
2290.000000	99.529438
2289.000000	99.538912
2288.000000	99.536896
2287.000000	99.523815
2286.000000	99.506592
2285.000000	99.494792
2284.000000	99.495119
2283.000000	99.506845
2282.000000	99.522386
2281.000000	99.533457
2280.000000	99.538535
2279.000000	99.542862
2278.000000	99.549906
2277.000000	99.554789
2276.000000	99.548670
2275.000000	99.529778
2274.000000	99.507571
2273.000000	99.495987
2272.000000	99.502962
2271.000000	99.525722
2270.000000	99.553551
2269.000000	99.574483
2268.000000	99.581928
2267.000000	99.577565
2266.000000	99.568557
2265.000000	99.561932
2264.000000	99.561212
2263.000000	99.567226
2262.000000	99.579778
2261.000000	99.596598
2260.000000	99.611480
2259.000000	99.615811
2258.000000	99.604891
2257.000000	99.583105
2256.000000	99.561563
2255.000000	99.549134
2254.000000	99.546559
2253.000000	99.550038
2252.000000	99.557714
2251.000000	99.570235
2250.000000	99.586614
2249.000000	99.603347
2248.000000	99.617615
2247.000000	99.628188
2246.000000	99.633095
2245.000000	99.630180
2244.000000	99.621217
2243.000000	99.612246
2242.000000	99.608026
2241.000000	99.607844
2240.000000	99.607076
2239.000000	99.600751
2238.000000	99.586077
2237.000000	99.565517
2236.000000	99.548206
2235.000000	99.544013
2234.000000	99.554095
2233.000000	99.570102
2232.000000	99.583554
2231.000000	99.591829
2230.000000	99.593218
2229.000000	99.582530
2228.000000	99.558178
2227.000000	99.531340
2226.000000	99.521812
2225.000000	99.542256
2224.000000	99.586499
2223.000000	99.632434
2222.000000	99.655785
2221.000000	99.644687
2220.000000	99.605904
2219.000000	99.557938
2218.000000	99.518241
2217.000000	99.497596
2216.000000	99.502458
2215.000000	99.534596
2214.000000	99.585331
2213.000000	99.635562
2212.000000	99.667996
2211.000000	99.678767
2210.000000	99.674542
2209.000000	99.662266
2208.000000	99.645816
2207.000000	99.628461
2206.000000	99.612860
2205.000000	99.599484
2204.000000	99.588605
2203.000000	99.582519
2202.000000	99.582694
2201.000000	99.586512
2200.000000	99.590325
2199.000000	99.593908
2198.000000	99.597855
2197.000000	99.598142
2196.000000	99.588602
2195.000000	99.569773
2194.000000	99.552109
2193.000000	99.548921
2192.000000	99.565282
2191.000000	99.591412
2190.000000	99.606308
2189.000000	99.592980
2188.000000	99.556146
2187.000000	99.522338
2186.000000	99.516618
2185.000000	99.539303
2184.000000	99.568425
2183.000000	99.584992
2182.000000	99.591743
2181.000000	99.606536
2180.000000	99.641691
2179.000000	99.690745
2178.000000	99.731820
2177.000000	99.742980
2176.000000	99.719994
2175.000000	99.682235
2174.000000	99.658514
2173.000000	99.664545
2172.000000	99.692713
2171.000000	99.721140
2170.000000	99.730305
2169.000000	99.714148
2168.000000	99.680505
2167.000000	99.641557
2166.000000	99.603595
2165.000000	99.567008
2164.000000	99.535712
2163.000000	99.523181
2162.000000	99.546166
2161.000000	99.612280
2160.000000	99.711589
2159.000000	99.816188
2158.000000	99.889296
2157.000000	99.906953
2156.000000	99.877645
2155.000000	99.834078
2154.000000	99.804432
2153.000000	99.793366
2152.000000	99.787118
2151.000000	99.772585
2150.000000	99.749279
2149.000000	99.725493
2148.000000	99.708529
2147.000000	99.701098
2146.000000	99.704689
2145.000000	99.722428
2144.000000	99.756430
2143.000000	99.802048
2142.000000	99.845328
2141.000000	99.868860
2140.000000	99.864819
2139.000000	99.843381
2138.000000	99.824788
2137.000000	99.820650
2136.000000	99.823449
2135.000000	99.817301
2134.000000	99.798160
2133.000000	99.777528
2132.000000	99.765551
2131.000000	99.757919
2130.000000	99.744708
2129.000000	99.726705
2128.000000	99.714488
2127.000000	99.712184
2126.000000	99.710659
2125.000000	99.700531
2124.000000	99.685511
2123.000000	99.676845
2122.000000	99.678126
2121.000000	99.681690
2120.000000	99.678914
2119.000000	99.668421
2118.000000	99.653843
2117.000000	99.639207
2116.000000	99.628665
2115.000000	99.626624
2114.000000	99.634111
2113.000000	99.645381
2112.000000	99.650539
2111.000000	99.643065
2110.000000	99.625524
2109.000000	99.608503
2108.000000	99.603052
2107.000000	99.612409
2106.000000	99.631176
2105.000000	99.652466
2104.000000	99.673740
2103.000000	99.694269
2102.000000	99.709365
2101.000000	99.711747
2100.000000	99.699318
2099.000000	99.678678
2098.000000	99.660593
2097.000000	99.653919
2096.000000	99.662129
2095.000000	99.680689
2094.000000	99.696684
2093.000000	99.695974
2092.000000	99.675762
2091.000000	99.649516
2090.000000	99.636442
2089.000000	99.643616
2088.000000	99.657902
2087.000000	99.658183
2086.000000	99.637078
2085.000000	99.609304
2084.000000	99.596210
2083.000000	99.602734
2082.000000	99.614321
2081.000000	99.616840
2080.000000	99.613262
2079.000000	99.617036
2078.000000	99.633910
2077.000000	99.656538
2076.000000	99.674123
2075.000000	99.680393
2074.000000	99.673371
2073.000000	99.655371
2072.000000	99.634905
2071.000000	99.622306
2070.000000	99.621116
2069.000000	99.626908
2068.000000	99.634760
2067.000000	99.643901
2066.000000	99.654153
2065.000000	99.662300
2064.000000	99.664554
2063.000000	99.660322
2062.000000	99.651956
2061.000000	99.642530
2060.000000	99.633326
2059.000000	99.621323
2058.000000	99.601704
2057.000000	99.576502
2056.000000	99.557560
2055.000000	99.554460
2054.000000	99.560485
2053.000000	99.557934
2052.000000	99.538999
2051.000000	99.516065
2050.000000	99.510531
2049.000000	99.534198
2048.000000	99.579165
2047.000000	99.623021
2046.000000	99.644282
2045.000000	99.635964
2044.000000	99.607955
2043.000000	99.576395
2042.000000	99.552251
2041.000000	99.541017
2040.000000	99.544710
2039.000000	99.555651
2038.000000	99.554413
2037.000000	99.527851
2036.000000	99.492311
2035.000000	99.486047
2034.000000	99.530724
2033.000000	99.606662
2032.000000	99.670563
2031.000000	99.694132
2030.000000	99.682411
2029.000000	99.664089
2028.000000	99.668677
2027.000000	99.702687
2026.000000	99.743690
2025.000000	99.761923
2024.000000	99.749323
2023.000000	99.723258
2022.000000	99.704870
2021.000000	99.703476
2020.000000	99.718494
2019.000000	99.744681
2018.000000	99.773119
2017.000000	99.794526
2016.000000	99.804894
2015.000000	99.803321
2014.000000	99.786631
2013.000000	99.754740
2012.000000	99.718707
2011.000000	99.694330
2010.000000	99.690063
2009.000000	99.707017
2008.000000	99.743508
2007.000000	99.790415
2006.000000	99.828635
2005.000000	99.843533
2004.000000	99.838266
2003.000000	99.822834
2002.000000	99.798507
2001.000000	99.764714
2000.000000	99.730889
1999.000000	99.706044
1998.000000	99.684210
1997.000000	99.657693
1996.000000	99.638877
1995.000000	99.648371
1994.000000	99.682940
1993.000000	99.713434
1992.000000	99.719970
1991.000000	99.713197
1990.000000	99.710407
1989.000000	99.711439
1988.000000	99.710464
1987.000000	99.710859
1986.000000	99.714570
1985.000000	99.710870
1984.000000	99.689656
1983.000000	99.656678
1982.000000	99.624878
1981.000000	99.600608
1980.000000	99.589705
1979.000000	99.606906
1978.000000	99.661496
1977.000000	99.734443
1976.000000	99.788665
1975.000000	99.805107
1974.000000	99.794127
1973.000000	99.777557
1972.000000	99.772729
1971.000000	99.786530
1970.000000	99.813663
1969.000000	99.840037
1968.000000	99.853023
1967.000000	99.850584
1966.000000	99.840154
1965.000000	99.831585
1964.000000	99.830710
1963.000000	99.832869
1962.000000	99.821744
1961.000000	99.783140
1960.000000	99.723543
1959.000000	99.667639
1958.000000	99.636431
1957.000000	99.634452
1956.000000	99.655284
1955.000000	99.689749
1954.000000	99.726979
1953.000000	99.755445
1952.000000	99.768024
1951.000000	99.764418
1950.000000	99.749925
1949.000000	99.735748
1948.000000	99.736245
1947.000000	99.756134
1946.000000	99.781107
1945.000000	99.790610
1944.000000	99.780718
1943.000000	99.766719
1942.000000	99.760974
1941.000000	99.759238
1940.000000	99.755556
1939.000000	99.755410
1938.000000	99.765487
1937.000000	99.781504
1936.000000	99.793423
1935.000000	99.797824
1934.000000	99.797927
1933.000000	99.794812
1932.000000	99.785660
1931.000000	99.769950
1930.000000	99.753190
1929.000000	99.744441
1928.000000	99.751441
1927.000000	99.775056
1926.000000	99.806191
1925.000000	99.829563
1924.000000	99.833787
1923.000000	99.820132
1922.000000	99.800026
1921.000000	99.783593
1920.000000	99.773066
1919.000000	99.765148
1918.000000	99.755970
1917.000000	99.744319
1916.000000	99.731573
1915.000000	99.719174
1914.000000	99.706902
1913.000000	99.694769
1912.000000	99.685309
1911.000000	99.681740
1910.000000	99.684448
1909.000000	99.691283
1908.000000	99.700636
1907.000000	99.710861
1906.000000	99.717185
1905.000000	99.714260
1904.000000	99.704041
1903.000000	99.696800
1902.000000	99.700830
1901.000000	99.714148
1900.000000	99.728563
1899.000000	99.738250
1898.000000	99.741555
1897.000000	99.738394
1896.000000	99.730844
1895.000000	99.725037
1894.000000	99.727315
1893.000000	99.737549
1892.000000	99.748737
1891.000000	99.752458
1890.000000	99.745360
1889.000000	99.733184
1888.000000	99.725311
1887.000000	99.724550
1886.000000	99.725664
1885.000000	99.722770
1884.000000	99.716558
1883.000000	99.713155
1882.000000	99.716383
1881.000000	99.724019
1880.000000	99.731116
1879.000000	99.734281
1878.000000	99.733773
1877.000000	99.734089
1876.000000	99.740560
1875.000000	99.752407
1874.000000	99.761332
1873.000000	99.760741
1872.000000	99.754474
1871.000000	99.751555
1870.000000	99.753991
1869.000000	99.755053
1868.000000	99.750656
1867.000000	99.745563
1866.000000	99.745066
1865.000000	99.749080
1864.000000	99.755758
1863.000000	99.763656
1862.000000	99.769024
1861.000000	99.766375
1860.000000	99.755175
1859.000000	99.741922
1858.000000	99.733040
1857.000000	99.729714
1856.000000	99.731143
1855.000000	99.737517
1854.000000	99.746602
1853.000000	99.752090
1852.000000	99.750415
1851.000000	99.745776
1850.000000	99.744983
1849.000000	99.750389
1848.000000	99.759183
1847.000000	99.767307
1846.000000	99.771348
1845.000000	99.769498
1844.000000	99.765525
1843.000000	99.765588
1842.000000	99.769087
1841.000000	99.770965
1840.000000	99.768874
1839.000000	99.763440
1838.000000	99.755673
1837.000000	99.746739
1836.000000	99.740154
1835.000000	99.740251
1834.000000	99.746912
1833.000000	99.755775
1832.000000	99.763420
1831.000000	99.768653
1830.000000	99.770780
1829.000000	99.768677
1828.000000	99.762651
1827.000000	99.755579
1826.000000	99.749339
1825.000000	99.744515
1824.000000	99.742771
1823.000000	99.745156
1822.000000	99.750355
1821.000000	99.755922
1820.000000	99.760769
1819.000000	99.765252
1818.000000	99.769052
1817.000000	99.771344
1816.000000	99.773542
1815.000000	99.778540
1814.000000	99.785715
1813.000000	99.790043
1812.000000	99.787228
1811.000000	99.778146
1810.000000	99.766812
1809.000000	99.755933
1808.000000	99.747623
1807.000000	99.744501
1806.000000	99.745874
1805.000000	99.745822
1804.000000	99.739065
1803.000000	99.727001
1802.000000	99.715346
1801.000000	99.707879
1800.000000	99.703965
1799.000000	99.702168
1798.000000	99.703064
1797.000000	99.706557
1796.000000	99.710799
1795.000000	99.714550
1794.000000	99.717204
1793.000000	99.718151
1792.000000	99.718827
1791.000000	99.721166
1790.000000	99.723810
1789.000000	99.724264
1788.000000	99.722480
1787.000000	99.720994
1786.000000	99.722896
1785.000000	99.728970
1784.000000	99.737387
1783.000000	99.745663
1782.000000	99.750969
1781.000000	99.750893
1780.000000	99.746550
1779.000000	99.742802
1778.000000	99.743543
1777.000000	99.748571
1776.000000	99.755837
1775.000000	99.763976
1774.000000	99.770707
1773.000000	99.772527
1772.000000	99.771314
1771.000000	99.772036
1770.000000	99.773883
1769.000000	99.773406
1768.000000	99.769882
1767.000000	99.765523
1766.000000	99.762957
1765.000000	99.763565
1764.000000	99.767912
1763.000000	99.774460
1762.000000	99.778876
1761.000000	99.777749
1760.000000	99.772827
1759.000000	99.768848
1758.000000	99.767559
1757.000000	99.767387
1756.000000	99.767798
1755.000000	99.768531
1754.000000	99.768069
1753.000000	99.765158
1752.000000	99.761048
1751.000000	99.759892
1750.000000	99.762468
1749.000000	99.763405
1748.000000	99.760972
1747.000000	99.759504
1746.000000	99.760680
1745.000000	99.762268
1744.000000	99.763393
1743.000000	99.765279
1742.000000	99.766874
1741.000000	99.764924
1740.000000	99.760623
1739.000000	99.760510
1738.000000	99.764763
1737.000000	99.769032
1736.000000	99.773697
1735.000000	99.784206
1734.000000	99.803101
1733.000000	99.817431
1732.000000	99.817030
1731.000000	99.810948
1730.000000	99.808483
1729.000000	99.809160
1728.000000	99.810118
1727.000000	99.811745
1726.000000	99.815983
1725.000000	99.821121
1724.000000	99.824719
1723.000000	99.828036
1722.000000	99.833544
1721.000000	99.839894
1720.000000	99.844246
1719.000000	99.844163
1718.000000	99.839529
1717.000000	99.831513
1716.000000	99.817995
1715.000000	99.800378
1714.000000	99.782895
1713.000000	99.765122
1712.000000	99.746597
1711.000000	99.730577
1710.000000	99.719628
1709.000000	99.710439
1708.000000	99.696635
1707.000000	99.675061
1706.000000	99.649299
1705.000000	99.626603
1704.000000	99.609253
1703.000000	99.594983
1702.000000	99.578705
1701.000000	99.543327
1700.000000	99.483336
1699.000000	99.423857
1698.000000	99.376683
1697.000000	99.328734
1696.000000	99.275269
1695.000000	99.229678
1694.000000	99.200081
1693.000000	99.176605
1692.000000	99.149402
1691.000000	99.115980
1690.000000	99.078091
1689.000000	99.039160
1688.000000	99.003765
1687.000000	98.974829
1686.000000	98.947897
1685.000000	98.902128
1684.000000	98.835465
1683.000000	98.778484
1682.000000	98.734134
1681.000000	98.685939
1680.000000	98.633726
1679.000000	98.585929
1678.000000	98.544941
1677.000000	98.497080
1676.000000	98.426476
1675.000000	98.340841
1674.000000	98.267911
1673.000000	98.214542
1672.000000	98.164118
1671.000000	98.098347
1670.000000	98.008278
1669.000000	97.906146
1668.000000	97.816334
1667.000000	97.750040
1666.000000	97.699521
1665.000000	97.648606
1664.000000	97.582310
1663.000000	97.500210
1662.000000	97.419764
1661.000000	97.353367
1660.000000	97.299627
1659.000000	97.256765
1658.000000	97.225717
1657.000000	97.204308
1656.000000	97.189214
1655.000000	97.175376
1654.000000	97.139513
1653.000000	97.074162
1652.000000	97.021784
1651.000000	97.003741
1650.000000	97.001694
1649.000000	96.996915
1648.000000	96.974239
1647.000000	96.940370
1646.000000	96.916399
1645.000000	96.905273
1644.000000	96.896036
1643.000000	96.886536
1642.000000	96.878140
1641.000000	96.872509
1640.000000	96.870610
1639.000000	96.873303
1638.000000	96.879085
1637.000000	96.878072
1636.000000	96.859653
1635.000000	96.832719
1634.000000	96.813074
1633.000000	96.803538
1632.000000	96.802343
1631.000000	96.810086
1630.000000	96.826502
1629.000000	96.846840
1628.000000	96.867624
1627.000000	96.891926
1626.000000	96.924344
1625.000000	96.966350
1624.000000	97.018449
1623.000000	97.081417
1622.000000	97.149165
1621.000000	97.211764
1620.000000	97.268216
1619.000000	97.325286
1618.000000	97.390748
1617.000000	97.468568
1616.000000	97.551949
1615.000000	97.627756
1614.000000	97.691992
1613.000000	97.750204
1612.000000	97.808639
1611.000000	97.870368
1610.000000	97.933395
1609.000000	97.993920
1608.000000	98.050047
1607.000000	98.101472
1606.000000	98.148479
1605.000000	98.193218
1604.000000	98.238375
1603.000000	98.282834
1602.000000	98.322355
1601.000000	98.355337
1600.000000	98.384313
1599.000000	98.411324
1598.000000	98.436134
1597.000000	98.459514
1596.000000	98.483482
1595.000000	98.507000
1594.000000	98.525474
1593.000000	98.536093
1592.000000	98.540302
1591.000000	98.540170
1590.000000	98.536217
1589.000000	98.529436
1588.000000	98.520901
1587.000000	98.508335
1586.000000	98.487298
1585.000000	98.457338
1584.000000	98.423590
1583.000000	98.390566
1582.000000	98.358583
1581.000000	98.327494
1580.000000	98.298468
1579.000000	98.270390
1578.000000	98.237416
1577.000000	98.192402
1576.000000	98.141659
1575.000000	98.102547
1574.000000	98.077698
1573.000000	98.058410
1572.000000	98.038641
1571.000000	98.010403
1570.000000	97.966595
1569.000000	97.915609
1568.000000	97.873481
1567.000000	97.840666
1566.000000	97.805711
1565.000000	97.762306
1564.000000	97.716324
1563.000000	97.682042
1562.000000	97.663930
1561.000000	97.657410
1560.000000	97.618424
1559.000000	97.509066
1558.000000	97.406306
1557.000000	97.354444
1556.000000	97.316551
1555.000000	97.278798
1554.000000	97.241405
1553.000000	97.212050
1552.000000	97.187082
1551.000000	97.158241
1550.000000	97.124504
1549.000000	97.095068
1548.000000	97.075946
1547.000000	97.061915
1546.000000	97.042680
1545.000000	97.013403
1544.000000	96.981960
1543.000000	96.958979
1542.000000	96.943145
1541.000000	96.925350
1540.000000	96.914840
1539.000000	96.927770
1538.000000	96.954723
1537.000000	96.984293
1536.000000	97.016868
1535.000000	97.054762
1534.000000	97.100264
1533.000000	97.149498
1532.000000	97.194319
1531.000000	97.233278
1530.000000	97.272135
1529.000000	97.311103
1528.000000	97.345304
1527.000000	97.372331
1526.000000	97.394819
1525.000000	97.416512
1524.000000	97.439679
1523.000000	97.464720
1522.000000	97.490035
1521.000000	97.513619
1520.000000	97.534286
1519.000000	97.553362
1518.000000	97.571231
1517.000000	97.586910
1516.000000	97.601441
1515.000000	97.614365
1514.000000	97.623879
1513.000000	97.631333
1512.000000	97.642165
1511.000000	97.662287
1510.000000	97.690668
1509.000000	97.719602
1508.000000	97.737756
1507.000000	97.744888
1506.000000	97.747788
1505.000000	97.743379
1504.000000	97.737286
1503.000000	97.736624
1502.000000	97.739319
1501.000000	97.743087
1500.000000	97.745254
1499.000000	97.744656
1498.000000	97.737822
1497.000000	97.723499
1496.000000	97.709439
1495.000000	97.704737
1494.000000	97.707306
1493.000000	97.708915
1492.000000	97.704485
1491.000000	97.692655
1490.000000	97.674687
1489.000000	97.653331
1488.000000	97.630914
1487.000000	97.610116
1486.000000	97.591282
1485.000000	97.570819
1484.000000	97.547524
1483.000000	97.522485
1482.000000	97.494505
1481.000000	97.462185
1480.000000	97.428629
1479.000000	97.398032
1478.000000	97.368059
1477.000000	97.332231
1476.000000	97.289845
1475.000000	97.246275
1474.000000	97.199146
1473.000000	97.139785
1472.000000	97.075501
1471.000000	97.022160
1470.000000	96.980522
1469.000000	96.944033
1468.000000	96.911153
1467.000000	96.882314
1466.000000	96.852771
1465.000000	96.814912
1464.000000	96.771842
1463.000000	96.734677
1462.000000	96.707794
1461.000000	96.687762
1460.000000	96.667678
1459.000000	96.636692
1458.000000	96.576161
1457.000000	96.490482
1456.000000	96.422016
1455.000000	96.386243
1454.000000	96.361826
1453.000000	96.336315
1452.000000	96.312731
1451.000000	96.296265
1450.000000	96.281620
1449.000000	96.260761
1448.000000	96.236649
1447.000000	96.219279
1446.000000	96.209062
1445.000000	96.199482
1444.000000	96.189847
1443.000000	96.184144
1442.000000	96.183261
1441.000000	96.183938
1440.000000	96.184069
1439.000000	96.183631
1438.000000	96.180691
1437.000000	96.174134
1436.000000	96.170502
1435.000000	96.172915
1434.000000	96.174555
1433.000000	96.171131
1432.000000	96.164464
1431.000000	96.156967
1430.000000	96.147187
1429.000000	96.134416
1428.000000	96.123802
1427.000000	96.119199
1426.000000	96.115641
1425.000000	96.105272
1424.000000	96.089924
1423.000000	96.078615
1422.000000	96.072496
1421.000000	96.063900
1420.000000	96.046267
1419.000000	96.024510
1418.000000	96.011036
1417.000000	96.007360
1416.000000	96.007512
1415.000000	96.008316
1414.000000	96.007613
1413.000000	96.005653
1412.000000	96.006577
1411.000000	96.013463
1410.000000	96.022641
1409.000000	96.029377
1408.000000	96.035654
1407.000000	96.046497
1406.000000	96.061460
1405.000000	96.075650
1404.000000	96.088149
1403.000000	96.101662
1402.000000	96.116623
1401.000000	96.131269
1400.000000	96.145819
1399.000000	96.163220
1398.000000	96.183979
1397.000000	96.205482
1396.000000	96.227212
1395.000000	96.250378
1394.000000	96.273834
1393.000000	96.297309
1392.000000	96.324476
1391.000000	96.356985
1390.000000	96.391167
1389.000000	96.423145
1388.000000	96.454695
1387.000000	96.490496
1386.000000	96.529055
1385.000000	96.564604
1384.000000	96.596104
1383.000000	96.626043
1382.000000	96.655670
1381.000000	96.685327
1380.000000	96.716541
1379.000000	96.750870
1378.000000	96.787144
1377.000000	96.823005
1376.000000	96.858147
1375.000000	96.893998
1374.000000	96.931001
1373.000000	96.967892
1372.000000	97.003970
1371.000000	97.040387
1370.000000	97.078484
1369.000000	97.119339
1368.000000	97.164013
1367.000000	97.211332
1366.000000	97.258428
1365.000000	97.303958
1364.000000	97.348359
1363.000000	97.391632
1362.000000	97.431930
1361.000000	97.466929
1360.000000	97.496677
1359.000000	97.523184
1358.000000	97.548656
1357.000000	97.574950
1356.000000	97.601811
1355.000000	97.625530
1354.000000	97.642209
1353.000000	97.652323
1352.000000	97.659166
1351.000000	97.663855
1350.000000	97.664611
1349.000000	97.660382
1348.000000	97.652772
1347.000000	97.643805
1346.000000	97.634806
1345.000000	97.627558
1344.000000	97.623664
1343.000000	97.621766
1342.000000	97.617984
1341.000000	97.610010
1340.000000	97.599987
1339.000000	97.592184
1338.000000	97.588791
1337.000000	97.590627
1336.000000	97.598948
1335.000000	97.613315
1334.000000	97.630777
1333.000000	97.649353
1332.000000	97.670260
1331.000000	97.695252
1330.000000	97.723304
1329.000000	97.751407
1328.000000	97.777259
1327.000000	97.799689
1326.000000	97.817729
1325.000000	97.831200
1324.000000	97.841684
1323.000000	97.851185
1322.000000	97.860418
1321.000000	97.869072
1320.000000	97.877085
1319.000000	97.885059
1318.000000	97.893850
1317.000000	97.904092
1316.000000	97.915674
1315.000000	97.927825
1314.000000	97.940691
1313.000000	97.956644
1312.000000	97.978047
1311.000000	98.003491
1310.000000	98.028115
1309.000000	98.048083
1308.000000	98.063545
1307.000000	98.077479
1306.000000	98.092800
1305.000000	98.110452
1304.000000	98.128910
1303.000000	98.144724
1302.000000	98.155075
1301.000000	98.160768
1300.000000	98.166051
1299.000000	98.175034
1298.000000	98.188508
1297.000000	98.203643
1296.000000	98.215858
1295.000000	98.221610
1294.000000	98.220909
1293.000000	98.216864
1292.000000	98.211816
1291.000000	98.204549
1290.000000	98.192659
1289.000000	98.177250
1288.000000	98.163126
1287.000000	98.153976
1286.000000	98.149000
1285.000000	98.145047
1284.000000	98.140518
1283.000000	98.135999
1282.000000	98.132369
1281.000000	98.129550
1280.000000	98.127287
1279.000000	98.126574
1278.000000	98.129774
1277.000000	98.138668
1276.000000	98.151863
1275.000000	98.165083
1274.000000	98.174932
1273.000000	98.181823
1272.000000	98.188257
1271.000000	98.195043
1270.000000	98.200726
1269.000000	98.203932
1268.000000	98.204086
1267.000000	98.200283
1266.000000	98.192290
1265.000000	98.182864
1264.000000	98.176463
1263.000000	98.174502
1262.000000	98.173351
1261.000000	98.168124
1260.000000	98.157139
1259.000000	98.142085
1258.000000	98.125430
1257.000000	98.108621
1256.000000	98.091633
1255.000000	98.073082
1254.000000	98.051557
1253.000000	98.027715
1252.000000	98.004220
1251.000000	97.983093
1250.000000	97.963623
1249.000000	97.943147
1248.000000	97.919213
1247.000000	97.890930
1246.000000	97.859683
1245.000000	97.828991
1244.000000	97.802011
1243.000000	97.778387
1242.000000	97.755250
1241.000000	97.732175
1240.000000	97.712926
1239.000000	97.700717
1238.000000	97.693533
1237.000000	97.686838
1236.000000	97.679485
1235.000000	97.674621
1234.000000	97.676021
1233.000000	97.685501
1232.000000	97.703155
1231.000000	97.727197
1230.000000	97.754318
1229.000000	97.783206
1228.000000	97.816825
1227.000000	97.858926
1226.000000	97.908495
1225.000000	97.959896
1224.000000	98.008186
1223.000000	98.051813
1222.000000	98.090632
1221.000000	98.124373
1220.000000	98.153991
1219.000000	98.182292
1218.000000	98.211665
1217.000000	98.241442
1216.000000	98.268031
1215.000000	98.287531
1214.000000	98.298315
1213.000000	98.302186
1212.000000	98.302926
1211.000000	98.302996
1210.000000	98.301466
1209.000000	98.295209
1208.000000	98.282298
1207.000000	98.263831
1206.000000	98.243080
1205.000000	98.223935
1204.000000	98.210210
1203.000000	98.205064
1202.000000	98.209798
1201.000000	98.223344
1200.000000	98.243028
1199.000000	98.265869
1198.000000	98.289374
1197.000000	98.312323
1196.000000	98.335371
1195.000000	98.360107
1194.000000	98.387154
1193.000000	98.415111
1192.000000	98.441655
1191.000000	98.465797
1190.000000	98.488863
1189.000000	98.512831
1188.000000	98.537495
1187.000000	98.559764
1186.000000	98.576279
1185.000000	98.586613
1184.000000	98.593278
1183.000000	98.599328
1182.000000	98.606855
1181.000000	98.616941
1180.000000	98.629345
1179.000000	98.641612
1178.000000	98.650216
1177.000000	98.654026
1176.000000	98.655855
1175.000000	98.659366
1174.000000	98.664566
1173.000000	98.667790
1172.000000	98.666886
1171.000000	98.665072
1170.000000	98.667953
1169.000000	98.676785
1168.000000	98.686188
1167.000000	98.689449
1166.000000	98.685341
1165.000000	98.678788
1164.000000	98.675301
1163.000000	98.676179
1162.000000	98.679318
1161.000000	98.683457
1160.000000	98.690261
1159.000000	98.702030
1158.000000	98.718031
1157.000000	98.733880
1156.000000	98.745249
1155.000000	98.752137
1154.000000	98.758947
1153.000000	98.770149
1152.000000	98.786415
1151.000000	98.805448
1150.000000	98.825307
1149.000000	98.845458
1148.000000	98.865201
1147.000000	98.883185
1146.000000	98.898906
1145.000000	98.912958
1144.000000	98.925220
1143.000000	98.934337
1142.000000	98.940041
1141.000000	98.944591
1140.000000	98.950699
1139.000000	98.958713
1138.000000	98.966553
1137.000000	98.972039
1136.000000	98.974958
1135.000000	98.977685
1134.000000	98.983927
1133.000000	98.995613
1132.000000	99.010463
1131.000000	99.023499
1130.000000	99.031486
1129.000000	99.035198
1128.000000	99.037274
1127.000000	99.039322
1126.000000	99.041558
1125.000000	99.043677
1124.000000	99.045309
1123.000000	99.046767
1122.000000	99.049895
1121.000000	99.056765
1120.000000	99.066576
1119.000000	99.074967
1118.000000	99.077082
1117.000000	99.070917
1116.000000	99.058034
1115.000000	99.042761
1114.000000	99.030439
1113.000000	99.023638
1112.000000	99.019313
1111.000000	99.011975
1110.000000	99.000538
1109.000000	98.989746
1108.000000	98.983902
1107.000000	98.982089
1106.000000	98.981497
1105.000000	98.982510
1104.000000	98.987024
1103.000000	98.993033
1102.000000	98.994197
1101.000000	98.985461
1100.000000	98.967720
1099.000000	98.947403
1098.000000	98.932398
1097.000000	98.925908
1096.000000	98.923155
1095.000000	98.915713
1094.000000	98.901221
1093.000000	98.886535
1092.000000	98.878574
1091.000000	98.874451
1090.000000	98.864206
1089.000000	98.842127
1088.000000	98.811075
1087.000000	98.776496
1086.000000	98.741587
1085.000000	98.709583
1084.000000	98.685877
1083.000000	98.673802
1082.000000	98.669927
1081.000000	98.666678
1080.000000	98.659849
1079.000000	98.652108
1078.000000	98.649622
1077.000000	98.656515
1076.000000	98.671771
1075.000000	98.690796
1074.000000	98.710166
1073.000000	98.730238
1072.000000	98.751530
1071.000000	98.769487
1070.000000	98.776725
1069.000000	98.771819
1068.000000	98.762400
1067.000000	98.757228
1066.000000	98.757662
1065.000000	98.759316
1064.000000	98.759749
1063.000000	98.760572
1062.000000	98.762991
1061.000000	98.765541
1060.000000	98.767047
1059.000000	98.768653
1058.000000	98.771502
1057.000000	98.774531
1056.000000	98.776027
1055.000000	98.776074
1054.000000	98.776326
1053.000000	98.778412
1052.000000	98.783446
1051.000000	98.791509
1050.000000	98.800123
1049.000000	98.804810
1048.000000	98.803607
1047.000000	98.800519
1046.000000	98.801824
1045.000000	98.808279
1044.000000	98.813144
1043.000000	98.809389
1042.000000	98.797681
1041.000000	98.785370
1040.000000	98.777766
1039.000000	98.772432
1038.000000	98.762667
1037.000000	98.745036
1036.000000	98.722421
1035.000000	98.700774
1034.000000	98.684851
1033.000000	98.676703
1032.000000	98.676288
1031.000000	98.681855
1030.000000	98.690159
1029.000000	98.698308
1028.000000	98.706124
1027.000000	98.716134
1026.000000	98.730216
1025.000000	98.746356
1024.000000	98.760017
1023.000000	98.769416
1022.000000	98.778539
1021.000000	98.793094
1020.000000	98.813504
1019.000000	98.833549
1018.000000	98.846667
1017.000000	98.852139
1016.000000	98.854016
1015.000000	98.856029
1014.000000	98.859756
1013.000000	98.866518
1012.000000	98.877900
1011.000000	98.893726
1010.000000	98.911773
1009.000000	98.930695
1008.000000	98.951455
1007.000000	98.974354
1006.000000	98.996213
1005.000000	99.012729
1004.000000	99.023528
1003.000000	99.033092
1002.000000	99.046039
1001.000000	99.062794
1000.000000	99.080734
999.000000	99.098601
998.000000	99.118042
997.000000	99.140534
996.000000	99.164291
995.000000	99.185243
994.000000	99.200718
993.000000	99.211480
992.000000	99.220642
991.000000	99.231568
990.000000	99.246278
989.000000	99.264429
988.000000	99.283661
987.000000	99.301789
986.000000	99.318541
985.000000	99.334252
984.000000	99.347188
983.000000	99.353976
982.000000	99.353247
981.000000	99.347370
980.000000	99.340142
979.000000	99.333886
978.000000	99.328971
977.000000	99.324627
976.000000	99.319683
975.000000	99.314119
974.000000	99.310494
973.000000	99.312272
972.000000	99.319764
971.000000	99.329163
970.000000	99.336809
969.000000	99.343117
968.000000	99.351053
967.000000	99.362070
966.000000	99.375306
965.000000	99.389782
964.000000	99.405017
963.000000	99.419381
962.000000	99.429941
961.000000	99.435182
960.000000	99.437475
959.000000	99.442213
958.000000	99.454080
957.000000	99.473159
956.000000	99.494165
955.000000	99.510276
954.000000	99.518495
953.000000	99.521076
952.000000	99.521746
951.000000	99.521816
950.000000	99.520842
949.000000	99.519672
948.000000	99.521010
947.000000	99.526940
946.000000	99.536558
945.000000	99.545953
944.000000	99.550332
943.000000	99.547312
942.000000	99.539518
941.000000	99.533290
940.000000	99.533428
939.000000	99.539089
938.000000	99.545517
937.000000	99.549917
936.000000	99.554589
935.000000	99.563584
934.000000	99.576814
933.000000	99.588524
932.000000	99.592627
931.000000	99.589453
930.000000	99.586105
929.000000	99.589565
928.000000	99.600263
927.000000	99.613072
926.000000	99.623096
925.000000	99.628631
924.000000	99.630146
923.000000	99.629703
922.000000	99.631445
921.000000	99.639142
920.000000	99.651798
919.000000	99.663910
918.000000	99.671631
917.000000	99.676843
916.000000	99.683748
915.000000	99.693658
914.000000	99.704933
913.000000	99.716323
912.000000	99.727555
911.000000	99.737133
910.000000	99.741925
909.000000	99.739839
908.000000	99.732365
907.000000	99.724168
906.000000	99.719996
905.000000	99.721317
904.000000	99.726118
903.000000	99.732668
902.000000	99.742300
901.000000	99.756708
900.000000	99.773617
899.000000	99.788229
898.000000	99.799146
897.000000	99.809208
896.000000	99.819793
895.000000	99.827962
894.000000	99.831234
893.000000	99.831935
892.000000	99.834293
891.000000	99.839737
890.000000	99.846881
889.000000	99.853398
888.000000	99.855494
887.000000	99.848006
886.000000	99.828229
885.000000	99.797595
884.000000	99.756727
883.000000	99.700943
882.000000	99.621795
881.000000	99.510964
880.000000	99.360496
879.000000	99.163904
878.000000	98.922145
877.000000	98.646042
876.000000	98.352015
875.000000	98.061697
874.000000	97.812874
873.000000	97.662768
872.000000	97.664581
871.000000	97.826769
870.000000	98.097540
869.000000	98.397684
868.000000	98.667464
867.000000	98.885139
866.000000	99.053115
865.000000	99.179998
864.000000	99.275005
863.000000	99.348038
862.000000	99.406706
861.000000	99.453540
860.000000	99.488538
859.000000	99.513709
858.000000	99.534046
857.000000	99.553489
856.000000	99.571576
855.000000	99.585880
854.000000	99.597335
853.000000	99.610843
852.000000	99.628620
851.000000	99.644736
850.000000	99.650210
849.000000	99.643879
848.000000	99.635359
847.000000	99.635819
846.000000	99.647838
845.000000	99.665668
844.000000	99.682600
843.000000	99.695834
842.000000	99.706143
841.000000	99.715837
840.000000	99.726852
839.000000	99.738672
838.000000	99.748217
837.000000	99.753471
836.000000	99.756933
835.000000	99.763804
834.000000	99.776493
833.000000	99.792318
832.000000	99.807073
831.000000	99.819320
830.000000	99.830356
829.000000	99.840817
828.000000	99.848617
827.000000	99.850690
826.000000	99.846026
825.000000	99.836113
824.000000	99.822665
823.000000	99.806592
822.000000	99.790171
821.000000	99.779025
820.000000	99.779328
819.000000	99.791846
818.000000	99.809557
817.000000	99.822301
816.000000	99.824421
815.000000	99.818766
814.000000	99.814241
813.000000	99.818425
812.000000	99.830359
811.000000	99.839908
810.000000	99.836570
809.000000	99.821000
808.000000	99.806661
807.000000	99.807848
806.000000	99.825922
805.000000	99.848069
804.000000	99.859062
803.000000	99.853321
802.000000	99.836975
801.000000	99.821322
800.000000	99.814644
799.000000	99.817097
798.000000	99.821114
797.000000	99.817986
796.000000	99.805932
795.000000	99.792074
794.000000	99.785634
793.000000	99.789326
792.000000	99.798259
791.000000	99.806624
790.000000	99.813850
789.000000	99.823161
788.000000	99.834530
787.000000	99.841063
786.000000	99.834642
785.000000	99.815564
784.000000	99.794327
783.000000	99.781978
782.000000	99.779990
781.000000	99.782133
780.000000	99.784966
779.000000	99.791613
778.000000	99.803380
777.000000	99.812277
776.000000	99.807395
775.000000	99.788596
774.000000	99.769541
773.000000	99.765100
772.000000	99.777357
771.000000	99.794765
770.000000	99.803417
769.000000	99.798066
768.000000	99.783770
767.000000	99.769537
766.000000	99.761163
765.000000	99.758879
764.000000	99.760257
763.000000	99.763909
762.000000	99.769785
761.000000	99.776845
760.000000	99.782337
759.000000	99.784139
758.000000	99.783050
757.000000	99.781618
756.000000	99.780923
755.000000	99.779934
754.000000	99.778406
753.000000	99.779063
752.000000	99.784957
751.000000	99.794348
750.000000	99.799996
749.000000	99.795418
748.000000	99.781590
747.000000	99.765970
746.000000	99.755238
745.000000	99.750468
744.000000	99.749140
743.000000	99.749009
742.000000	99.748654
741.000000	99.746642
740.000000	99.742652
739.000000	99.738651
738.000000	99.736597
737.000000	99.735150
736.000000	99.730519
735.000000	99.720417
734.000000	99.705852
733.000000	99.689574
732.000000	99.674610
731.000000	99.663874
730.000000	99.658541
729.000000	99.655733
728.000000	99.651012
727.000000	99.643221
726.000000	99.633535
725.000000	99.621836
724.000000	99.607713
723.000000	99.593243
722.000000	99.579610
721.000000	99.561781
720.000000	99.532575
719.000000	99.492398
718.000000	99.448598
717.000000	99.402669
716.000000	99.344562
715.000000	99.267062
714.000000	99.183517
713.000000	99.123360
712.000000	99.108189
711.000000	99.134959
710.000000	99.182581
709.000000	99.229705
708.000000	99.265243
707.000000	99.287751
706.000000	99.298576
705.000000	99.298887
704.000000	99.292703
703.000000	99.287358
702.000000	99.288795
701.000000	99.296445
700.000000	99.303147
699.000000	99.302359
698.000000	99.292934
697.000000	99.278339
696.000000	99.265289
695.000000	99.261226
694.000000	99.271275
693.000000	99.293149
692.000000	99.315818
691.000000	99.329873
690.000000	99.335474
689.000000	99.338399
688.000000	99.341005
687.000000	99.340116
686.000000	99.334333
685.000000	99.324917
684.000000	99.309261
683.000000	99.283826
682.000000	99.254106
681.000000	99.233193
680.000000	99.226786
679.000000	99.227659
678.000000	99.227063
677.000000	99.220110
676.000000	99.205723
675.000000	99.186859
674.000000	99.171526
673.000000	99.170053
672.000000	99.188337
671.000000	99.228050
670.000000	99.286568
669.000000	99.351906
668.000000	99.376064
667.000000	99.315125
666.000000	99.229524
665.000000	99.163726
664.000000	99.119948
663.000000	99.101989
662.000000	99.104230
661.000000	99.111417
660.000000	99.112375
659.000000	99.109622
658.000000	99.107295
657.000000	99.098911
656.000000	99.082165
655.000000	99.070111
654.000000	99.073329
653.000000	99.083748
652.000000	99.089379
651.000000	99.090616
650.000000	99.093094
649.000000	99.094838
648.000000	99.091883
647.000000	99.086865
646.000000	99.083162
645.000000	99.081336
644.000000	99.083420
643.000000	99.089804
642.000000	99.091652
641.000000	99.077012
640.000000	99.049518
639.000000	99.030005
638.000000	99.031959
637.000000	99.046943
636.000000	99.061084
635.000000	99.071824
634.000000	99.081899
633.000000	99.089800
632.000000	99.094590
631.000000	99.100681
630.000000	99.109012
629.000000	99.111780
628.000000	99.104977
627.000000	99.097819
626.000000	99.099571
625.000000	99.105367
624.000000	99.103255
623.000000	99.089350
622.000000	99.069680
621.000000	99.052233
620.000000	99.043077
619.000000	99.044873
618.000000	99.052861
617.000000	99.056542
616.000000	99.050355
615.000000	99.038773
614.000000	99.028148
613.000000	99.021109
612.000000	99.022307
611.000000	99.038199
610.000000	99.064215
609.000000	99.082463
608.000000	99.080734
607.000000	99.066709
606.000000	99.054757
605.000000	99.049144
604.000000	99.047942
603.000000	99.053627
602.000000	99.069347
601.000000	99.090346
600.000000	99.108766
599.000000	99.121243
598.000000	99.124378
597.000000	99.111268
596.000000	99.083266
595.000000	99.057668
594.000000	99.050573
593.000000	99.056551
592.000000	99.058932
591.000000	99.056326
590.000000	99.062965
589.000000	99.084394
588.000000	99.109419
587.000000	99.125364
586.000000	99.127477
585.000000	99.114922
584.000000	99.090506
583.000000	99.066417
582.000000	99.058736
581.000000	99.072301
580.000000	99.098520
579.000000	99.128577
578.000000	99.157226
577.000000	99.173810
576.000000	99.165191
575.000000	99.134027
574.000000	99.101415
573.000000	99.083097
572.000000	99.075840
571.000000	99.069473
570.000000	99.059967
569.000000	99.046529
568.000000	99.026313
567.000000	98.999440
566.000000	98.971842
565.000000	98.947135
564.000000	98.922876
563.000000	98.900611
562.000000	98.892073
561.000000	98.908258
560.000000	98.945394
559.000000	98.985727
558.000000	99.010080
557.000000	99.009658
556.000000	98.989515
555.000000	98.964209
554.000000	98.947346
553.000000	98.942157
552.000000	98.942733
551.000000	98.941911
550.000000	98.936026
549.000000	98.926343
548.000000	98.922009
547.000000	98.937718
546.000000	98.978750
545.000000	99.028674
544.000000	99.062424
543.000000	99.070336
542.000000	99.061802
541.000000	99.048702
540.000000	99.034380
539.000000	99.018655
538.000000	99.001962
537.000000	98.981372
536.000000	98.952821
535.000000	98.923098
534.000000	98.908538
533.000000	98.914094
532.000000	98.922302
531.000000	98.912561
530.000000	98.886768
529.000000	98.865171
528.000000	98.860358
527.000000	98.867921
526.000000	98.880773
525.000000	98.900566
524.000000	98.926481
523.000000	98.942273
522.000000	98.929803
521.000000	98.896775
520.000000	98.880847
519.000000	98.917041
518.000000	99.001303
517.000000	99.096684
516.000000	99.174889
515.000000	99.231408
514.000000	99.265236
513.000000	99.270340
512.000000	99.253010
511.000000	99.241114
510.000000	99.260953
509.000000	99.309135
508.000000	99.355755
507.000000	99.372939
506.000000	99.353446
505.000000	99.306294
504.000000	99.247462
503.000000	99.202389
502.000000	99.201970
501.000000	99.250628
500.000000	99.309947
499.000000	99.335901
498.000000	99.322100
497.000000	99.302695
496.000000	99.314030
495.000000	99.355236
494.000000	99.394528
493.000000	99.409059
492.000000	99.404736
491.000000	99.396907
490.000000	99.389690
489.000000	99.385295
488.000000	99.391984
487.000000	99.405568
486.000000	99.399813
485.000000	99.361580
484.000000	99.328271
483.000000	99.350924
482.000000	99.418674
481.000000	99.460921
480.000000	99.430760
479.000000	99.355153
478.000000	99.297732
477.000000	99.296092
476.000000	99.344991
475.000000	99.420189
474.000000	99.492169
473.000000	99.527815
472.000000	99.512897
471.000000	99.472193
470.000000	99.439567
469.000000	99.424336
468.000000	99.421716
467.000000	99.431685
466.000000	99.455786
465.000000	99.492255
464.000000	99.540971
463.000000	99.596602
462.000000	99.636762
461.000000	99.642232
460.000000	99.633178
459.000000	99.657700
458.000000	99.730575
457.000000	99.801982
456.000000	99.832025
455.000000	99.846864
454.000000	99.873108
453.000000	99.889137
452.000000	99.862187
451.000000	99.812794
450.000000	99.789902
