PE IR       SUBTECH     SPECTRUM    ASCII       PEDS        4.00        
   -1
AG10-C007_1.ASC
23/09/08
10:28:13.00
23/09/08
11:14:38.00
uco
Sample 007 By uco Date Friday, September 08 2023
450.000000
#HDR
-1
-1
#GR
cm-1
%T
1.0
0.0
4000.000000
-1.000000
3551
8
99.880268
96.305140
#DATA
4000.000000	99.827859
3999.000000	99.827673
3998.000000	99.828681
3997.000000	99.830442
3996.000000	99.832246
3995.000000	99.834931
3994.000000	99.834917
3993.000000	99.834057
3992.000000	99.832499
3991.000000	99.830164
3990.000000	99.826926
3989.000000	99.822833
3988.000000	99.818082
3987.000000	99.812905
3986.000000	99.807531
3985.000000	99.802223
3984.000000	99.797415
3983.000000	99.793858
3982.000000	99.792537
3981.000000	99.794041
3980.000000	99.797793
3979.000000	99.802040
3978.000000	99.804974
3977.000000	99.806030
3976.000000	99.806003
3975.000000	99.805884
3974.000000	99.805805
3973.000000	99.805310
3972.000000	99.804298
3971.000000	99.803177
3970.000000	99.802103
3969.000000	99.800632
3968.000000	99.798425
3967.000000	99.796095
3966.000000	99.794889
3965.000000	99.795466
3964.000000	99.797191
3963.000000	99.798748
3962.000000	99.799294
3961.000000	99.798768
3960.000000	99.797318
3959.000000	99.795008
3958.000000	99.792319
3957.000000	99.790531
3956.000000	99.790694
3955.000000	99.792147
3954.000000	99.792575
3953.000000	99.789906
3952.000000	99.784432
3951.000000	99.778970
3950.000000	99.776757
3949.000000	99.778731
3948.000000	99.782838
3947.000000	99.786287
3946.000000	99.788204
3945.000000	99.789436
3944.000000	99.790571
3943.000000	99.790729
3942.000000	99.788176
3941.000000	99.782494
3940.000000	99.775994
3939.000000	99.772562
3938.000000	99.774821
3937.000000	99.782196
3936.000000	99.790812
3935.000000	99.795540
3934.000000	99.793382
3933.000000	99.785978
3932.000000	99.778645
3931.000000	99.775861
3930.000000	99.777789
3929.000000	99.781634
3928.000000	99.784902
3927.000000	99.786658
3926.000000	99.787131
3925.000000	99.787354
3924.000000	99.788448
3923.000000	99.790208
3922.000000	99.790794
3921.000000	99.788342
3920.000000	99.783281
3919.000000	99.779007
3918.000000	99.779364
3917.000000	99.784871
3916.000000	99.791621
3915.000000	99.794602
3914.000000	99.791378
3913.000000	99.783550
3912.000000	99.775559
3911.000000	99.772222
3910.000000	99.775655
3909.000000	99.784507
3908.000000	99.795202
3907.000000	99.803581
3906.000000	99.806185
3905.000000	99.801957
3904.000000	99.793755
3903.000000	99.786369
3902.000000	99.782750
3901.000000	99.782987
3900.000000	99.785705
3899.000000	99.789043
3898.000000	99.790899
3897.000000	99.789609
3896.000000	99.784839
3895.000000	99.778082
3894.000000	99.771853
3893.000000	99.769275
3892.000000	99.772254
3891.000000	99.779400
3890.000000	99.786839
3889.000000	99.792595
3888.000000	99.796325
3887.000000	99.797136
3886.000000	99.795843
3885.000000	99.795193
3884.000000	99.795737
3883.000000	99.795548
3882.000000	99.792717
3881.000000	99.788128
3880.000000	99.784633
3879.000000	99.783068
3878.000000	99.782639
3877.000000	99.783101
3876.000000	99.784271
3875.000000	99.786453
3874.000000	99.790537
3873.000000	99.796307
3872.000000	99.801545
3871.000000	99.803409
3870.000000	99.801431
3869.000000	99.797737
3868.000000	99.794139
3867.000000	99.790926
3866.000000	99.786968
3865.000000	99.782334
3864.000000	99.778873
3863.000000	99.776600
3862.000000	99.773923
3861.000000	99.771594
3860.000000	99.771849
3859.000000	99.775728
3858.000000	99.782560
3857.000000	99.791098
3856.000000	99.798545
3855.000000	99.799213
3854.000000	99.794262
3853.000000	99.794053
3852.000000	99.797077
3851.000000	99.796108
3850.000000	99.791410
3849.000000	99.786492
3848.000000	99.784140
3847.000000	99.785198
3846.000000	99.788402
3845.000000	99.792410
3844.000000	99.796766
3843.000000	99.801066
3842.000000	99.804253
3841.000000	99.805637
3840.000000	99.805413
3839.000000	99.805456
3838.000000	99.807517
3837.000000	99.810551
3836.000000	99.811971
3835.000000	99.810790
3834.000000	99.808281
3833.000000	99.806152
3832.000000	99.804931
3831.000000	99.803692
3830.000000	99.801318
3829.000000	99.797723
3828.000000	99.793895
3827.000000	99.791565
3826.000000	99.792409
3825.000000	99.797380
3824.000000	99.805237
3823.000000	99.811987
3822.000000	99.814928
3821.000000	99.816697
3820.000000	99.818423
3819.000000	99.817222
3818.000000	99.811166
3817.000000	99.799289
3816.000000	99.785037
3815.000000	99.775053
3814.000000	99.771535
3813.000000	99.771842
3812.000000	99.773472
3811.000000	99.776829
3810.000000	99.783104
3809.000000	99.790758
3808.000000	99.796012
3807.000000	99.797834
3806.000000	99.798981
3805.000000	99.802070
3804.000000	99.806710
3803.000000	99.810018
3802.000000	99.810438
3801.000000	99.809924
3800.000000	99.809282
3799.000000	99.808068
3798.000000	99.805620
3797.000000	99.800942
3796.000000	99.794165
3795.000000	99.786489
3794.000000	99.779668
3793.000000	99.775135
3792.000000	99.773824
3791.000000	99.775859
3790.000000	99.780007
3789.000000	99.784062
3788.000000	99.786518
3787.000000	99.787607
3786.000000	99.788752
3785.000000	99.790951
3784.000000	99.793642
3783.000000	99.795232
3782.000000	99.793790
3781.000000	99.788042
3780.000000	99.779309
3779.000000	99.772107
3778.000000	99.770063
3777.000000	99.773109
3776.000000	99.778331
3775.000000	99.782530
3774.000000	99.784236
3773.000000	99.783917
3772.000000	99.782868
3771.000000	99.783214
3770.000000	99.787742
3769.000000	99.796394
3768.000000	99.804893
3767.000000	99.808753
3766.000000	99.806945
3765.000000	99.802192
3764.000000	99.798441
3763.000000	99.797567
3762.000000	99.797848
3761.000000	99.796028
3760.000000	99.790704
3759.000000	99.783363
3758.000000	99.776039
3757.000000	99.771425
3756.000000	99.772919
3755.000000	99.781878
3754.000000	99.795038
3753.000000	99.805362
3752.000000	99.807617
3751.000000	99.803324
3750.000000	99.797147
3749.000000	99.792099
3748.000000	99.791002
3747.000000	99.796201
3746.000000	99.806130
3745.000000	99.816817
3744.000000	99.826149
3743.000000	99.830927
3742.000000	99.830161
3741.000000	99.826861
3740.000000	99.824666
3739.000000	99.825545
3738.000000	99.826651
3737.000000	99.821945
3736.000000	99.811817
3735.000000	99.804635
3734.000000	99.805320
3733.000000	99.809711
3732.000000	99.812196
3731.000000	99.811741
3730.000000	99.810254
3729.000000	99.808918
3728.000000	99.807258
3727.000000	99.804911
3726.000000	99.802828
3725.000000	99.801167
3724.000000	99.798288
3723.000000	99.793371
3722.000000	99.788751
3721.000000	99.788399
3720.000000	99.793449
3719.000000	99.800408
3718.000000	99.803832
3717.000000	99.801745
3716.000000	99.797723
3715.000000	99.796624
3714.000000	99.799527
3713.000000	99.803591
3712.000000	99.806692
3711.000000	99.809525
3710.000000	99.812422
3709.000000	99.814185
3708.000000	99.813562
3707.000000	99.810561
3706.000000	99.806843
3705.000000	99.804856
3704.000000	99.805982
3703.000000	99.809855
3702.000000	99.814796
3701.000000	99.818614
3700.000000	99.820010
3699.000000	99.819530
3698.000000	99.818075
3697.000000	99.815837
3696.000000	99.813181
3695.000000	99.810330
3694.000000	99.806750
3693.000000	99.802345
3692.000000	99.799369
3691.000000	99.801891
3690.000000	99.811240
3689.000000	99.821931
3688.000000	99.826342
3687.000000	99.823989
3686.000000	99.820089
3685.000000	99.817670
3684.000000	99.816073
3683.000000	99.813926
3682.000000	99.810699
3681.000000	99.806647
3680.000000	99.803334
3679.000000	99.803431
3678.000000	99.808538
3677.000000	99.817434
3676.000000	99.829709
3675.000000	99.843416
3674.000000	99.850219
3673.000000	99.846640
3672.000000	99.835157
3671.000000	99.819580
3670.000000	99.808086
3669.000000	99.806367
3668.000000	99.809832
3667.000000	99.812776
3666.000000	99.814194
3665.000000	99.815001
3664.000000	99.815881
3663.000000	99.816837
3662.000000	99.817426
3661.000000	99.817485
3660.000000	99.817769
3659.000000	99.818814
3658.000000	99.819831
3657.000000	99.819575
3656.000000	99.818808
3655.000000	99.819759
3654.000000	99.824156
3653.000000	99.831139
3652.000000	99.836319
3651.000000	99.835825
3650.000000	99.832425
3649.000000	99.831718
3648.000000	99.832649
3647.000000	99.830558
3646.000000	99.823962
3645.000000	99.814461
3644.000000	99.804112
3643.000000	99.794751
3642.000000	99.787845
3641.000000	99.783594
3640.000000	99.780123
3639.000000	99.775056
3638.000000	99.768751
3637.000000	99.764765
3636.000000	99.766498
3635.000000	99.773472
3634.000000	99.781644
3633.000000	99.787246
3632.000000	99.789127
3631.000000	99.787284
3630.000000	99.783416
3629.000000	99.784418
3628.000000	99.791442
3627.000000	99.795934
3626.000000	99.794598
3625.000000	99.790183
3624.000000	99.785862
3623.000000	99.783370
3622.000000	99.782439
3621.000000	99.781792
3620.000000	99.781706
3619.000000	99.783435
3618.000000	99.785545
3617.000000	99.785956
3616.000000	99.785816
3615.000000	99.787085
3614.000000	99.789365
3613.000000	99.790143
3612.000000	99.787836
3611.000000	99.784205
3610.000000	99.782756
3609.000000	99.785543
3608.000000	99.791060
3607.000000	99.794680
3606.000000	99.792881
3605.000000	99.786224
3604.000000	99.777928
3603.000000	99.771155
3602.000000	99.767443
3601.000000	99.766281
3600.000000	99.766176
3599.000000	99.766042
3598.000000	99.765641
3597.000000	99.764698
3596.000000	99.762960
3595.000000	99.761012
3594.000000	99.760806
3593.000000	99.763655
3592.000000	99.768289
3591.000000	99.771643
3590.000000	99.771140
3589.000000	99.767247
3588.000000	99.764050
3587.000000	99.763747
3586.000000	99.762848
3585.000000	99.758432
3584.000000	99.751844
3583.000000	99.745396
3582.000000	99.740229
3581.000000	99.736821
3580.000000	99.735583
3579.000000	99.736043
3578.000000	99.736291
3577.000000	99.734066
3576.000000	99.728583
3575.000000	99.721145
3574.000000	99.714277
3573.000000	99.710437
3572.000000	99.710830
3571.000000	99.714655
3570.000000	99.719347
3569.000000	99.722416
3568.000000	99.724360
3567.000000	99.727259
3566.000000	99.729598
3565.000000	99.728033
3564.000000	99.723089
3563.000000	99.718134
3562.000000	99.715659
3561.000000	99.715826
3560.000000	99.717132
3559.000000	99.717821
3558.000000	99.716668
3557.000000	99.713122
3556.000000	99.707380
3555.000000	99.700665
3554.000000	99.695230
3553.000000	99.693588
3552.000000	99.696359
3551.000000	99.700517
3550.000000	99.701047
3549.000000	99.694922
3548.000000	99.683931
3547.000000	99.673967
3546.000000	99.670246
3545.000000	99.672592
3544.000000	99.676665
3543.000000	99.678734
3542.000000	99.677671
3541.000000	99.674181
3540.000000	99.670064
3539.000000	99.667609
3538.000000	99.668004
3537.000000	99.669845
3536.000000	99.670178
3535.000000	99.667554
3534.000000	99.663575
3533.000000	99.660993
3532.000000	99.661003
3531.000000	99.662525
3530.000000	99.663474
3529.000000	99.662570
3528.000000	99.660316
3527.000000	99.658560
3526.000000	99.658906
3525.000000	99.661153
3524.000000	99.663050
3523.000000	99.661936
3522.000000	99.657222
3521.000000	99.651275
3520.000000	99.647515
3519.000000	99.647491
3518.000000	99.649811
3517.000000	99.651501
3516.000000	99.650412
3515.000000	99.646290
3514.000000	99.640336
3513.000000	99.634372
3512.000000	99.630461
3511.000000	99.630490
3510.000000	99.634961
3509.000000	99.641607
3508.000000	99.646075
3507.000000	99.644931
3506.000000	99.638292
3505.000000	99.629802
3504.000000	99.624199
3503.000000	99.623481
3502.000000	99.625026
3501.000000	99.624149
3500.000000	99.618394
3499.000000	99.609349
3498.000000	99.601336
3497.000000	99.598444
3496.000000	99.601224
3495.000000	99.605863
3494.000000	99.607475
3493.000000	99.604675
3492.000000	99.600233
3491.000000	99.597204
3490.000000	99.595583
3489.000000	99.593439
3488.000000	99.590472
3487.000000	99.588639
3486.000000	99.589082
3485.000000	99.590194
3484.000000	99.589793
3483.000000	99.588215
3482.000000	99.588046
3481.000000	99.590546
3480.000000	99.593588
3479.000000	99.593902
3478.000000	99.590775
3477.000000	99.586691
3476.000000	99.584423
3475.000000	99.583927
3474.000000	99.582705
3473.000000	99.579366
3472.000000	99.575830
3471.000000	99.575320
3470.000000	99.578661
3469.000000	99.583459
3468.000000	99.586693
3467.000000	99.587409
3466.000000	99.586786
3465.000000	99.586358
3464.000000	99.586726
3463.000000	99.587470
3462.000000	99.587714
3461.000000	99.586753
3460.000000	99.584503
3459.000000	99.581459
3458.000000	99.578332
3457.000000	99.575825
3456.000000	99.574576
3455.000000	99.574727
3454.000000	99.575469
3453.000000	99.575368
3452.000000	99.573445
3451.000000	99.569758
3450.000000	99.565012
3449.000000	99.560208
3448.000000	99.556774
3447.000000	99.555991
3446.000000	99.557452
3445.000000	99.558879
3444.000000	99.558152
3443.000000	99.555230
3442.000000	99.551866
3441.000000	99.549666
3440.000000	99.548695
3439.000000	99.547710
3438.000000	99.545422
3437.000000	99.541734
3436.000000	99.538130
3435.000000	99.536490
3434.000000	99.537060
3433.000000	99.537693
3432.000000	99.535734
3431.000000	99.530667
3430.000000	99.524691
3429.000000	99.520931
3428.000000	99.521221
3427.000000	99.525066
3426.000000	99.529808
3425.000000	99.531970
3424.000000	99.529499
3423.000000	99.523464
3422.000000	99.517352
3421.000000	99.514195
3420.000000	99.514129
3419.000000	99.514877
3418.000000	99.514480
3417.000000	99.513086
3416.000000	99.512128
3415.000000	99.512195
3414.000000	99.512030
3413.000000	99.509785
3412.000000	99.505015
3411.000000	99.499145
3410.000000	99.494187
3409.000000	99.491472
3408.000000	99.491520
3407.000000	99.494260
3406.000000	99.498760
3405.000000	99.503007
3404.000000	99.504547
3403.000000	99.501670
3402.000000	99.494282
3401.000000	99.484160
3400.000000	99.474530
3399.000000	99.468659
3398.000000	99.467786
3397.000000	99.470010
3396.000000	99.471641
3395.000000	99.470188
3394.000000	99.466226
3393.000000	99.462527
3392.000000	99.461482
3391.000000	99.463272
3390.000000	99.466296
3389.000000	99.468887
3388.000000	99.470269
3387.000000	99.470192
3386.000000	99.468298
3385.000000	99.464131
3384.000000	99.457436
3383.000000	99.448268
3382.000000	99.437337
3381.000000	99.426670
3380.000000	99.419268
3379.000000	99.416913
3378.000000	99.418162
3377.000000	99.419290
3376.000000	99.417544
3375.000000	99.413133
3374.000000	99.408128
3373.000000	99.404247
3372.000000	99.401905
3371.000000	99.400445
3370.000000	99.398404
3369.000000	99.394113
3368.000000	99.387093
3367.000000	99.378902
3366.000000	99.371807
3365.000000	99.366352
3364.000000	99.360886
3363.000000	99.353862
3362.000000	99.346184
3361.000000	99.340612
3360.000000	99.338646
3359.000000	99.338361
3358.000000	99.335887
3357.000000	99.329129
3356.000000	99.319568
3355.000000	99.310175
3354.000000	99.302234
3353.000000	99.295095
3352.000000	99.288544
3351.000000	99.283718
3350.000000	99.281106
3349.000000	99.279029
3348.000000	99.275339
3347.000000	99.270099
3346.000000	99.265390
3345.000000	99.262579
3344.000000	99.260706
3343.000000	99.257600
3342.000000	99.251640
3341.000000	99.242228
3340.000000	99.229732
3339.000000	99.215872
3338.000000	99.203720
3337.000000	99.196309
3336.000000	99.194616
3335.000000	99.196733
3334.000000	99.199003
3333.000000	99.198168
3332.000000	99.193007
3331.000000	99.184569
3330.000000	99.175015
3329.000000	99.166122
3328.000000	99.158626
3327.000000	99.152560
3326.000000	99.147761
3325.000000	99.144008
3324.000000	99.141010
3323.000000	99.138505
3322.000000	99.136288
3321.000000	99.134153
3320.000000	99.131942
3319.000000	99.129670
3318.000000	99.127311
3317.000000	99.124372
3316.000000	99.120113
3315.000000	99.114639
3314.000000	99.109521
3313.000000	99.106584
3312.000000	99.105795
3311.000000	99.104905
3310.000000	99.101777
3309.000000	99.096934
3308.000000	99.093085
3307.000000	99.091954
3306.000000	99.092241
3305.000000	99.091051
3304.000000	99.086756
3303.000000	99.079985
3302.000000	99.072335
3301.000000	99.065029
3300.000000	99.058877
3299.000000	99.054628
3298.000000	99.052833
3297.000000	99.053585
3296.000000	99.056541
3295.000000	99.060798
3294.000000	99.064708
3293.000000	99.066618
3292.000000	99.066335
3291.000000	99.065408
3290.000000	99.065344
3289.000000	99.065760
3288.000000	99.064878
3287.000000	99.061774
3286.000000	99.057659
3285.000000	99.054973
3284.000000	99.055478
3283.000000	99.058927
3282.000000	99.063027
3281.000000	99.064780
3280.000000	99.062560
3279.000000	99.057380
3278.000000	99.052160
3277.000000	99.049522
3276.000000	99.050047
3275.000000	99.052227
3274.000000	99.053649
3273.000000	99.052417
3272.000000	99.048289
3271.000000	99.043050
3270.000000	99.039538
3269.000000	99.039601
3268.000000	99.042614
3267.000000	99.046097
3266.000000	99.048185
3265.000000	99.049670
3264.000000	99.053259
3263.000000	99.060496
3262.000000	99.069577
3261.000000	99.076520
3260.000000	99.078507
3259.000000	99.075860
3258.000000	99.071013
3257.000000	99.066422
3256.000000	99.063766
3255.000000	99.064176
3254.000000	99.067997
3253.000000	99.074198
3252.000000	99.080798
3251.000000	99.086247
3250.000000	99.090207
3249.000000	99.093060
3248.000000	99.095150
3247.000000	99.096669
3246.000000	99.097784
3245.000000	99.098350
3244.000000	99.097523
3243.000000	99.094105
3242.000000	99.087732
3241.000000	99.080068
3240.000000	99.074736
3239.000000	99.075244
3238.000000	99.082027
3237.000000	99.091381
3236.000000	99.097957
3235.000000	99.098948
3234.000000	99.095790
3233.000000	99.091917
3232.000000	99.089463
3231.000000	99.088406
3230.000000	99.088272
3229.000000	99.089490
3228.000000	99.092738
3227.000000	99.097448
3226.000000	99.101516
3225.000000	99.102633
3224.000000	99.100024
3223.000000	99.095208
3222.000000	99.091156
3221.000000	99.090336
3220.000000	99.092947
3219.000000	99.096722
3218.000000	99.098816
3217.000000	99.098299
3216.000000	99.097097
3215.000000	99.098555
3214.000000	99.104593
3213.000000	99.113813
3212.000000	99.122112
3211.000000	99.125355
3210.000000	99.122229
3209.000000	99.115220
3208.000000	99.109031
3207.000000	99.107276
3206.000000	99.109986
3205.000000	99.114157
3204.000000	99.116737
3203.000000	99.117145
3202.000000	99.116836
3201.000000	99.117014
3200.000000	99.117515
3199.000000	99.117758
3198.000000	99.117717
3197.000000	99.117390
3196.000000	99.116197
3195.000000	99.113947
3194.000000	99.112079
3193.000000	99.112764
3192.000000	99.116358
3191.000000	99.120452
3190.000000	99.122105
3189.000000	99.120894
3188.000000	99.119407
3187.000000	99.120791
3186.000000	99.125944
3185.000000	99.132782
3184.000000	99.138153
3183.000000	99.140679
3182.000000	99.141979
3181.000000	99.144844
3180.000000	99.149967
3179.000000	99.154742
3178.000000	99.155745
3177.000000	99.152429
3176.000000	99.147839
3175.000000	99.145723
3174.000000	99.147403
3173.000000	99.151404
3172.000000	99.155204
3171.000000	99.157036
3170.000000	99.156819
3169.000000	99.156434
3168.000000	99.158914
3167.000000	99.166149
3166.000000	99.176794
3165.000000	99.186795
3164.000000	99.192556
3163.000000	99.193545
3162.000000	99.191926
3161.000000	99.190145
3160.000000	99.189265
3159.000000	99.188950
3158.000000	99.188245
3157.000000	99.186557
3156.000000	99.184586
3155.000000	99.184220
3154.000000	99.186774
3153.000000	99.191293
3152.000000	99.195438
3151.000000	99.198240
3150.000000	99.200982
3149.000000	99.204836
3148.000000	99.208676
3147.000000	99.210393
3146.000000	99.209856
3145.000000	99.209217
3144.000000	99.210269
3143.000000	99.212555
3142.000000	99.214544
3141.000000	99.215821
3140.000000	99.217639
3139.000000	99.221819
3138.000000	99.229416
3137.000000	99.239634
3136.000000	99.249353
3135.000000	99.254455
3134.000000	99.253028
3133.000000	99.247529
3132.000000	99.243099
3131.000000	99.243331
3130.000000	99.247878
3129.000000	99.253740
3128.000000	99.257936
3127.000000	99.258972
3126.000000	99.256843
3125.000000	99.252532
3124.000000	99.247455
3123.000000	99.242880
3122.000000	99.239661
3121.000000	99.238219
3120.000000	99.238357
3119.000000	99.239061
3118.000000	99.239213
3117.000000	99.238960
3116.000000	99.239823
3115.000000	99.242761
3114.000000	99.246469
3113.000000	99.248462
3112.000000	99.247739
3111.000000	99.245596
3110.000000	99.243787
3109.000000	99.242711
3108.000000	99.241751
3107.000000	99.240484
3106.000000	99.238674
3105.000000	99.235662
3104.000000	99.230871
3103.000000	99.225077
3102.000000	99.220341
3101.000000	99.218240
3100.000000	99.218344
3099.000000	99.218707
3098.000000	99.217768
3097.000000	99.215732
3096.000000	99.214313
3095.000000	99.215128
3094.000000	99.218140
3093.000000	99.221602
3092.000000	99.223494
3091.000000	99.222720
3090.000000	99.218983
3089.000000	99.212302
3088.000000	99.203506
3087.000000	99.194950
3086.000000	99.189605
3085.000000	99.188884
3084.000000	99.191692
3083.000000	99.195616
3082.000000	99.198487
3081.000000	99.198844
3080.000000	99.196210
3079.000000	99.191878
3078.000000	99.188786
3077.000000	99.189362
3076.000000	99.193182
3075.000000	99.197036
3074.000000	99.197283
3073.000000	99.192355
3072.000000	99.184092
3071.000000	99.177243
3070.000000	99.176606
3069.000000	99.182920
3068.000000	99.191646
3067.000000	99.197084
3066.000000	99.197965
3065.000000	99.197894
3064.000000	99.200179
3063.000000	99.204015
3062.000000	99.206402
3061.000000	99.206055
3060.000000	99.203928
3059.000000	99.201160
3058.000000	99.198576
3057.000000	99.197894
3056.000000	99.201373
3055.000000	99.209419
3054.000000	99.219419
3053.000000	99.227507
3052.000000	99.231112
3051.000000	99.230149
3050.000000	99.227005
3049.000000	99.225506
3048.000000	99.228473
3047.000000	99.235169
3046.000000	99.241622
3045.000000	99.244126
3044.000000	99.242337
3043.000000	99.238954
3042.000000	99.237091
3041.000000	99.238341
3040.000000	99.242652
3039.000000	99.249021
3038.000000	99.256154
3037.000000	99.262880
3036.000000	99.268211
3035.000000	99.271353
3034.000000	99.272160
3033.000000	99.271552
3032.000000	99.270831
3031.000000	99.270396
3030.000000	99.269895
3029.000000	99.269909
3028.000000	99.272363
3027.000000	99.278234
3026.000000	99.285391
3025.000000	99.289881
3024.000000	99.289501
3023.000000	99.285568
3022.000000	99.281428
3021.000000	99.280071
3020.000000	99.282924
3019.000000	99.289535
3018.000000	99.297616
3017.000000	99.303955
3016.000000	99.306253
3015.000000	99.304578
3014.000000	99.301355
3013.000000	99.299956
3012.000000	99.302568
3011.000000	99.308334
3010.000000	99.313557
3009.000000	99.314591
3008.000000	99.311011
3007.000000	99.305823
3006.000000	99.302659
3005.000000	99.303174
3004.000000	99.306775
3003.000000	99.311745
3002.000000	99.316169
3001.000000	99.318643
3000.000000	99.319068
2999.000000	99.318673
2998.000000	99.318782
2997.000000	99.319635
2996.000000	99.320610
2995.000000	99.321245
2994.000000	99.321591
2993.000000	99.321730
2992.000000	99.321271
2991.000000	99.319265
2990.000000	99.314686
2989.000000	99.307621
2988.000000	99.300323
2987.000000	99.296259
2986.000000	99.297049
2985.000000	99.300304
2984.000000	99.301210
2983.000000	99.296626
2982.000000	99.287585
2981.000000	99.278194
2980.000000	99.272393
2979.000000	99.271438
2978.000000	99.273477
2977.000000	99.275280
2976.000000	99.274797
2975.000000	99.272374
2974.000000	99.269382
2973.000000	99.265976
2972.000000	99.260932
2971.000000	99.253543
2970.000000	99.244711
2969.000000	99.235802
2968.000000	99.227471
2967.000000	99.220258
2966.000000	99.215256
2965.000000	99.212775
2964.000000	99.210631
2963.000000	99.205436
2962.000000	99.196096
2961.000000	99.185162
2960.000000	99.176132
2959.000000	99.170063
2958.000000	99.165330
2957.000000	99.159911
2956.000000	99.153210
2955.000000	99.146243
2954.000000	99.141046
2953.000000	99.139727
2952.000000	99.142979
2951.000000	99.149082
2950.000000	99.154733
2949.000000	99.157161
2948.000000	99.155413
2947.000000	99.149999
2946.000000	99.141976
2945.000000	99.132419
2944.000000	99.122132
2943.000000	99.111462
2942.000000	99.100598
2941.000000	99.089954
2940.000000	99.079806
2939.000000	99.069540
2938.000000	99.057972
2937.000000	99.044722
2936.000000	99.030673
2935.000000	99.016685
2934.000000	99.002465
2933.000000	98.987166
2932.000000	98.970504
2931.000000	98.952625
2930.000000	98.933291
2929.000000	98.911990
2928.000000	98.888548
2927.000000	98.862942
2926.000000	98.834817
2925.000000	98.804205
2924.000000	98.772638
2923.000000	98.742539
2922.000000	98.715348
2921.000000	98.691292
2920.000000	98.671608
2919.000000	98.659802
2918.000000	98.659572
2917.000000	98.671550
2916.000000	98.692751
2915.000000	98.719330
2914.000000	98.749264
2913.000000	98.782348
2912.000000	98.818023
2911.000000	98.853873
2910.000000	98.886384
2909.000000	98.913309
2908.000000	98.935371
2907.000000	98.955430
2906.000000	98.975788
2905.000000	98.996266
2904.000000	99.014966
2903.000000	99.030610
2902.000000	99.043737
2901.000000	99.055696
2900.000000	99.067199
2899.000000	99.078192
2898.000000	99.088701
2897.000000	99.099078
2896.000000	99.109255
2895.000000	99.118160
2894.000000	99.124349
2893.000000	99.127253
2892.000000	99.127816
2891.000000	99.128062
2890.000000	99.130128
2889.000000	99.135300
2888.000000	99.143280
2887.000000	99.152227
2886.000000	99.160034
2885.000000	99.165973
2884.000000	99.170966
2883.000000	99.175995
2882.000000	99.180575
2881.000000	99.183221
2880.000000	99.183277
2879.000000	99.181726
2878.000000	99.180083
2877.000000	99.178906
2876.000000	99.177571
2875.000000	99.175262
2874.000000	99.171923
2873.000000	99.168328
2872.000000	99.165459
2871.000000	99.163898
2870.000000	99.163767
2869.000000	99.164997
2868.000000	99.167298
2867.000000	99.169745
2866.000000	99.170828
2865.000000	99.169364
2864.000000	99.165187
2863.000000	99.158725
2862.000000	99.150291
2861.000000	99.140303
2860.000000	99.129688
2859.000000	99.118818
2858.000000	99.105895
2857.000000	99.087489
2856.000000	99.061508
2855.000000	99.029277
2854.000000	98.994588
2853.000000	98.961367
2852.000000	98.932716
2851.000000	98.911450
2850.000000	98.900267
2849.000000	98.901210
2848.000000	98.915020
2847.000000	98.940691
2846.000000	98.975249
2845.000000	99.014267
2844.000000	99.053238
2843.000000	99.088888
2842.000000	99.119447
2841.000000	99.144349
2840.000000	99.164223
2839.000000	99.180602
2838.000000	99.194955
2837.000000	99.208014
2836.000000	99.220118
2835.000000	99.231549
2834.000000	99.241972
2833.000000	99.250309
2832.000000	99.256203
2831.000000	99.261078
2830.000000	99.266535
2829.000000	99.272026
2828.000000	99.275542
2827.000000	99.276611
2826.000000	99.276991
2825.000000	99.277954
2824.000000	99.278611
2823.000000	99.278120
2822.000000	99.278210
2821.000000	99.281725
2820.000000	99.288964
2819.000000	99.297001
2818.000000	99.302849
2817.000000	99.306189
2816.000000	99.308617
2815.000000	99.311088
2814.000000	99.312771
2813.000000	99.312157
2812.000000	99.308797
2811.000000	99.303876
2810.000000	99.299234
2809.000000	99.295998
2808.000000	99.294415
2807.000000	99.294790
2806.000000	99.297742
2805.000000	99.303089
2804.000000	99.309146
2803.000000	99.313977
2802.000000	99.317015
2801.000000	99.318738
2800.000000	99.319240
2799.000000	99.318291
2798.000000	99.316651
2797.000000	99.315978
2796.000000	99.316881
2795.000000	99.318052
2794.000000	99.318015
2793.000000	99.317034
2792.000000	99.316639
2791.000000	99.317859
2790.000000	99.320566
2789.000000	99.324069
2788.000000	99.327515
2787.000000	99.330002
2786.000000	99.331118
2785.000000	99.331327
2784.000000	99.331260
2783.000000	99.330751
2782.000000	99.329225
2781.000000	99.326962
2780.000000	99.325216
2779.000000	99.324822
2778.000000	99.325316
2777.000000	99.325795
2776.000000	99.326317
2775.000000	99.328109
2774.000000	99.332455
2773.000000	99.339488
2772.000000	99.347789
2771.000000	99.354976
2770.000000	99.358977
2769.000000	99.359185
2768.000000	99.356704
2767.000000	99.353562
2766.000000	99.351646
2765.000000	99.351983
2764.000000	99.354500
2763.000000	99.358129
2762.000000	99.361264
2761.000000	99.362509
2760.000000	99.361418
2759.000000	99.358923
2758.000000	99.357000
2757.000000	99.357361
2756.000000	99.359930
2755.000000	99.362770
2754.000000	99.364019
2753.000000	99.363816
2752.000000	99.363836
2751.000000	99.364983
2750.000000	99.366279
2749.000000	99.366354
2748.000000	99.365378
2747.000000	99.364797
2746.000000	99.365321
2745.000000	99.365891
2744.000000	99.364997
2743.000000	99.362740
2742.000000	99.361185
2741.000000	99.362397
2740.000000	99.366132
2739.000000	99.369735
2738.000000	99.370580
2737.000000	99.368621
2736.000000	99.366284
2735.000000	99.365894
2734.000000	99.367539
2733.000000	99.369542
2732.000000	99.370592
2731.000000	99.370940
2730.000000	99.371639
2729.000000	99.373055
2728.000000	99.374486
2727.000000	99.375214
2726.000000	99.375585
2725.000000	99.376721
2724.000000	99.379238
2723.000000	99.382713
2722.000000	99.386569
2721.000000	99.390835
2720.000000	99.395326
2719.000000	99.398546
2718.000000	99.398611
2717.000000	99.395642
2716.000000	99.392338
2715.000000	99.391521
2714.000000	99.393558
2713.000000	99.396669
2712.000000	99.399127
2711.000000	99.400419
2710.000000	99.400744
2709.000000	99.400484
2708.000000	99.400308
2707.000000	99.400961
2706.000000	99.402517
2705.000000	99.404202
2704.000000	99.405178
2703.000000	99.405311
2702.000000	99.405161
2701.000000	99.405468
2700.000000	99.406506
2699.000000	99.407426
2698.000000	99.406384
2697.000000	99.402130
2696.000000	99.395882
2695.000000	99.391096
2694.000000	99.390767
2693.000000	99.395012
2692.000000	99.401320
2691.000000	99.406761
2690.000000	99.409698
2689.000000	99.410037
2688.000000	99.408759
2687.000000	99.407368
2686.000000	99.407085
2685.000000	99.408062
2684.000000	99.409292
2683.000000	99.409405
2682.000000	99.407633
2681.000000	99.404312
2680.000000	99.400807
2679.000000	99.398840
2678.000000	99.399367
2677.000000	99.401785
2676.000000	99.404409
2675.000000	99.405944
2674.000000	99.406420
2673.000000	99.406614
2672.000000	99.406759
2671.000000	99.406054
2670.000000	99.403459
2669.000000	99.398870
2668.000000	99.393642
2667.000000	99.389974
2666.000000	99.389329
2665.000000	99.390878
2664.000000	99.391553
2663.000000	99.388380
2662.000000	99.381345
2661.000000	99.373708
2660.000000	99.369110
2659.000000	99.368479
2658.000000	99.370087
2657.000000	99.372192
2656.000000	99.374783
2655.000000	99.378687
2654.000000	99.383921
2653.000000	99.389583
2652.000000	99.394664
2651.000000	99.398231
2650.000000	99.399361
2649.000000	99.398129
2648.000000	99.396672
2647.000000	99.397936
2646.000000	99.402499
2645.000000	99.407367
2644.000000	99.408928
2643.000000	99.406759
2642.000000	99.403660
2641.000000	99.402191
2640.000000	99.402357
2639.000000	99.402929
2638.000000	99.403765
2637.000000	99.405697
2636.000000	99.408752
2635.000000	99.411737
2634.000000	99.413759
2633.000000	99.415303
2632.000000	99.417501
2631.000000	99.420918
2630.000000	99.425383
2629.000000	99.430465
2628.000000	99.435682
2627.000000	99.440530
2626.000000	99.444636
2625.000000	99.447639
2624.000000	99.448854
2623.000000	99.447722
2622.000000	99.445150
2621.000000	99.443831
2620.000000	99.446096
2619.000000	99.451256
2618.000000	99.455696
2617.000000	99.456076
2616.000000	99.452442
2615.000000	99.448326
2614.000000	99.448048
2613.000000	99.453534
2612.000000	99.462753
2611.000000	99.470775
2610.000000	99.473040
2609.000000	99.468700
2608.000000	99.461360
2607.000000	99.456315
2606.000000	99.456491
2605.000000	99.460674
2604.000000	99.465549
2603.000000	99.469406
2602.000000	99.473510
2601.000000	99.479692
2600.000000	99.487484
2599.000000	99.494538
2598.000000	99.499419
2597.000000	99.502611
2596.000000	99.504814
2595.000000	99.506032
2594.000000	99.506768
2593.000000	99.508051
2592.000000	99.509022
2591.000000	99.506545
2590.000000	99.499232
2589.000000	99.490431
2588.000000	99.484868
2587.000000	99.483335
2586.000000	99.483335
2585.000000	99.483812
2584.000000	99.485944
2583.000000	99.489648
2582.000000	99.493179
2581.000000	99.496638
2580.000000	99.501923
2579.000000	99.507909
2578.000000	99.509750
2577.000000	99.505519
2576.000000	99.500047
2575.000000	99.499069
2574.000000	99.502273
2573.000000	99.505678
2572.000000	99.508258
2571.000000	99.511868
2570.000000	99.516193
2569.000000	99.518749
2568.000000	99.519781
2567.000000	99.522580
2566.000000	99.528105
2565.000000	99.533211
2564.000000	99.535473
2563.000000	99.536247
2562.000000	99.537212
2561.000000	99.537223
2560.000000	99.534823
2559.000000	99.531268
2558.000000	99.528322
2557.000000	99.525033
2556.000000	99.519695
2555.000000	99.513943
2554.000000	99.511892
2553.000000	99.515164
2552.000000	99.521050
2551.000000	99.525903
2550.000000	99.528616
2549.000000	99.530049
2548.000000	99.530463
2547.000000	99.528788
2546.000000	99.524373
2545.000000	99.518995
2544.000000	99.516661
2543.000000	99.520737
2542.000000	99.530689
2541.000000	99.541663
2540.000000	99.547740
2539.000000	99.546031
2538.000000	99.538202
2537.000000	99.528525
2536.000000	99.520219
2535.000000	99.513019
2534.000000	99.504460
2533.000000	99.494264
2532.000000	99.487004
2531.000000	99.488884
2530.000000	99.501260
2529.000000	99.518423
2528.000000	99.532250
2527.000000	99.538238
2526.000000	99.536939
2525.000000	99.531480
2524.000000	99.525475
2523.000000	99.522170
2522.000000	99.523131
2521.000000	99.526913
2520.000000	99.529724
2519.000000	99.527886
2518.000000	99.520032
2517.000000	99.508154
2516.000000	99.497478
2515.000000	99.494111
2514.000000	99.500439
2513.000000	99.512145
2512.000000	99.521054
2511.000000	99.521901
2510.000000	99.515789
2509.000000	99.507174
2508.000000	99.499170
2507.000000	99.493019
2506.000000	99.490719
2505.000000	99.495121
2504.000000	99.506257
2503.000000	99.518943
2502.000000	99.526154
2501.000000	99.525482
2500.000000	99.521498
2499.000000	99.521095
2498.000000	99.526299
2497.000000	99.531995
2496.000000	99.530872
2495.000000	99.520614
2494.000000	99.506612
2493.000000	99.497738
2492.000000	99.499310
2491.000000	99.509564
2490.000000	99.522238
2489.000000	99.532230
2488.000000	99.538581
2487.000000	99.542379
2486.000000	99.542972
2485.000000	99.537716
2484.000000	99.526034
2483.000000	99.512710
2482.000000	99.505605
2481.000000	99.509526
2480.000000	99.522364
2479.000000	99.537216
2478.000000	99.547729
2477.000000	99.551604
2476.000000	99.550720
2475.000000	99.549159
2474.000000	99.550396
2473.000000	99.554594
2472.000000	99.558368
2471.000000	99.558333
2470.000000	99.555030
2469.000000	99.552122
2468.000000	99.551593
2467.000000	99.551591
2466.000000	99.549654
2465.000000	99.545994
2464.000000	99.542107
2463.000000	99.538143
2462.000000	99.534205
2461.000000	99.532881
2460.000000	99.536955
2459.000000	99.544335
2458.000000	99.548550
2457.000000	99.545800
2456.000000	99.539736
2455.000000	99.537712
2454.000000	99.543201
2453.000000	99.552737
2452.000000	99.559044
2451.000000	99.556530
2450.000000	99.545686
2449.000000	99.533617
2448.000000	99.529044
2447.000000	99.535045
2446.000000	99.546876
2445.000000	99.557418
2444.000000	99.563582
2443.000000	99.566593
2442.000000	99.568093
2441.000000	99.568415
2440.000000	99.567980
2439.000000	99.567788
2438.000000	99.567938
2437.000000	99.567188
2436.000000	99.564738
2435.000000	99.561748
2434.000000	99.560534
2433.000000	99.562375
2432.000000	99.566156
2431.000000	99.569387
2430.000000	99.570986
2429.000000	99.572713
2428.000000	99.576709
2427.000000	99.581687
2426.000000	99.583500
2425.000000	99.580257
2424.000000	99.574972
2423.000000	99.571642
2422.000000	99.570219
2421.000000	99.567701
2420.000000	99.563400
2419.000000	99.560669
2418.000000	99.562976
2417.000000	99.569595
2416.000000	99.575821
2415.000000	99.577084
2414.000000	99.572965
2413.000000	99.567371
2412.000000	99.564144
2411.000000	99.562511
2410.000000	99.558381
2409.000000	99.550652
2408.000000	99.544205
2407.000000	99.544731
2406.000000	99.551933
2405.000000	99.560048
2404.000000	99.564301
2403.000000	99.564971
2402.000000	99.565549
2401.000000	99.568828
2400.000000	99.574600
2399.000000	99.579538
2398.000000	99.579715
2397.000000	99.574598
2396.000000	99.568075
2395.000000	99.564352
2394.000000	99.563917
2393.000000	99.565404
2392.000000	99.569651
2391.000000	99.578588
2390.000000	99.590390
2389.000000	99.599393
2388.000000	99.602148
2387.000000	99.600632
2386.000000	99.598596
2385.000000	99.596990
2384.000000	99.594735
2383.000000	99.592197
2382.000000	99.591128
2381.000000	99.592632
2380.000000	99.596571
2379.000000	99.602346
2378.000000	99.608741
2377.000000	99.613107
2376.000000	99.612715
2375.000000	99.607704
2374.000000	99.602308
2373.000000	99.601824
2372.000000	99.608221
2371.000000	99.618622
2370.000000	99.628187
2369.000000	99.633562
2368.000000	99.632443
2367.000000	99.623454
2366.000000	99.609820
2365.000000	99.601084
2364.000000	99.605099
2363.000000	99.616221
2362.000000	99.619588
2361.000000	99.609715
2360.000000	99.595182
2359.000000	99.588770
2358.000000	99.594026
2357.000000	99.603432
2356.000000	99.607991
2355.000000	99.602766
2354.000000	99.594314
2353.000000	99.594756
2352.000000	99.606799
2351.000000	99.619451
2350.000000	99.620163
2349.000000	99.608786
2348.000000	99.594175
2347.000000	99.587069
2346.000000	99.589270
2345.000000	99.589482
2344.000000	99.578095
2343.000000	99.559198
2342.000000	99.547842
2341.000000	99.551270
2340.000000	99.561847
2339.000000	99.569023
2338.000000	99.570917
2337.000000	99.571276
2336.000000	99.571246
2335.000000	99.569654
2334.000000	99.569219
2333.000000	99.575075
2332.000000	99.586345
2331.000000	99.595282
2330.000000	99.592971
2329.000000	99.579516
2328.000000	99.559573
2327.000000	99.538727
2326.000000	99.521036
2325.000000	99.509244
2324.000000	99.507041
2323.000000	99.514957
2322.000000	99.529981
2321.000000	99.544022
2320.000000	99.549020
2319.000000	99.541822
2318.000000	99.524424
2317.000000	99.503234
2316.000000	99.486309
2315.000000	99.481988
2314.000000	99.493138
2313.000000	99.514491
2312.000000	99.535236
2311.000000	99.547349
2310.000000	99.550108
2309.000000	99.548320
2308.000000	99.547021
2307.000000	99.547641
2306.000000	99.548675
2305.000000	99.548359
2304.000000	99.547612
2303.000000	99.548054
2302.000000	99.549216
2301.000000	99.549317
2300.000000	99.549156
2299.000000	99.552317
2298.000000	99.558414
2297.000000	99.560717
2296.000000	99.552785
2295.000000	99.537841
2294.000000	99.526479
2293.000000	99.525610
2292.000000	99.532270
2291.000000	99.538329
2290.000000	99.538431
2289.000000	99.531803
2288.000000	99.520579
2287.000000	99.508344
2286.000000	99.499626
2285.000000	99.497422
2284.000000	99.501302
2283.000000	99.507671
2282.000000	99.512099
2281.000000	99.511551
2280.000000	99.506927
2279.000000	99.503565
2278.000000	99.506645
2277.000000	99.514356
2276.000000	99.517656
2275.000000	99.510157
2274.000000	99.496777
2273.000000	99.490001
2272.000000	99.497146
2271.000000	99.514136
2270.000000	99.531583
2269.000000	99.543464
2268.000000	99.548638
2267.000000	99.547479
2266.000000	99.540717
2265.000000	99.530860
2264.000000	99.521676
2263.000000	99.516008
2262.000000	99.515275
2261.000000	99.519762
2260.000000	99.527209
2259.000000	99.532050
2258.000000	99.530330
2257.000000	99.525550
2256.000000	99.526304
2255.000000	99.536522
2254.000000	99.550974
2253.000000	99.562140
2252.000000	99.567703
2251.000000	99.569571
2250.000000	99.569799
2249.000000	99.571389
2248.000000	99.578734
2247.000000	99.591062
2246.000000	99.597951
2245.000000	99.588779
2244.000000	99.567282
2243.000000	99.550055
2242.000000	99.548500
2241.000000	99.557250
2240.000000	99.562776
2239.000000	99.559023
2238.000000	99.551074
2237.000000	99.546784
2236.000000	99.548894
2235.000000	99.554294
2234.000000	99.558435
2233.000000	99.560252
2232.000000	99.562886
2231.000000	99.568276
2230.000000	99.572041
2229.000000	99.567589
2228.000000	99.555877
2227.000000	99.546866
2226.000000	99.549429
2225.000000	99.562983
2224.000000	99.580279
2223.000000	99.594243
2222.000000	99.599641
2221.000000	99.592567
2220.000000	99.573397
2219.000000	99.549050
2218.000000	99.529380
2217.000000	99.522077
2216.000000	99.530886
2215.000000	99.554373
2214.000000	99.583301
2213.000000	99.602817
2212.000000	99.603314
2211.000000	99.589502
2210.000000	99.575310
2209.000000	99.569889
2208.000000	99.570485
2207.000000	99.568173
2206.000000	99.558305
2205.000000	99.544995
2204.000000	99.536743
2203.000000	99.538194
2202.000000	99.546654
2201.000000	99.557366
2200.000000	99.570375
2199.000000	99.588558
2198.000000	99.609019
2197.000000	99.620978
2196.000000	99.614993
2195.000000	99.592287
2194.000000	99.564066
2193.000000	99.544353
2192.000000	99.542013
2191.000000	99.553378
2190.000000	99.561127
2189.000000	99.547257
2188.000000	99.512586
2187.000000	99.478914
2186.000000	99.466723
2185.000000	99.474886
2184.000000	99.487348
2183.000000	99.496129
2182.000000	99.509476
2181.000000	99.537602
2180.000000	99.578884
2179.000000	99.621986
2178.000000	99.654376
2177.000000	99.666062
2176.000000	99.653038
2175.000000	99.622863
2174.000000	99.593235
2173.000000	99.579071
2172.000000	99.579245
2171.000000	99.578262
2170.000000	99.561726
2169.000000	99.530082
2168.000000	99.497547
2167.000000	99.478157
2166.000000	99.474445
2165.000000	99.478789
2164.000000	99.482954
2163.000000	99.485754
2162.000000	99.494061
2161.000000	99.519263
2160.000000	99.569752
2159.000000	99.640709
2158.000000	99.712131
2157.000000	99.762840
2156.000000	99.784690
2155.000000	99.780159
2154.000000	99.754806
2153.000000	99.719500
2152.000000	99.691483
2151.000000	99.682560
2150.000000	99.687454
2149.000000	99.689580
2148.000000	99.678260
2147.000000	99.656798
2146.000000	99.636852
2145.000000	99.630586
2144.000000	99.644832
2143.000000	99.674892
2142.000000	99.704433
2141.000000	99.718249
2140.000000	99.716512
2139.000000	99.710805
2138.000000	99.706794
2137.000000	99.699491
2136.000000	99.686704
2135.000000	99.677916
2134.000000	99.683590
2133.000000	99.700631
2132.000000	99.714203
2131.000000	99.712010
2130.000000	99.694381
2129.000000	99.673291
2128.000000	99.662908
2127.000000	99.667214
2126.000000	99.675167
2125.000000	99.671309
2124.000000	99.652533
2123.000000	99.630716
2122.000000	99.617923
2121.000000	99.614107
2120.000000	99.612278
2119.000000	99.610471
2118.000000	99.612757
2117.000000	99.621139
2116.000000	99.632235
2115.000000	99.641507
2114.000000	99.646273
2113.000000	99.645124
2112.000000	99.638842
2111.000000	99.631582
2110.000000	99.626897
2109.000000	99.622624
2108.000000	99.613967
2107.000000	99.602162
2106.000000	99.595215
2105.000000	99.598312
2104.000000	99.607693
2103.000000	99.616256
2102.000000	99.621424
2101.000000	99.624330
2100.000000	99.624964
2099.000000	99.622842
2098.000000	99.620930
2097.000000	99.624222
2096.000000	99.633489
2095.000000	99.643402
2094.000000	99.647694
2093.000000	99.644419
2092.000000	99.636627
2091.000000	99.630188
2090.000000	99.630666
2089.000000	99.638733
2088.000000	99.647496
2087.000000	99.647800
2086.000000	99.637883
2085.000000	99.624935
2084.000000	99.614863
2083.000000	99.603831
2082.000000	99.584970
2081.000000	99.561449
2080.000000	99.546382
2079.000000	99.548644
2078.000000	99.563758
2077.000000	99.580173
2076.000000	99.589206
2075.000000	99.587037
2074.000000	99.573443
2073.000000	99.554343
2072.000000	99.541180
2071.000000	99.540814
2070.000000	99.548088
2069.000000	99.553688
2068.000000	99.557097
2067.000000	99.565035
2066.000000	99.578024
2065.000000	99.586225
2064.000000	99.581661
2063.000000	99.569177
2062.000000	99.561202
2061.000000	99.565253
2060.000000	99.577849
2059.000000	99.587376
2058.000000	99.582795
2057.000000	99.563799
2056.000000	99.543606
2055.000000	99.536678
2054.000000	99.541553
2053.000000	99.541357
2052.000000	99.525493
2051.000000	99.506177
2050.000000	99.507907
2049.000000	99.539668
2048.000000	99.581577
2047.000000	99.606210
2046.000000	99.609929
2045.000000	99.612524
2044.000000	99.626707
2043.000000	99.639913
2042.000000	99.633371
2041.000000	99.612842
2040.000000	99.606129
2039.000000	99.626610
2038.000000	99.655058
2037.000000	99.666533
2036.000000	99.664383
2035.000000	99.673365
2034.000000	99.702852
2033.000000	99.734449
2032.000000	99.746936
2031.000000	99.737473
2030.000000	99.714983
2029.000000	99.690299
2028.000000	99.678973
2027.000000	99.697827
2026.000000	99.748300
2025.000000	99.808661
2024.000000	99.850265
2023.000000	99.859749
2022.000000	99.842911
2021.000000	99.814197
2020.000000	99.786149
2019.000000	99.763131
2018.000000	99.742893
2017.000000	99.725491
2016.000000	99.715397
2015.000000	99.709281
2014.000000	99.689460
2013.000000	99.642000
2012.000000	99.581860
2011.000000	99.548997
2010.000000	99.575105
2009.000000	99.656895
2008.000000	99.758112
2007.000000	99.833736
2006.000000	99.854201
2005.000000	99.817484
2004.000000	99.748278
2003.000000	99.681647
2002.000000	99.643643
2001.000000	99.641882
2000.000000	99.664619
1999.000000	99.688303
1998.000000	99.694499
1997.000000	99.686241
1996.000000	99.683696
1995.000000	99.698473
1994.000000	99.718405
1993.000000	99.723673
1992.000000	99.711910
1991.000000	99.695879
1990.000000	99.681493
1989.000000	99.667016
1988.000000	99.658701
1987.000000	99.664831
1986.000000	99.674835
1985.000000	99.665278
1984.000000	99.631739
1983.000000	99.596231
1982.000000	99.576818
1981.000000	99.569435
1980.000000	99.571498
1979.000000	99.603811
1978.000000	99.683538
1977.000000	99.780255
1976.000000	99.830981
1975.000000	99.806886
1974.000000	99.740818
1973.000000	99.690118
1972.000000	99.688320
1971.000000	99.727904
1970.000000	99.776608
1969.000000	99.806312
1968.000000	99.813561
1967.000000	99.816752
1966.000000	99.832279
1965.000000	99.856621
1964.000000	99.872721
1963.000000	99.866533
1962.000000	99.836562
1961.000000	99.796263
1960.000000	99.766461
1959.000000	99.757304
1958.000000	99.759021
1957.000000	99.755259
1956.000000	99.742434
1955.000000	99.729955
1954.000000	99.724362
1953.000000	99.722046
1952.000000	99.716472
1951.000000	99.704789
1950.000000	99.688156
1949.000000	99.672834
1948.000000	99.670583
1947.000000	99.688717
1946.000000	99.718468
1945.000000	99.742193
1944.000000	99.753105
1943.000000	99.758758
1942.000000	99.762811
1941.000000	99.756767
1940.000000	99.736932
1939.000000	99.714982
1938.000000	99.704902
1937.000000	99.708592
1936.000000	99.718698
1935.000000	99.730322
1934.000000	99.742693
1933.000000	99.753516
1932.000000	99.759609
1931.000000	99.761119
1930.000000	99.759443
1929.000000	99.752229
1928.000000	99.737772
1927.000000	99.721709
1926.000000	99.713251
1925.000000	99.715100
1924.000000	99.720591
1923.000000	99.722531
1922.000000	99.720985
1921.000000	99.719758
1920.000000	99.718933
1919.000000	99.713871
1918.000000	99.700202
1917.000000	99.679766
1916.000000	99.660721
1915.000000	99.651292
1914.000000	99.654352
1913.000000	99.666324
1912.000000	99.679619
1911.000000	99.687745
1910.000000	99.689252
1909.000000	99.687641
1908.000000	99.688733
1907.000000	99.695441
1906.000000	99.704848
1905.000000	99.711193
1904.000000	99.711410
1903.000000	99.707389
1902.000000	99.700775
1901.000000	99.688998
1900.000000	99.671024
1899.000000	99.653509
1898.000000	99.646387
1897.000000	99.652622
1896.000000	99.664870
1895.000000	99.674695
1894.000000	99.681896
1893.000000	99.690976
1892.000000	99.701745
1891.000000	99.707579
1890.000000	99.702547
1889.000000	99.690100
1888.000000	99.681125
1887.000000	99.682136
1886.000000	99.690510
1885.000000	99.699446
1884.000000	99.703598
1883.000000	99.701777
1882.000000	99.696454
1881.000000	99.691618
1880.000000	99.690558
1879.000000	99.693556
1878.000000	99.698446
1877.000000	99.704600
1876.000000	99.713218
1875.000000	99.722331
1874.000000	99.725366
1873.000000	99.717917
1872.000000	99.704407
1871.000000	99.694729
1870.000000	99.695122
1869.000000	99.702986
1868.000000	99.711359
1867.000000	99.718013
1866.000000	99.724977
1865.000000	99.732739
1864.000000	99.739637
1863.000000	99.742696
1862.000000	99.737803
1861.000000	99.723235
1860.000000	99.704386
1859.000000	99.691085
1858.000000	99.688960
1857.000000	99.696180
1856.000000	99.708524
1855.000000	99.723059
1854.000000	99.735604
1853.000000	99.738995
1852.000000	99.730204
1851.000000	99.715449
1850.000000	99.703967
1849.000000	99.701227
1848.000000	99.707753
1847.000000	99.721194
1846.000000	99.736371
1845.000000	99.745601
1844.000000	99.744586
1843.000000	99.738635
1842.000000	99.736755
1841.000000	99.741113
1840.000000	99.746987
1839.000000	99.747951
1838.000000	99.741052
1837.000000	99.729578
1836.000000	99.720636
1835.000000	99.719509
1834.000000	99.725531
1833.000000	99.734331
1832.000000	99.743257
1831.000000	99.750949
1830.000000	99.753099
1829.000000	99.746946
1828.000000	99.736648
1827.000000	99.727592
1826.000000	99.721012
1825.000000	99.717067
1824.000000	99.717372
1823.000000	99.721815
1822.000000	99.726948
1821.000000	99.729958
1820.000000	99.732430
1819.000000	99.737257
1818.000000	99.743924
1817.000000	99.749787
1816.000000	99.754652
1815.000000	99.761253
1814.000000	99.769383
1813.000000	99.774179
1812.000000	99.771226
1811.000000	99.761155
1810.000000	99.749477
1809.000000	99.741138
1808.000000	99.737641
1807.000000	99.738636
1806.000000	99.742153
1805.000000	99.744773
1804.000000	99.744131
1803.000000	99.740764
1802.000000	99.734285
1801.000000	99.721758
1800.000000	99.704192
1799.000000	99.689793
1798.000000	99.686581
1797.000000	99.693711
1796.000000	99.703204
1795.000000	99.707978
1794.000000	99.705736
1793.000000	99.699702
1792.000000	99.696540
1791.000000	99.699709
1790.000000	99.706664
1789.000000	99.712328
1788.000000	99.713980
1787.000000	99.713618
1786.000000	99.715902
1785.000000	99.722461
1784.000000	99.729648
1783.000000	99.734382
1782.000000	99.736201
1781.000000	99.735824
1780.000000	99.735855
1779.000000	99.738385
1778.000000	99.743434
1777.000000	99.750229
1776.000000	99.760309
1775.000000	99.774884
1774.000000	99.788663
1773.000000	99.792405
1772.000000	99.784694
1771.000000	99.775673
1770.000000	99.773883
1769.000000	99.776840
1768.000000	99.776907
1767.000000	99.771795
1766.000000	99.765763
1765.000000	99.762736
1764.000000	99.762561
1763.000000	99.763396
1762.000000	99.763728
1761.000000	99.762840
1760.000000	99.760695
1759.000000	99.756900
1758.000000	99.750539
1757.000000	99.741654
1756.000000	99.735312
1755.000000	99.735837
1754.000000	99.740559
1753.000000	99.743108
1752.000000	99.741847
1751.000000	99.742224
1750.000000	99.746283
1749.000000	99.748337
1748.000000	99.745603
1747.000000	99.742616
1746.000000	99.742218
1745.000000	99.743522
1744.000000	99.745874
1743.000000	99.748635
1742.000000	99.749563
1741.000000	99.746317
1740.000000	99.739361
1739.000000	99.732950
1738.000000	99.730569
1737.000000	99.733724
1736.000000	99.740760
1735.000000	99.753416
1734.000000	99.774323
1733.000000	99.789036
1732.000000	99.788533
1731.000000	99.786042
1730.000000	99.791450
1729.000000	99.800495
1728.000000	99.807608
1727.000000	99.813016
1726.000000	99.817873
1725.000000	99.820993
1724.000000	99.821833
1723.000000	99.821564
1722.000000	99.822512
1721.000000	99.826354
1720.000000	99.834525
1719.000000	99.845860
1718.000000	99.853722
1717.000000	99.849634
1716.000000	99.832361
1715.000000	99.810751
1714.000000	99.792287
1713.000000	99.775341
1712.000000	99.757516
1711.000000	99.742766
1710.000000	99.735318
1709.000000	99.730629
1708.000000	99.720151
1707.000000	99.700734
1706.000000	99.675478
1705.000000	99.650844
1704.000000	99.631515
1703.000000	99.616115
1702.000000	99.592539
1701.000000	99.553247
1700.000000	99.516549
1699.000000	99.502711
1698.000000	99.505396
1697.000000	99.498385
1696.000000	99.459366
1695.000000	99.399834
1694.000000	99.346878
1693.000000	99.308717
1692.000000	99.280856
1691.000000	99.255123
1690.000000	99.227890
1689.000000	99.202120
1688.000000	99.185112
1687.000000	99.178212
1686.000000	99.167699
1685.000000	99.133033
1684.000000	99.066840
1683.000000	98.995750
1682.000000	98.943552
1681.000000	98.902134
1680.000000	98.860142
1679.000000	98.816173
1678.000000	98.772222
1677.000000	98.721424
1676.000000	98.655613
1675.000000	98.583725
1674.000000	98.523047
1673.000000	98.474007
1672.000000	98.424767
1671.000000	98.365587
1670.000000	98.295386
1669.000000	98.223115
1668.000000	98.160304
1667.000000	98.110039
1666.000000	98.065755
1665.000000	98.017826
1664.000000	97.959189
1663.000000	97.891846
1662.000000	97.825736
1661.000000	97.767615
1660.000000	97.719355
1659.000000	97.681109
1658.000000	97.652384
1657.000000	97.633277
1656.000000	97.626823
1655.000000	97.629344
1654.000000	97.627233
1653.000000	97.603876
1652.000000	97.561534
1651.000000	97.517376
1650.000000	97.484115
1649.000000	97.467434
1648.000000	97.455969
1647.000000	97.443048
1646.000000	97.435317
1645.000000	97.432385
1644.000000	97.425054
1643.000000	97.414503
1642.000000	97.404789
1641.000000	97.395811
1640.000000	97.388679
1639.000000	97.388185
1638.000000	97.395702
1637.000000	97.402458
1636.000000	97.396539
1635.000000	97.380941
1634.000000	97.367777
1633.000000	97.360945
1632.000000	97.358461
1631.000000	97.358613
1630.000000	97.362246
1629.000000	97.372128
1628.000000	97.389730
1627.000000	97.413700
1626.000000	97.441719
1625.000000	97.475006
1624.000000	97.520649
1623.000000	97.581670
1622.000000	97.646087
1621.000000	97.701154
1620.000000	97.751457
1619.000000	97.807699
1618.000000	97.873718
1617.000000	97.945408
1616.000000	98.010701
1615.000000	98.061245
1614.000000	98.103099
1613.000000	98.145493
1612.000000	98.190483
1611.000000	98.237553
1610.000000	98.286122
1609.000000	98.334930
1608.000000	98.382453
1607.000000	98.427535
1606.000000	98.468529
1605.000000	98.504781
1604.000000	98.538922
1603.000000	98.572818
1602.000000	98.605154
1601.000000	98.634627
1600.000000	98.661750
1599.000000	98.686026
1598.000000	98.704962
1597.000000	98.718450
1596.000000	98.730011
1595.000000	98.741874
1594.000000	98.752300
1593.000000	98.759233
1592.000000	98.763329
1591.000000	98.765034
1590.000000	98.761651
1589.000000	98.750015
1588.000000	98.729974
1587.000000	98.703007
1586.000000	98.670622
1585.000000	98.634068
1584.000000	98.595155
1583.000000	98.554340
1582.000000	98.509294
1581.000000	98.461795
1580.000000	98.421167
1579.000000	98.394553
1578.000000	98.374413
1577.000000	98.342448
1576.000000	98.292954
1575.000000	98.241583
1574.000000	98.201066
1573.000000	98.172945
1572.000000	98.153714
1571.000000	98.136810
1570.000000	98.119199
1569.000000	98.101380
1568.000000	98.086228
1567.000000	98.072032
1566.000000	98.051328
1565.000000	98.019346
1564.000000	97.983258
1563.000000	97.957042
1562.000000	97.942693
1561.000000	97.923609
1560.000000	97.885521
1559.000000	97.818392
1558.000000	97.749673
1557.000000	97.710255
1556.000000	97.683522
1555.000000	97.656838
1554.000000	97.622114
1553.000000	97.582111
1552.000000	97.540841
1551.000000	97.499686
1550.000000	97.459743
1549.000000	97.425421
1548.000000	97.396792
1547.000000	97.366832
1546.000000	97.328458
1545.000000	97.282166
1544.000000	97.237018
1543.000000	97.202691
1542.000000	97.182388
1541.000000	97.174291
1540.000000	97.174055
1539.000000	97.177815
1538.000000	97.178950
1537.000000	97.177984
1536.000000	97.186352
1535.000000	97.213221
1534.000000	97.265738
1533.000000	97.335593
1532.000000	97.399981
1531.000000	97.448280
1530.000000	97.485952
1529.000000	97.520175
1528.000000	97.555149
1527.000000	97.590635
1526.000000	97.623139
1525.000000	97.650669
1524.000000	97.677197
1523.000000	97.707116
1522.000000	97.737353
1521.000000	97.757301
1520.000000	97.762074
1519.000000	97.762026
1518.000000	97.768684
1517.000000	97.781917
1516.000000	97.794395
1515.000000	97.801519
1514.000000	97.803311
1513.000000	97.802164
1512.000000	97.803191
1511.000000	97.810708
1510.000000	97.825631
1509.000000	97.845925
1508.000000	97.871439
1507.000000	97.898511
1506.000000	97.915276
1505.000000	97.913408
1504.000000	97.899879
1503.000000	97.888140
1502.000000	97.880032
1501.000000	97.872005
1500.000000	97.864469
1499.000000	97.863389
1498.000000	97.865476
1497.000000	97.860232
1496.000000	97.845330
1495.000000	97.828185
1494.000000	97.812285
1493.000000	97.795906
1492.000000	97.779555
1491.000000	97.768356
1490.000000	97.763163
1489.000000	97.755321
1488.000000	97.740213
1487.000000	97.722099
1486.000000	97.703981
1485.000000	97.682259
1484.000000	97.654676
1483.000000	97.622880
1482.000000	97.587037
1481.000000	97.547200
1480.000000	97.506413
1479.000000	97.467168
1478.000000	97.426080
1477.000000	97.379042
1476.000000	97.328438
1475.000000	97.280115
1474.000000	97.231347
1473.000000	97.174146
1472.000000	97.115487
1471.000000	97.069121
1470.000000	97.033413
1469.000000	96.999827
1468.000000	96.966326
1467.000000	96.935584
1466.000000	96.907830
1465.000000	96.878183
1464.000000	96.847091
1463.000000	96.819994
1462.000000	96.797213
1461.000000	96.776115
1460.000000	96.756323
1459.000000	96.735910
1458.000000	96.704386
1457.000000	96.657918
1456.000000	96.612798
1455.000000	96.577365
1454.000000	96.545808
1453.000000	96.517523
1452.000000	96.494833
1451.000000	96.478652
1450.000000	96.464747
1449.000000	96.449107
1448.000000	96.433899
1447.000000	96.424156
1446.000000	96.418191
1445.000000	96.410720
1444.000000	96.402905
1443.000000	96.398513
1442.000000	96.397566
1441.000000	96.396890
1440.000000	96.395109
1439.000000	96.391755
1438.000000	96.386148
1437.000000	96.382022
1436.000000	96.383382
1435.000000	96.385099
1434.000000	96.379641
1433.000000	96.367165
1432.000000	96.353573
1431.000000	96.345404
1430.000000	96.343159
1429.000000	96.342842
1428.000000	96.341982
1427.000000	96.340090
1426.000000	96.336167
1425.000000	96.330596
1424.000000	96.328285
1423.000000	96.330727
1422.000000	96.331252
1421.000000	96.322931
1420.000000	96.310154
1419.000000	96.305140
1418.000000	96.308227
1417.000000	96.311058
1416.000000	96.312030
1415.000000	96.312543
1414.000000	96.312383
1413.000000	96.314899
1412.000000	96.327348
1411.000000	96.351562
1410.000000	96.378564
1409.000000	96.399618
1408.000000	96.415624
1407.000000	96.432609
1406.000000	96.453275
1405.000000	96.476351
1404.000000	96.501310
1403.000000	96.525875
1402.000000	96.545445
1401.000000	96.560026
1400.000000	96.577740
1399.000000	96.605721
1398.000000	96.638891
1397.000000	96.668182
1396.000000	96.693546
1395.000000	96.721110
1394.000000	96.752571
1393.000000	96.785293
1392.000000	96.819113
1391.000000	96.854566
1390.000000	96.889710
1389.000000	96.923358
1388.000000	96.958535
1387.000000	96.997644
1386.000000	97.036618
1385.000000	97.070903
1384.000000	97.102026
1383.000000	97.132868
1382.000000	97.163195
1381.000000	97.192167
1380.000000	97.221591
1379.000000	97.253955
1378.000000	97.288139
1377.000000	97.321191
1376.000000	97.353214
1375.000000	97.387225
1374.000000	97.423901
1373.000000	97.460657
1372.000000	97.495827
1371.000000	97.530427
1370.000000	97.566516
1369.000000	97.605133
1368.000000	97.645527
1367.000000	97.684729
1366.000000	97.720137
1365.000000	97.752727
1364.000000	97.786326
1363.000000	97.823509
1362.000000	97.863241
1361.000000	97.902426
1360.000000	97.938006
1359.000000	97.967947
1358.000000	97.992595
1357.000000	98.014928
1356.000000	98.037125
1355.000000	98.057132
1354.000000	98.071223
1353.000000	98.079480
1352.000000	98.085089
1351.000000	98.089592
1350.000000	98.091892
1349.000000	98.090797
1348.000000	98.086508
1347.000000	98.078863
1346.000000	98.067678
1345.000000	98.054987
1344.000000	98.044397
1343.000000	98.037504
1342.000000	98.033551
1341.000000	98.032256
1340.000000	98.034005
1339.000000	98.036981
1338.000000	98.038080
1337.000000	98.038155
1336.000000	98.041854
1335.000000	98.051238
1334.000000	98.063361
1333.000000	98.075380
1332.000000	98.089136
1331.000000	98.108173
1330.000000	98.131931
1329.000000	98.155939
1328.000000	98.177125
1327.000000	98.196079
1326.000000	98.214028
1325.000000	98.230190
1324.000000	98.243140
1323.000000	98.252616
1322.000000	98.259447
1321.000000	98.264631
1320.000000	98.269162
1319.000000	98.274248
1318.000000	98.281039
1317.000000	98.289879
1316.000000	98.299842
1315.000000	98.309386
1314.000000	98.318112
1313.000000	98.328044
1312.000000	98.342058
1311.000000	98.360589
1310.000000	98.380704
1309.000000	98.398700
1308.000000	98.412728
1307.000000	98.423183
1306.000000	98.431851
1305.000000	98.441155
1304.000000	98.453464
1303.000000	98.469279
1302.000000	98.486139
1301.000000	98.500306
1300.000000	98.510253
1299.000000	98.518163
1298.000000	98.527492
1297.000000	98.538893
1296.000000	98.548961
1295.000000	98.553624
1294.000000	98.552533
1293.000000	98.548966
1292.000000	98.545364
1291.000000	98.540280
1290.000000	98.530532
1289.000000	98.515809
1288.000000	98.499838
1287.000000	98.487028
1286.000000	98.478765
1285.000000	98.473472
1284.000000	98.469634
1283.000000	98.467478
1282.000000	98.467451
1281.000000	98.467821
1280.000000	98.465496
1279.000000	98.460200
1278.000000	98.456759
1277.000000	98.461333
1276.000000	98.474695
1275.000000	98.490817
1274.000000	98.502738
1273.000000	98.508687
1272.000000	98.511666
1271.000000	98.514570
1270.000000	98.517708
1269.000000	98.520298
1268.000000	98.521825
1267.000000	98.521500
1266.000000	98.518579
1265.000000	98.514289
1264.000000	98.511752
1263.000000	98.512446
1262.000000	98.513379
1261.000000	98.509417
1260.000000	98.498541
1259.000000	98.483814
1258.000000	98.469697
1257.000000	98.457203
1256.000000	98.443610
1255.000000	98.426422
1254.000000	98.406651
1253.000000	98.387802
1252.000000	98.371815
1251.000000	98.356956
1250.000000	98.339718
1249.000000	98.318038
1248.000000	98.292301
1247.000000	98.263999
1246.000000	98.234807
1245.000000	98.206779
1244.000000	98.181764
1243.000000	98.159769
1242.000000	98.139017
1241.000000	98.118561
1240.000000	98.099860
1239.000000	98.084732
1238.000000	98.072649
1237.000000	98.061901
1236.000000	98.052725
1235.000000	98.047679
1234.000000	98.049434
1233.000000	98.059332
1232.000000	98.077657
1231.000000	98.102926
1230.000000	98.131343
1229.000000	98.159777
1228.000000	98.189238
1227.000000	98.223469
1226.000000	98.263620
1225.000000	98.306243
1224.000000	98.347034
1223.000000	98.384250
1222.000000	98.417622
1221.000000	98.446399
1220.000000	98.470699
1219.000000	98.493354
1218.000000	98.517576
1217.000000	98.542278
1216.000000	98.561822
1215.000000	98.571759
1214.000000	98.573706
1213.000000	98.573752
1212.000000	98.576423
1211.000000	98.580833
1210.000000	98.582159
1209.000000	98.575824
1208.000000	98.560983
1207.000000	98.541315
1206.000000	98.522923
1205.000000	98.510622
1204.000000	98.505644
1203.000000	98.506456
1202.000000	98.511210
1201.000000	98.519371
1200.000000	98.531257
1199.000000	98.546622
1198.000000	98.563706
1197.000000	98.580099
1196.000000	98.595051
1195.000000	98.610619
1194.000000	98.629810
1193.000000	98.653040
1192.000000	98.677139
1191.000000	98.698682
1190.000000	98.717934
1189.000000	98.738414
1188.000000	98.762306
1187.000000	98.787065
1186.000000	98.806952
1185.000000	98.817868
1184.000000	98.820498
1183.000000	98.819568
1182.000000	98.820494
1181.000000	98.826014
1180.000000	98.835388
1179.000000	98.846065
1178.000000	98.855464
1177.000000	98.861481
1176.000000	98.862756
1175.000000	98.859751
1174.000000	98.855036
1173.000000	98.851639
1172.000000	98.851538
1171.000000	98.855723
1170.000000	98.863860
1169.000000	98.872642
1168.000000	98.876469
1167.000000	98.872452
1166.000000	98.864474
1165.000000	98.859991
1164.000000	98.862589
1163.000000	98.869161
1162.000000	98.874185
1161.000000	98.875207
1160.000000	98.874402
1159.000000	98.876661
1158.000000	98.886124
1157.000000	98.902451
1156.000000	98.920270
1155.000000	98.933823
1154.000000	98.942416
1153.000000	98.950029
1152.000000	98.959902
1151.000000	98.971869
1150.000000	98.984877
1149.000000	98.999111
1148.000000	99.014430
1147.000000	99.029125
1146.000000	99.041834
1145.000000	99.053054
1144.000000	99.063436
1143.000000	99.072152
1142.000000	99.078391
1141.000000	99.083241
1140.000000	99.088796
1139.000000	99.096129
1138.000000	99.104688
1137.000000	99.112852
1136.000000	99.118802
1135.000000	99.122161
1134.000000	99.125052
1133.000000	99.130002
1132.000000	99.136587
1131.000000	99.141790
1130.000000	99.143977
1129.000000	99.144714
1128.000000	99.146137
1127.000000	99.148561
1126.000000	99.151450
1125.000000	99.154824
1124.000000	99.158866
1123.000000	99.163644
1122.000000	99.169556
1121.000000	99.176162
1120.000000	99.180289
1119.000000	99.177874
1118.000000	99.168549
1117.000000	99.156267
1116.000000	99.144884
1115.000000	99.135674
1114.000000	99.129402
1113.000000	99.126827
1112.000000	99.125327
1111.000000	99.118794
1110.000000	99.104213
1109.000000	99.086305
1108.000000	99.072899
1107.000000	99.067129
1106.000000	99.066484
1105.000000	99.067478
1104.000000	99.068244
1103.000000	99.067731
1102.000000	99.065335
1101.000000	99.061209
1100.000000	99.055043
1099.000000	99.045367
1098.000000	99.032245
1097.000000	99.018652
1096.000000	99.007165
1095.000000	98.996734
1094.000000	98.985534
1093.000000	98.975288
1092.000000	98.968919
1091.000000	98.964674
1090.000000	98.956503
1089.000000	98.940781
1088.000000	98.919139
1087.000000	98.894278
1086.000000	98.867270
1085.000000	98.840669
1084.000000	98.820265
1083.000000	98.809610
1082.000000	98.804197
1081.000000	98.795130
1080.000000	98.779432
1079.000000	98.764293
1078.000000	98.759967
1077.000000	98.770077
1076.000000	98.789363
1075.000000	98.809727
1074.000000	98.827187
1073.000000	98.842927
1072.000000	98.858702
1071.000000	98.872666
1070.000000	98.880758
1069.000000	98.881286
1068.000000	98.876277
1067.000000	98.868288
1066.000000	98.858237
1065.000000	98.847527
1064.000000	98.840397
1063.000000	98.841261
1062.000000	98.849377
1061.000000	98.858305
1060.000000	98.861936
1059.000000	98.860088
1058.000000	98.857275
1057.000000	98.857006
1056.000000	98.858544
1055.000000	98.859149
1054.000000	98.858097
1053.000000	98.857707
1052.000000	98.860896
1051.000000	98.868078
1050.000000	98.876419
1049.000000	98.882204
1048.000000	98.884133
1047.000000	98.884119
1046.000000	98.884644
1045.000000	98.885738
1044.000000	98.885163
1043.000000	98.881113
1042.000000	98.873386
1041.000000	98.862179
1040.000000	98.847829
1039.000000	98.832794
1038.000000	98.822022
1037.000000	98.819001
1036.000000	98.821527
1035.000000	98.822718
1034.000000	98.816494
1033.000000	98.802250
1032.000000	98.785373
1031.000000	98.773906
1030.000000	98.773025
1029.000000	98.781022
1028.000000	98.790925
1027.000000	98.797088
1026.000000	98.799606
1025.000000	98.801863
1024.000000	98.806433
1023.000000	98.815211
1022.000000	98.831071
1021.000000	98.854890
1020.000000	98.881229
1019.000000	98.900983
1018.000000	98.909626
1017.000000	98.910195
1016.000000	98.907764
1015.000000	98.904915
1014.000000	98.903957
1013.000000	98.909304
1012.000000	98.923831
1011.000000	98.944697
1010.000000	98.965937
1009.000000	98.984593
1008.000000	99.001977
1007.000000	99.019398
1006.000000	99.035386
1005.000000	99.047684
1004.000000	99.056728
1003.000000	99.066443
1002.000000	99.081522
1001.000000	99.103404
1000.000000	99.128605
999.000000	99.151733
998.000000	99.170570
997.000000	99.187279
996.000000	99.204510
995.000000	99.221836
994.000000	99.236870
993.000000	99.248893
992.000000	99.260368
991.000000	99.275041
990.000000	99.294303
989.000000	99.314597
988.000000	99.329486
987.000000	99.336137
986.000000	99.339045
985.000000	99.344920
984.000000	99.354373
983.000000	99.362167
982.000000	99.365495
981.000000	99.367494
980.000000	99.371160
979.000000	99.374093
978.000000	99.372272
977.000000	99.365809
976.000000	99.358043
975.000000	99.351565
974.000000	99.348060
973.000000	99.349522
972.000000	99.355801
971.000000	99.362539
970.000000	99.365477
969.000000	99.366398
968.000000	99.371869
967.000000	99.386381
966.000000	99.408825
965.000000	99.434479
964.000000	99.457452
963.000000	99.472066
962.000000	99.475985
961.000000	99.473033
960.000000	99.470579
959.000000	99.473610
958.000000	99.482504
957.000000	99.495366
956.000000	99.509708
955.000000	99.522219
954.000000	99.530308
953.000000	99.534878
952.000000	99.539277
951.000000	99.544662
950.000000	99.548615
949.000000	99.549405
948.000000	99.549599
947.000000	99.553771
946.000000	99.563040
945.000000	99.572906
944.000000	99.576724
943.000000	99.571821
942.000000	99.562958
941.000000	99.558786
940.000000	99.563676
939.000000	99.573685
938.000000	99.581765
937.000000	99.586386
936.000000	99.592798
935.000000	99.605949
934.000000	99.624511
933.000000	99.642511
932.000000	99.655069
931.000000	99.661401
930.000000	99.663698
929.000000	99.664695
928.000000	99.665979
927.000000	99.667708
926.000000	99.669490
925.000000	99.671149
924.000000	99.672714
923.000000	99.674478
922.000000	99.677562
921.000000	99.683476
920.000000	99.692133
919.000000	99.700981
918.000000	99.707473
917.000000	99.711969
916.000000	99.716871
915.000000	99.723312
914.000000	99.730063
913.000000	99.735467
912.000000	99.738718
911.000000	99.739243
910.000000	99.736720
909.000000	99.732625
908.000000	99.730543
907.000000	99.733459
906.000000	99.740775
905.000000	99.748618
904.000000	99.753399
903.000000	99.755119
902.000000	99.757159
901.000000	99.762911
900.000000	99.772896
899.000000	99.785437
898.000000	99.799512
897.000000	99.815222
896.000000	99.831238
895.000000	99.843468
894.000000	99.847943
893.000000	99.844819
892.000000	99.838628
891.000000	99.834825
890.000000	99.835778
889.000000	99.838658
888.000000	99.836568
887.000000	99.822446
886.000000	99.793500
885.000000	99.751901
884.000000	99.701057
883.000000	99.641732
882.000000	99.569758
881.000000	99.475877
880.000000	99.348940
879.000000	99.183494
878.000000	98.985157
877.000000	98.764620
876.000000	98.527400
875.000000	98.278160
874.000000	98.043460
873.000000	97.883701
872.000000	97.868579
871.000000	98.025248
870.000000	98.308215
869.000000	98.626744
868.000000	98.902844
867.000000	99.107133
866.000000	99.250415
865.000000	99.353895
864.000000	99.430460
863.000000	99.485473
862.000000	99.523831
861.000000	99.552104
860.000000	99.575927
859.000000	99.597858
858.000000	99.618037
857.000000	99.635457
856.000000	99.649489
855.000000	99.661512
854.000000	99.674637
853.000000	99.690251
852.000000	99.704607
851.000000	99.711139
850.000000	99.707640
849.000000	99.699901
848.000000	99.696856
847.000000	99.702595
846.000000	99.714487
845.000000	99.728444
844.000000	99.743588
843.000000	99.760917
842.000000	99.778803
841.000000	99.791982
840.000000	99.795712
839.000000	99.790438
838.000000	99.781903
837.000000	99.776411
836.000000	99.776564
835.000000	99.781669
834.000000	99.790553
833.000000	99.802209
832.000000	99.814262
831.000000	99.823465
830.000000	99.828826
829.000000	99.832724
828.000000	99.837635
827.000000	99.843070
826.000000	99.846874
825.000000	99.847709
824.000000	99.844460
823.000000	99.835176
822.000000	99.819658
821.000000	99.802541
820.000000	99.790717
819.000000	99.787122
818.000000	99.788727
817.000000	99.790829
816.000000	99.791828
815.000000	99.793887
814.000000	99.800731
813.000000	99.814777
812.000000	99.833818
811.000000	99.849476
810.000000	99.851939
809.000000	99.839428
808.000000	99.821987
807.000000	99.813071
806.000000	99.817286
805.000000	99.828118
804.000000	99.837143
803.000000	99.842032
802.000000	99.844462
801.000000	99.844133
800.000000	99.838688
799.000000	99.828375
798.000000	99.816926
797.000000	99.807151
796.000000	99.798345
795.000000	99.789530
794.000000	99.783001
793.000000	99.782158
792.000000	99.786760
791.000000	99.792983
790.000000	99.798731
789.000000	99.806747
788.000000	99.820331
787.000000	99.836619
786.000000	99.846840
785.000000	99.844823
784.000000	99.834006
783.000000	99.824082
782.000000	99.821193
781.000000	99.823687
780.000000	99.827367
779.000000	99.831197
778.000000	99.835371
777.000000	99.836822
776.000000	99.831470
775.000000	99.821063
774.000000	99.813674
773.000000	99.815458
772.000000	99.823987
771.000000	99.830951
770.000000	99.829263
769.000000	99.816533
768.000000	99.795229
767.000000	99.773177
766.000000	99.761849
765.000000	99.768925
764.000000	99.790783
763.000000	99.814544
762.000000	99.828980
761.000000	99.832364
760.000000	99.829751
759.000000	99.825533
758.000000	99.820776
757.000000	99.815971
756.000000	99.813067
755.000000	99.814217
754.000000	99.820050
753.000000	99.829558
752.000000	99.840210
751.000000	99.847574
750.000000	99.846561
749.000000	99.835464
748.000000	99.819072
747.000000	99.805562
746.000000	99.799102
745.000000	99.796387
744.000000	99.791494
743.000000	99.783305
742.000000	99.776464
741.000000	99.775345
740.000000	99.779225
739.000000	99.783910
738.000000	99.785556
737.000000	99.781437
736.000000	99.769450
735.000000	99.750109
734.000000	99.728737
733.000000	99.712384
732.000000	99.702895
731.000000	99.694587
730.000000	99.680427
729.000000	99.659609
728.000000	99.639094
727.000000	99.627582
726.000000	99.626830
725.000000	99.629671
724.000000	99.626605
723.000000	99.613260
722.000000	99.591267
721.000000	99.564256
720.000000	99.535087
719.000000	99.505390
718.000000	99.474564
717.000000	99.437754
716.000000	99.387063
715.000000	99.319747
714.000000	99.248127
713.000000	99.198129
712.000000	99.191988
711.000000	99.228833
710.000000	99.284231
709.000000	99.330860
708.000000	99.358861
707.000000	99.375421
706.000000	99.386933
705.000000	99.390736
704.000000	99.385697
703.000000	99.379737
702.000000	99.381347
701.000000	99.389524
700.000000	99.397940
699.000000	99.405456
698.000000	99.413551
697.000000	99.417389
696.000000	99.410557
695.000000	99.396780
694.000000	99.388818
693.000000	99.392757
692.000000	99.400877
691.000000	99.405864
690.000000	99.411022
689.000000	99.421501
688.000000	99.433368
687.000000	99.438961
686.000000	99.438934
685.000000	99.437132
684.000000	99.428092
683.000000	99.403232
682.000000	99.367154
681.000000	99.336166
680.000000	99.319732
679.000000	99.313591
678.000000	99.310564
677.000000	99.304548
676.000000	99.290162
675.000000	99.268089
674.000000	99.251044
673.000000	99.254924
672.000000	99.281479
671.000000	99.320004
670.000000	99.360994
669.000000	99.399138
668.000000	99.408272
667.000000	99.362545
666.000000	99.298213
665.000000	99.237335
664.000000	99.185451
663.000000	99.154408
662.000000	99.146749
661.000000	99.152628
660.000000	99.160485
659.000000	99.166462
658.000000	99.168727
657.000000	99.162618
656.000000	99.151869
655.000000	99.150811
654.000000	99.165726
653.000000	99.184973
652.000000	99.195742
651.000000	99.198488
650.000000	99.200656
649.000000	99.204575
648.000000	99.206941
647.000000	99.201914
646.000000	99.182133
645.000000	99.148554
644.000000	99.118004
643.000000	99.108808
642.000000	99.119485
641.000000	99.131563
640.000000	99.135378
639.000000	99.139239
638.000000	99.149222
637.000000	99.157567
636.000000	99.158984
635.000000	99.161900
634.000000	99.172832
633.000000	99.182458
632.000000	99.178669
631.000000	99.164451
630.000000	99.151989
629.000000	99.145814
628.000000	99.143624
627.000000	99.146953
626.000000	99.157669
625.000000	99.168216
624.000000	99.165292
623.000000	99.143655
622.000000	99.111481
621.000000	99.083096
620.000000	99.069854
619.000000	99.074381
618.000000	99.087955
617.000000	99.095654
616.000000	99.089168
615.000000	99.074349
614.000000	99.064473
613.000000	99.068833
612.000000	99.088340
611.000000	99.115367
610.000000	99.135727
609.000000	99.137575
608.000000	99.122191
607.000000	99.102000
606.000000	99.086171
605.000000	99.076575
604.000000	99.076713
603.000000	99.092082
602.000000	99.118016
601.000000	99.139055
600.000000	99.147622
599.000000	99.153342
598.000000	99.164927
597.000000	99.172916
596.000000	99.163082
595.000000	99.139462
594.000000	99.121563
593.000000	99.121052
592.000000	99.131964
591.000000	99.143312
590.000000	99.150707
589.000000	99.154331
588.000000	99.154162
587.000000	99.149139
586.000000	99.136067
585.000000	99.110893
584.000000	99.077448
583.000000	99.052376
582.000000	99.052768
581.000000	99.078893
580.000000	99.113896
579.000000	99.139589
578.000000	99.147527
577.000000	99.138366
576.000000	99.119544
575.000000	99.102144
574.000000	99.091751
573.000000	99.083976
572.000000	99.074229
571.000000	99.066707
570.000000	99.067524
569.000000	99.071620
568.000000	99.066080
567.000000	99.044443
566.000000	99.009846
565.000000	98.966889
564.000000	98.919826
563.000000	98.878565
562.000000	98.855477
561.000000	98.854402
560.000000	98.868470
559.000000	98.887092
558.000000	98.900671
557.000000	98.903405
556.000000	98.897665
555.000000	98.893093
554.000000	98.896368
553.000000	98.905197
552.000000	98.915828
551.000000	98.928576
550.000000	98.941100
549.000000	98.946476
548.000000	98.946098
547.000000	98.953681
546.000000	98.975311
545.000000	98.994315
544.000000	98.991926
543.000000	98.974348
542.000000	98.962876
541.000000	98.962698
540.000000	98.958204
539.000000	98.938128
538.000000	98.909250
537.000000	98.884565
536.000000	98.871329
535.000000	98.874140
534.000000	98.894637
533.000000	98.921070
532.000000	98.929281
531.000000	98.903212
530.000000	98.851601
529.000000	98.798488
528.000000	98.761627
527.000000	98.745128
526.000000	98.745253
525.000000	98.756902
524.000000	98.775433
523.000000	98.794242
522.000000	98.805575
521.000000	98.810658
520.000000	98.825748
519.000000	98.868067
518.000000	98.931026
517.000000	98.985461
516.000000	99.014705
515.000000	99.029178
514.000000	99.041460
513.000000	99.048336
512.000000	99.046378
511.000000	99.049807
510.000000	99.076756
509.000000	99.124132
508.000000	99.168468
507.000000	99.189139
506.000000	99.181365
505.000000	99.152479
504.000000	99.118251
503.000000	99.102080
502.000000	99.120112
501.000000	99.157618
500.000000	99.180344
499.000000	99.173336
498.000000	99.154227
497.000000	99.154021
496.000000	99.189401
495.000000	99.249990
494.000000	99.306791
493.000000	99.330920
492.000000	99.313392
491.000000	99.273126
490.000000	99.243284
489.000000	99.248533
488.000000	99.289282
487.000000	99.338924
486.000000	99.359776
485.000000	99.337448
484.000000	99.300393
483.000000	99.284817
482.000000	99.283763
481.000000	99.259070
480.000000	99.200889
479.000000	99.146723
478.000000	99.134341
477.000000	99.160763
476.000000	99.202503
475.000000	99.250121
474.000000	99.298648
473.000000	99.322945
472.000000	99.296398
471.000000	99.235577
470.000000	99.183858
469.000000	99.162650
468.000000	99.172550
467.000000	99.211284
466.000000	99.268577
465.000000	99.325812
464.000000	99.375799
463.000000	99.425058
462.000000	99.467040
461.000000	99.477270
460.000000	99.456233
459.000000	99.454268
458.000000	99.525223
457.000000	99.646623
456.000000	99.744156
455.000000	99.795735
454.000000	99.830867
453.000000	99.865162
452.000000	99.880268
451.000000	99.854265
450.000000	99.793170
