PE IR       SUBTECH     SPECTRUM    ASCII       PEDS        4.00        
   -1
AG10-C002_1.ASC
23/09/08
10:24:12.00
23/09/08
11:14:38.00
uco
Sample 002 By uco Date Friday, September 08 2023
450.000000
#HDR
-1
-1
#GR
cm-1
%T
1.0
0.0
4000.000000
-1.000000
3551
8
100.428068
96.755839
#DATA
4000.000000	99.857683
3999.000000	99.856702
3998.000000	99.856050
3997.000000	99.856562
3996.000000	99.857778
3995.000000	99.858744
3994.000000	99.859039
3993.000000	99.858922
3992.000000	99.858705
3991.000000	99.858196
3990.000000	99.856763
3989.000000	99.853963
3988.000000	99.850205
3987.000000	99.846868
3986.000000	99.845583
3985.000000	99.847003
3984.000000	99.850117
3983.000000	99.852836
3982.000000	99.853520
3981.000000	99.852285
3980.000000	99.850802
3979.000000	99.850820
3978.000000	99.852806
3977.000000	99.855768
3976.000000	99.858140
3975.000000	99.858834
3974.000000	99.857788
3973.000000	99.855694
3972.000000	99.853249
3971.000000	99.850590
3970.000000	99.847420
3969.000000	99.843704
3968.000000	99.840221
3967.000000	99.838364
3966.000000	99.839116
3965.000000	99.842162
3964.000000	99.845944
3963.000000	99.848536
3962.000000	99.848683
3961.000000	99.846131
3960.000000	99.841613
3959.000000	99.836800
3958.000000	99.833760
3957.000000	99.833558
3956.000000	99.834848
3955.000000	99.834627
3954.000000	99.830845
3953.000000	99.824383
3952.000000	99.818381
3951.000000	99.815856
3950.000000	99.817700
3949.000000	99.822645
3948.000000	99.828976
3947.000000	99.835762
3946.000000	99.842502
3945.000000	99.848158
3944.000000	99.851508
3943.000000	99.852013
3942.000000	99.849546
3941.000000	99.843884
3940.000000	99.835498
3939.000000	99.826401
3938.000000	99.819599
3937.000000	99.817332
3936.000000	99.819235
3935.000000	99.822938
3934.000000	99.826321
3933.000000	99.828806
3932.000000	99.830374
3931.000000	99.830316
3930.000000	99.828475
3929.000000	99.826429
3928.000000	99.825927
3927.000000	99.826741
3926.000000	99.827474
3925.000000	99.828288
3924.000000	99.830558
3923.000000	99.833985
3922.000000	99.836204
3921.000000	99.835331
3920.000000	99.832156
3919.000000	99.829449
3918.000000	99.829741
3917.000000	99.833362
3916.000000	99.837785
3915.000000	99.839104
3914.000000	99.835270
3913.000000	99.827986
3912.000000	99.821772
3911.000000	99.820445
3910.000000	99.824318
3909.000000	99.831159
3908.000000	99.838101
3907.000000	99.842454
3906.000000	99.841817
3905.000000	99.836560
3904.000000	99.831056
3903.000000	99.829416
3902.000000	99.830890
3901.000000	99.831375
3900.000000	99.828689
3899.000000	99.824011
3898.000000	99.818975
3897.000000	99.813884
3896.000000	99.809413
3895.000000	99.806971
3894.000000	99.806869
3893.000000	99.807601
3892.000000	99.808876
3891.000000	99.813176
3890.000000	99.821890
3889.000000	99.832677
3888.000000	99.838374
3887.000000	99.832787
3886.000000	99.821693
3885.000000	99.817959
3884.000000	99.825008
3883.000000	99.834413
3882.000000	99.836061
3881.000000	99.828852
3880.000000	99.821018
3879.000000	99.819122
3878.000000	99.822407
3877.000000	99.825696
3876.000000	99.824697
3875.000000	99.822766
3874.000000	99.828841
3873.000000	99.845228
3872.000000	99.861890
3871.000000	99.867298
3870.000000	99.863326
3869.000000	99.859898
3868.000000	99.859850
3867.000000	99.857358
3866.000000	99.847581
3865.000000	99.834746
3864.000000	99.827468
3863.000000	99.826965
3862.000000	99.828093
3861.000000	99.827034
3860.000000	99.823668
3859.000000	99.820667
3858.000000	99.822346
3857.000000	99.831278
3856.000000	99.840772
3855.000000	99.837733
3854.000000	99.828018
3853.000000	99.829808
3852.000000	99.837394
3851.000000	99.836867
3850.000000	99.827295
3849.000000	99.815103
3848.000000	99.807113
3847.000000	99.806505
3846.000000	99.812487
3845.000000	99.822008
3844.000000	99.831803
3843.000000	99.839705
3842.000000	99.844464
3841.000000	99.844771
3840.000000	99.840256
3839.000000	99.834441
3838.000000	99.832993
3837.000000	99.837848
3836.000000	99.845344
3835.000000	99.850456
3834.000000	99.850142
3833.000000	99.844742
3832.000000	99.838577
3831.000000	99.836355
3830.000000	99.838837
3829.000000	99.842176
3828.000000	99.841756
3827.000000	99.837630
3826.000000	99.835300
3825.000000	99.839317
3824.000000	99.846407
3823.000000	99.846504
3822.000000	99.837511
3821.000000	99.831554
3820.000000	99.834475
3819.000000	99.838963
3818.000000	99.834779
3817.000000	99.818207
3816.000000	99.800292
3815.000000	99.793379
3814.000000	99.795231
3813.000000	99.797723
3812.000000	99.799253
3811.000000	99.804574
3810.000000	99.815568
3809.000000	99.824615
3808.000000	99.822823
3807.000000	99.813827
3806.000000	99.809715
3805.000000	99.816028
3804.000000	99.826587
3803.000000	99.830717
3802.000000	99.829583
3801.000000	99.833999
3800.000000	99.843557
3799.000000	99.848955
3798.000000	99.843668
3797.000000	99.829274
3796.000000	99.814354
3795.000000	99.805699
3794.000000	99.803173
3793.000000	99.802986
3792.000000	99.802518
3791.000000	99.801214
3790.000000	99.799583
3789.000000	99.798518
3788.000000	99.798842
3787.000000	99.800594
3786.000000	99.803394
3785.000000	99.807361
3784.000000	99.812816
3783.000000	99.818312
3782.000000	99.820136
3781.000000	99.815214
3780.000000	99.805957
3779.000000	99.799298
3778.000000	99.798752
3777.000000	99.801492
3776.000000	99.803355
3775.000000	99.804146
3774.000000	99.806848
3773.000000	99.812015
3772.000000	99.815610
3771.000000	99.814962
3770.000000	99.813547
3769.000000	99.814958
3768.000000	99.816858
3767.000000	99.814627
3766.000000	99.808143
3765.000000	99.802616
3764.000000	99.802273
3763.000000	99.805661
3762.000000	99.808592
3761.000000	99.809925
3760.000000	99.811908
3759.000000	99.814107
3758.000000	99.812899
3757.000000	99.809688
3756.000000	99.811436
3755.000000	99.822752
3754.000000	99.840773
3753.000000	99.857557
3752.000000	99.865701
3751.000000	99.862725
3750.000000	99.853263
3749.000000	99.846793
3748.000000	99.849165
3747.000000	99.854270
3746.000000	99.846096
3745.000000	99.826132
3744.000000	99.818439
3743.000000	99.828163
3742.000000	99.839788
3741.000000	99.844879
3740.000000	99.847319
3739.000000	99.853686
3738.000000	99.862650
3737.000000	99.867645
3736.000000	99.867337
3735.000000	99.865400
3734.000000	99.862316
3733.000000	99.855375
3732.000000	99.845117
3731.000000	99.835934
3730.000000	99.831157
3729.000000	99.829973
3728.000000	99.829474
3727.000000	99.829693
3726.000000	99.832556
3725.000000	99.835951
3724.000000	99.834910
3723.000000	99.827992
3722.000000	99.819362
3721.000000	99.813985
3720.000000	99.812624
3719.000000	99.812084
3718.000000	99.809860
3717.000000	99.807650
3716.000000	99.808871
3715.000000	99.814171
3714.000000	99.820861
3713.000000	99.826808
3712.000000	99.832902
3711.000000	99.838638
3710.000000	99.840569
3709.000000	99.837708
3708.000000	99.832712
3707.000000	99.828975
3706.000000	99.828249
3705.000000	99.829582
3704.000000	99.829806
3703.000000	99.826867
3702.000000	99.823088
3701.000000	99.823013
3700.000000	99.827798
3699.000000	99.833775
3698.000000	99.836341
3697.000000	99.835141
3696.000000	99.834245
3695.000000	99.836623
3694.000000	99.841522
3693.000000	99.846953
3692.000000	99.852125
3691.000000	99.856065
3690.000000	99.856693
3689.000000	99.853233
3688.000000	99.847311
3687.000000	99.841406
3686.000000	99.836729
3685.000000	99.833100
3684.000000	99.830873
3683.000000	99.831184
3682.000000	99.832940
3681.000000	99.833949
3680.000000	99.835674
3679.000000	99.842072
3678.000000	99.850992
3677.000000	99.853594
3676.000000	99.851660
3675.000000	99.854828
3674.000000	99.862063
3673.000000	99.868202
3672.000000	99.868827
3671.000000	99.862468
3670.000000	99.855518
3669.000000	99.850308
3668.000000	99.841730
3667.000000	99.829313
3666.000000	99.817644
3665.000000	99.810483
3664.000000	99.807930
3663.000000	99.806803
3662.000000	99.804077
3661.000000	99.800594
3660.000000	99.799732
3659.000000	99.802606
3658.000000	99.805958
3657.000000	99.807420
3656.000000	99.809172
3655.000000	99.812956
3654.000000	99.817273
3653.000000	99.817863
3652.000000	99.810182
3651.000000	99.797146
3650.000000	99.791257
3649.000000	99.797717
3648.000000	99.805341
3647.000000	99.804338
3646.000000	99.796300
3645.000000	99.785721
3644.000000	99.774085
3643.000000	99.761953
3642.000000	99.751714
3641.000000	99.746114
3640.000000	99.744872
3639.000000	99.745760
3638.000000	99.747993
3637.000000	99.752128
3636.000000	99.757043
3635.000000	99.760011
3634.000000	99.760780
3633.000000	99.762479
3632.000000	99.766685
3631.000000	99.768010
3630.000000	99.762191
3629.000000	99.758118
3628.000000	99.761677
3627.000000	99.765431
3626.000000	99.764314
3625.000000	99.760359
3624.000000	99.758314
3623.000000	99.760836
3622.000000	99.764567
3621.000000	99.762774
3620.000000	99.753617
3619.000000	99.743040
3618.000000	99.737023
3617.000000	99.735938
3616.000000	99.736714
3615.000000	99.736478
3614.000000	99.735259
3613.000000	99.734878
3612.000000	99.734888
3611.000000	99.731922
3610.000000	99.723629
3609.000000	99.712815
3608.000000	99.705461
3607.000000	99.703302
3606.000000	99.702336
3605.000000	99.698676
3604.000000	99.691876
3603.000000	99.683829
3602.000000	99.676673
3601.000000	99.672491
3600.000000	99.672775
3599.000000	99.676804
3598.000000	99.681131
3597.000000	99.681538
3596.000000	99.676418
3595.000000	99.669240
3594.000000	99.666538
3593.000000	99.671622
3592.000000	99.681663
3591.000000	99.690145
3590.000000	99.690969
3589.000000	99.683276
3588.000000	99.673848
3587.000000	99.669559
3586.000000	99.668876
3585.000000	99.666696
3584.000000	99.661149
3583.000000	99.653197
3582.000000	99.644152
3581.000000	99.634729
3580.000000	99.625230
3579.000000	99.615735
3578.000000	99.606372
3577.000000	99.597523
3576.000000	99.589863
3575.000000	99.583913
3574.000000	99.579962
3573.000000	99.578378
3572.000000	99.579764
3571.000000	99.583990
3570.000000	99.589101
3569.000000	99.592987
3568.000000	99.596978
3567.000000	99.603613
3566.000000	99.610301
3565.000000	99.611658
3564.000000	99.606345
3563.000000	99.597146
3562.000000	99.587863
3561.000000	99.581088
3560.000000	99.577237
3559.000000	99.574853
3558.000000	99.572164
3557.000000	99.568698
3556.000000	99.565340
3555.000000	99.562709
3554.000000	99.559999
3553.000000	99.556085
3552.000000	99.551273
3551.000000	99.546786
3550.000000	99.542404
3549.000000	99.535699
3548.000000	99.524580
3547.000000	99.510523
3546.000000	99.498502
3545.000000	99.492937
3544.000000	99.494064
3543.000000	99.498541
3542.000000	99.502708
3541.000000	99.505033
3540.000000	99.506030
3539.000000	99.506461
3538.000000	99.505629
3537.000000	99.501785
3536.000000	99.494276
3535.000000	99.485098
3534.000000	99.477784
3533.000000	99.474695
3532.000000	99.475428
3531.000000	99.477326
3530.000000	99.477367
3529.000000	99.473967
3528.000000	99.467463
3527.000000	99.459410
3526.000000	99.452009
3525.000000	99.447676
3524.000000	99.447549
3523.000000	99.449584
3522.000000	99.449478
3521.000000	99.444810
3520.000000	99.437418
3519.000000	99.430973
3518.000000	99.426894
3517.000000	99.423447
3516.000000	99.418717
3515.000000	99.413356
3514.000000	99.409729
3513.000000	99.408993
3512.000000	99.409974
3511.000000	99.410831
3510.000000	99.411117
3509.000000	99.411728
3508.000000	99.412990
3507.000000	99.413281
3506.000000	99.410077
3505.000000	99.402701
3504.000000	99.394077
3503.000000	99.388585
3502.000000	99.387509
3501.000000	99.387578
3500.000000	99.384386
3499.000000	99.376623
3498.000000	99.367272
3497.000000	99.361272
3496.000000	99.361076
3495.000000	99.364016
3494.000000	99.364655
3493.000000	99.360249
3492.000000	99.353262
3491.000000	99.348193
3490.000000	99.346649
3489.000000	99.346316
3488.000000	99.344398
3487.000000	99.340556
3486.000000	99.336140
3485.000000	99.332090
3484.000000	99.328833
3483.000000	99.327305
3482.000000	99.328358
3481.000000	99.330891
3480.000000	99.331819
3479.000000	99.328578
3478.000000	99.321344
3477.000000	99.312706
3476.000000	99.305441
3475.000000	99.300337
3474.000000	99.296031
3473.000000	99.291150
3472.000000	99.286364
3471.000000	99.283855
3470.000000	99.284775
3469.000000	99.287844
3468.000000	99.290701
3467.000000	99.292116
3466.000000	99.292469
3465.000000	99.292683
3464.000000	99.293506
3463.000000	99.295500
3462.000000	99.298702
3461.000000	99.301918
3460.000000	99.302944
3459.000000	99.300090
3458.000000	99.293539
3457.000000	99.285332
3456.000000	99.278040
3455.000000	99.273121
3454.000000	99.270277
3453.000000	99.268490
3452.000000	99.267463
3451.000000	99.267376
3450.000000	99.267476
3449.000000	99.266207
3448.000000	99.263533
3447.000000	99.261884
3446.000000	99.263150
3445.000000	99.265560
3444.000000	99.265261
3443.000000	99.260692
3442.000000	99.254121
3441.000000	99.248680
3440.000000	99.244960
3439.000000	99.241207
3438.000000	99.235925
3437.000000	99.229401
3436.000000	99.223065
3435.000000	99.218159
3434.000000	99.215060
3433.000000	99.213387
3432.000000	99.212428
3431.000000	99.211445
3430.000000	99.210060
3429.000000	99.208863
3428.000000	99.209451
3427.000000	99.213040
3426.000000	99.218493
3425.000000	99.222256
3424.000000	99.221071
3423.000000	99.214907
3422.000000	99.206842
3421.000000	99.200094
3420.000000	99.195449
3419.000000	99.191595
3418.000000	99.187227
3417.000000	99.182173
3416.000000	99.177008
3415.000000	99.172382
3414.000000	99.168728
3413.000000	99.166141
3412.000000	99.164260
3411.000000	99.162524
3410.000000	99.160925
3409.000000	99.160523
3408.000000	99.162729
3407.000000	99.167753
3406.000000	99.173909
3405.000000	99.178755
3404.000000	99.180890
3403.000000	99.180461
3402.000000	99.178131
3401.000000	99.174155
3400.000000	99.168666
3399.000000	99.162414
3398.000000	99.156699
3397.000000	99.152470
3396.000000	99.149726
3395.000000	99.147910
3394.000000	99.146682
3393.000000	99.146189
3392.000000	99.146675
3391.000000	99.147966
3390.000000	99.149345
3389.000000	99.149906
3388.000000	99.148975
3387.000000	99.146321
3386.000000	99.142179
3385.000000	99.137143
3384.000000	99.131828
3383.000000	99.126425
3382.000000	99.120699
3381.000000	99.114705
3380.000000	99.109454
3379.000000	99.106444
3378.000000	99.106259
3377.000000	99.107847
3376.000000	99.109432
3375.000000	99.110095
3374.000000	99.110400
3373.000000	99.111517
3372.000000	99.113597
3371.000000	99.114721
3370.000000	99.111554
3369.000000	99.101958
3368.000000	99.087751
3367.000000	99.074477
3366.000000	99.067228
3365.000000	99.066317
3364.000000	99.067528
3363.000000	99.066616
3362.000000	99.062874
3361.000000	99.058297
3360.000000	99.054327
3359.000000	99.050330
3358.000000	99.044937
3357.000000	99.037897
3356.000000	99.030265
3355.000000	99.023241
3354.000000	99.017307
3353.000000	99.012403
3352.000000	99.008458
3351.000000	99.005371
3350.000000	99.002486
3349.000000	98.998622
3348.000000	98.993145
3347.000000	98.987068
3346.000000	98.982564
3345.000000	98.980988
3344.000000	98.981296
3343.000000	98.980556
3342.000000	98.976045
3341.000000	98.967051
3340.000000	98.955261
3339.000000	98.943903
3338.000000	98.936191
3337.000000	98.933529
3336.000000	98.934314
3335.000000	98.934527
3334.000000	98.930262
3333.000000	98.920552
3332.000000	98.908199
3331.000000	98.897786
3330.000000	98.892306
3329.000000	98.891147
3328.000000	98.891053
3327.000000	98.889066
3326.000000	98.884794
3325.000000	98.880169
3324.000000	98.877270
3323.000000	98.876487
3322.000000	98.876623
3321.000000	98.876476
3320.000000	98.876024
3319.000000	98.875967
3318.000000	98.876337
3317.000000	98.876004
3316.000000	98.873821
3315.000000	98.869960
3314.000000	98.865683
3313.000000	98.861780
3312.000000	98.857686
3311.000000	98.852344
3310.000000	98.845826
3309.000000	98.839961
3308.000000	98.837222
3307.000000	98.838613
3306.000000	98.842200
3305.000000	98.843845
3304.000000	98.840126
3303.000000	98.831242
3302.000000	98.821053
3301.000000	98.813892
3300.000000	98.811162
3299.000000	98.810912
3298.000000	98.810438
3297.000000	98.809150
3296.000000	98.809269
3295.000000	98.813809
3294.000000	98.823468
3293.000000	98.835233
3292.000000	98.844353
3291.000000	98.848168
3290.000000	98.847833
3289.000000	98.846073
3288.000000	98.843929
3287.000000	98.840557
3286.000000	98.835788
3285.000000	98.831432
3284.000000	98.829590
3283.000000	98.830484
3282.000000	98.832645
3281.000000	98.834682
3280.000000	98.836067
3279.000000	98.836595
3278.000000	98.836066
3277.000000	98.834597
3276.000000	98.832564
3275.000000	98.830023
3274.000000	98.826808
3273.000000	98.823483
3272.000000	98.821633
3271.000000	98.822584
3270.000000	98.825980
3269.000000	98.830108
3268.000000	98.833625
3267.000000	98.836616
3266.000000	98.840004
3265.000000	98.844300
3264.000000	98.849075
3263.000000	98.853338
3262.000000	98.856103
3261.000000	98.856818
3260.000000	98.855787
3259.000000	98.854380
3258.000000	98.854341
3257.000000	98.856368
3256.000000	98.859418
3255.000000	98.861752
3254.000000	98.862875
3253.000000	98.864170
3252.000000	98.867396
3251.000000	98.872750
3250.000000	98.878606
3249.000000	98.883003
3248.000000	98.885058
3247.000000	98.885038
3246.000000	98.883731
3245.000000	98.882132
3244.000000	98.881266
3243.000000	98.881411
3242.000000	98.881433
3241.000000	98.879776
3240.000000	98.876910
3239.000000	98.876261
3238.000000	98.881494
3237.000000	98.892562
3236.000000	98.905039
3235.000000	98.913856
3234.000000	98.917160
3233.000000	98.916428
3232.000000	98.914000
3231.000000	98.911582
3230.000000	98.910596
3229.000000	98.912224
3228.000000	98.916319
3227.000000	98.920993
3226.000000	98.924077
3225.000000	98.924926
3224.000000	98.924626
3223.000000	98.924854
3222.000000	98.926779
3221.000000	98.930561
3220.000000	98.935083
3219.000000	98.938181
3218.000000	98.937919
3217.000000	98.934226
3216.000000	98.929460
3215.000000	98.927182
3214.000000	98.929716
3213.000000	98.936418
3212.000000	98.944189
3211.000000	98.949969
3210.000000	98.953069
3209.000000	98.955226
3208.000000	98.958497
3207.000000	98.963050
3206.000000	98.967007
3205.000000	98.968362
3204.000000	98.966957
3203.000000	98.964552
3202.000000	98.962939
3201.000000	98.962322
3200.000000	98.961840
3199.000000	98.961371
3198.000000	98.961927
3197.000000	98.963964
3196.000000	98.966221
3195.000000	98.967185
3194.000000	98.967288
3193.000000	98.968543
3192.000000	98.971934
3191.000000	98.976082
3190.000000	98.978969
3189.000000	98.980391
3188.000000	98.982188
3187.000000	98.986297
3186.000000	98.992874
3185.000000	99.000001
3184.000000	99.005077
3183.000000	99.006850
3182.000000	99.006448
3181.000000	99.006343
3180.000000	99.008166
3179.000000	99.011724
3178.000000	99.016009
3177.000000	99.020611
3176.000000	99.025687
3175.000000	99.030954
3174.000000	99.035484
3173.000000	99.038584
3172.000000	99.040551
3171.000000	99.042447
3170.000000	99.045363
3169.000000	99.049994
3168.000000	99.056576
3167.000000	99.064877
3166.000000	99.073948
3165.000000	99.081965
3164.000000	99.086761
3163.000000	99.087206
3162.000000	99.084398
3161.000000	99.081236
3160.000000	99.080388
3159.000000	99.082280
3158.000000	99.084945
3157.000000	99.085993
3156.000000	99.084962
3155.000000	99.083904
3154.000000	99.085530
3153.000000	99.090669
3152.000000	99.097647
3151.000000	99.104221
3150.000000	99.109499
3149.000000	99.113530
3148.000000	99.115668
3147.000000	99.114777
3146.000000	99.111481
3145.000000	99.109134
3144.000000	99.111420
3143.000000	99.118975
3142.000000	99.128910
3141.000000	99.137533
3140.000000	99.143111
3139.000000	99.146254
3138.000000	99.148502
3137.000000	99.150806
3136.000000	99.152875
3135.000000	99.153608
3134.000000	99.152378
3133.000000	99.150232
3132.000000	99.149732
3131.000000	99.153224
3130.000000	99.160921
3129.000000	99.170487
3128.000000	99.178475
3127.000000	99.182435
3126.000000	99.182039
3125.000000	99.178712
3124.000000	99.174748
3123.000000	99.172659
3122.000000	99.174271
3121.000000	99.179258
3120.000000	99.184523
3119.000000	99.186257
3118.000000	99.183548
3117.000000	99.179660
3116.000000	99.179014
3115.000000	99.182722
3114.000000	99.187588
3113.000000	99.189423
3112.000000	99.186786
3111.000000	99.181472
3110.000000	99.176248
3109.000000	99.172744
3108.000000	99.171122
3107.000000	99.170713
3106.000000	99.170345
3105.000000	99.168606
3104.000000	99.164711
3103.000000	99.159518
3102.000000	99.155364
3101.000000	99.154344
3100.000000	99.156436
3099.000000	99.159423
3098.000000	99.160788
3097.000000	99.159701
3096.000000	99.157307
3095.000000	99.155420
3094.000000	99.155080
3093.000000	99.156180
3092.000000	99.157962
3091.000000	99.159506
3090.000000	99.159878
3089.000000	99.158422
3088.000000	99.155452
3087.000000	99.152481
3086.000000	99.151043
3085.000000	99.150950
3084.000000	99.150242
3083.000000	99.147541
3082.000000	99.144204
3081.000000	99.143224
3080.000000	99.145793
3079.000000	99.149754
3078.000000	99.152050
3077.000000	99.152049
3076.000000	99.151574
3075.000000	99.151946
3074.000000	99.152058
3073.000000	99.149920
3072.000000	99.145608
3071.000000	99.141828
3070.000000	99.141210
3069.000000	99.143326
3068.000000	99.144898
3067.000000	99.143144
3066.000000	99.138760
3065.000000	99.135351
3064.000000	99.136110
3063.000000	99.141446
3062.000000	99.149442
3061.000000	99.157557
3060.000000	99.163628
3059.000000	99.166436
3058.000000	99.166632
3057.000000	99.166974
3056.000000	99.170472
3055.000000	99.177696
3054.000000	99.186094
3053.000000	99.192164
3052.000000	99.194139
3051.000000	99.192892
3050.000000	99.190915
3049.000000	99.190596
3048.000000	99.192962
3047.000000	99.197518
3046.000000	99.203034
3045.000000	99.208380
3044.000000	99.212751
3043.000000	99.215589
3042.000000	99.216622
3041.000000	99.215946
3040.000000	99.214126
3039.000000	99.212550
3038.000000	99.213395
3037.000000	99.218104
3036.000000	99.225320
3035.000000	99.231309
3034.000000	99.233664
3033.000000	99.234119
3032.000000	99.236542
3031.000000	99.242436
3030.000000	99.249849
3029.000000	99.256610
3028.000000	99.262685
3027.000000	99.268648
3026.000000	99.273506
3025.000000	99.275532
3024.000000	99.274649
3023.000000	99.272871
3022.000000	99.272745
3021.000000	99.276119
3020.000000	99.283644
3019.000000	99.294003
3018.000000	99.303588
3017.000000	99.308253
3016.000000	99.306200
3015.000000	99.299153
3014.000000	99.291048
3013.000000	99.285859
3012.000000	99.285789
3011.000000	99.289920
3010.000000	99.294462
3009.000000	99.295583
3008.000000	99.292718
3007.000000	99.288710
3006.000000	99.286566
3005.000000	99.286806
3004.000000	99.288143
3003.000000	99.289634
3002.000000	99.291317
3001.000000	99.293396
3000.000000	99.295872
2999.000000	99.298809
2998.000000	99.302104
2997.000000	99.305060
2996.000000	99.306952
2995.000000	99.308043
2994.000000	99.309205
2993.000000	99.310253
2992.000000	99.309359
2991.000000	99.304674
2990.000000	99.296275
2989.000000	99.286296
2988.000000	99.277568
2987.000000	99.272341
2986.000000	99.271517
2985.000000	99.274015
2984.000000	99.276882
2983.000000	99.277163
2982.000000	99.274380
2981.000000	99.270834
2980.000000	99.268921
2979.000000	99.268481
2978.000000	99.267398
2977.000000	99.264610
2976.000000	99.261653
2975.000000	99.260849
2974.000000	99.262555
2973.000000	99.264708
2972.000000	99.264861
2971.000000	99.262142
2970.000000	99.257413
2969.000000	99.252304
2968.000000	99.248414
2967.000000	99.246915
2966.000000	99.248067
2965.000000	99.250811
2964.000000	99.253133
2963.000000	99.253320
2962.000000	99.251160
2961.000000	99.247981
2960.000000	99.245371
2959.000000	99.243697
2958.000000	99.241813
2957.000000	99.238204
2956.000000	99.232383
2955.000000	99.225230
2954.000000	99.218273
2953.000000	99.212937
2952.000000	99.210178
2951.000000	99.210014
2950.000000	99.210970
2949.000000	99.210547
2948.000000	99.207264
2947.000000	99.202476
2946.000000	99.199550
2945.000000	99.200627
2944.000000	99.204327
2943.000000	99.206983
2942.000000	99.206026
2941.000000	99.201962
2940.000000	99.197375
2939.000000	99.194687
2938.000000	99.194813
2937.000000	99.196971
2936.000000	99.199000
2935.000000	99.198260
2934.000000	99.193316
2933.000000	99.185218
2932.000000	99.176816
2931.000000	99.170538
2930.000000	99.166884
2929.000000	99.164876
2928.000000	99.163316
2927.000000	99.161317
2926.000000	99.158241
2925.000000	99.153986
2924.000000	99.149227
2923.000000	99.144559
2922.000000	99.139345
2921.000000	99.132349
2920.000000	99.124170
2919.000000	99.118226
2918.000000	99.118143
2917.000000	99.124091
2916.000000	99.132476
2915.000000	99.139612
2914.000000	99.145138
2913.000000	99.151575
2912.000000	99.161000
2911.000000	99.172771
2910.000000	99.184304
2909.000000	99.193589
2908.000000	99.200898
2907.000000	99.208326
2906.000000	99.217700
2905.000000	99.228698
2904.000000	99.238896
2903.000000	99.245731
2902.000000	99.248314
2901.000000	99.247614
2900.000000	99.245592
2899.000000	99.244512
2898.000000	99.246462
2897.000000	99.252316
2896.000000	99.260700
2895.000000	99.268446
2894.000000	99.272716
2893.000000	99.272957
2892.000000	99.271030
2891.000000	99.269673
2890.000000	99.270537
2889.000000	99.273150
2888.000000	99.275521
2887.000000	99.276009
2886.000000	99.274766
2885.000000	99.273256
2884.000000	99.272575
2883.000000	99.272690
2882.000000	99.273164
2881.000000	99.273891
2880.000000	99.274866
2879.000000	99.275917
2878.000000	99.277116
2877.000000	99.278944
2876.000000	99.281434
2875.000000	99.283436
2874.000000	99.283375
2873.000000	99.280822
2872.000000	99.277190
2871.000000	99.275030
2870.000000	99.276555
2869.000000	99.281960
2868.000000	99.288580
2867.000000	99.292415
2866.000000	99.291741
2865.000000	99.289290
2864.000000	99.289836
2863.000000	99.295385
2862.000000	99.303347
2861.000000	99.309537
2860.000000	99.311884
2859.000000	99.310675
2858.000000	99.306469
2857.000000	99.299342
2856.000000	99.290153
2855.000000	99.281146
2854.000000	99.274445
2853.000000	99.270254
2852.000000	99.267018
2851.000000	99.263308
2850.000000	99.259265
2849.000000	99.256223
2848.000000	99.255238
2847.000000	99.256399
2846.000000	99.259657
2845.000000	99.265814
2844.000000	99.275962
2843.000000	99.289696
2842.000000	99.304418
2841.000000	99.316991
2840.000000	99.326209
2839.000000	99.333362
2838.000000	99.340391
2837.000000	99.347716
2836.000000	99.353878
2835.000000	99.357185
2834.000000	99.357738
2833.000000	99.357947
2832.000000	99.360838
2831.000000	99.367197
2830.000000	99.374323
2829.000000	99.378094
2828.000000	99.376662
2827.000000	99.372020
2826.000000	99.367782
2825.000000	99.365949
2824.000000	99.366302
2823.000000	99.368333
2822.000000	99.372430
2821.000000	99.378598
2820.000000	99.384874
2819.000000	99.388201
2818.000000	99.387177
2817.000000	99.383555
2816.000000	99.380771
2815.000000	99.381023
2814.000000	99.383667
2813.000000	99.386243
2812.000000	99.386894
2811.000000	99.385700
2810.000000	99.383739
2809.000000	99.381343
2808.000000	99.378053
2807.000000	99.374280
2806.000000	99.371961
2805.000000	99.372715
2804.000000	99.375844
2803.000000	99.379231
2802.000000	99.382024
2801.000000	99.385255
2800.000000	99.389571
2799.000000	99.393545
2798.000000	99.395075
2797.000000	99.393872
2796.000000	99.391749
2795.000000	99.390702
2794.000000	99.391397
2793.000000	99.393301
2792.000000	99.395479
2791.000000	99.397045
2790.000000	99.397413
2789.000000	99.396668
2788.000000	99.395765
2787.000000	99.396094
2786.000000	99.398356
2785.000000	99.401504
2784.000000	99.403050
2783.000000	99.401141
2782.000000	99.396547
2781.000000	99.392155
2780.000000	99.390271
2779.000000	99.390916
2778.000000	99.392859
2777.000000	99.395382
2776.000000	99.398281
2775.000000	99.400889
2774.000000	99.402357
2773.000000	99.402956
2772.000000	99.404123
2771.000000	99.406764
2770.000000	99.410013
2769.000000	99.412059
2768.000000	99.411990
2767.000000	99.410703
2766.000000	99.410202
2765.000000	99.411996
2764.000000	99.415936
2763.000000	99.420415
2762.000000	99.423684
2761.000000	99.424924
2760.000000	99.424261
2759.000000	99.422429
2758.000000	99.420740
2757.000000	99.420692
2756.000000	99.422836
2755.000000	99.426262
2754.000000	99.429753
2753.000000	99.433094
2752.000000	99.436518
2751.000000	99.439238
2750.000000	99.439603
2749.000000	99.436869
2748.000000	99.432110
2747.000000	99.427200
2746.000000	99.423533
2745.000000	99.421692
2744.000000	99.421525
2743.000000	99.422347
2742.000000	99.423658
2741.000000	99.425649
2740.000000	99.428303
2739.000000	99.430228
2738.000000	99.429850
2737.000000	99.428215
2736.000000	99.429117
2735.000000	99.435068
2734.000000	99.443820
2733.000000	99.450214
2732.000000	99.451438
2731.000000	99.449402
2730.000000	99.447967
2729.000000	99.448877
2728.000000	99.450912
2727.000000	99.452286
2726.000000	99.452837
2725.000000	99.453661
2724.000000	99.455239
2723.000000	99.456735
2722.000000	99.457291
2721.000000	99.457227
2720.000000	99.457240
2719.000000	99.456866
2718.000000	99.454930
2717.000000	99.451674
2716.000000	99.449217
2715.000000	99.449200
2714.000000	99.450840
2713.000000	99.452208
2712.000000	99.452794
2711.000000	99.453702
2710.000000	99.455570
2709.000000	99.457602
2708.000000	99.459015
2707.000000	99.460517
2706.000000	99.463546
2705.000000	99.468191
2704.000000	99.472484
2703.000000	99.474056
2702.000000	99.472542
2701.000000	99.470171
2700.000000	99.469693
2699.000000	99.471659
2698.000000	99.474046
2697.000000	99.474667
2696.000000	99.473592
2695.000000	99.472865
2694.000000	99.474149
2693.000000	99.477102
2692.000000	99.479888
2691.000000	99.480786
2690.000000	99.479297
2689.000000	99.476195
2688.000000	99.472881
2687.000000	99.470620
2686.000000	99.470119
2685.000000	99.471462
2684.000000	99.474094
2683.000000	99.476867
2682.000000	99.478519
2681.000000	99.478495
2680.000000	99.477267
2679.000000	99.475757
2678.000000	99.474606
2677.000000	99.474019
2676.000000	99.473971
2675.000000	99.474315
2674.000000	99.474916
2673.000000	99.475964
2672.000000	99.477950
2671.000000	99.480996
2670.000000	99.484274
2669.000000	99.486306
2668.000000	99.485952
2667.000000	99.483160
2666.000000	99.478860
2665.000000	99.474159
2664.000000	99.469565
2663.000000	99.465048
2662.000000	99.460894
2661.000000	99.457948
2660.000000	99.456474
2659.000000	99.455266
2658.000000	99.453024
2657.000000	99.450616
2656.000000	99.450634
2655.000000	99.454084
2654.000000	99.458701
2653.000000	99.461537
2652.000000	99.462254
2651.000000	99.462629
2650.000000	99.463659
2649.000000	99.464919
2648.000000	99.466573
2647.000000	99.469945
2646.000000	99.475227
2645.000000	99.480047
2644.000000	99.481698
2643.000000	99.480333
2642.000000	99.478894
2641.000000	99.479874
2640.000000	99.482853
2639.000000	99.485373
2638.000000	99.485755
2637.000000	99.484666
2636.000000	99.483998
2635.000000	99.484671
2634.000000	99.486033
2633.000000	99.487328
2632.000000	99.488929
2631.000000	99.491617
2630.000000	99.495213
2629.000000	99.498808
2628.000000	99.502078
2627.000000	99.505379
2626.000000	99.508522
2625.000000	99.510473
2624.000000	99.510792
2623.000000	99.510621
2622.000000	99.511596
2621.000000	99.514133
2620.000000	99.517369
2619.000000	99.520445
2618.000000	99.522977
2617.000000	99.524221
2616.000000	99.522895
2615.000000	99.518975
2614.000000	99.515370
2613.000000	99.516197
2612.000000	99.522227
2611.000000	99.528852
2610.000000	99.530322
2609.000000	99.525996
2608.000000	99.520971
2607.000000	99.520109
2606.000000	99.523312
2605.000000	99.527869
2604.000000	99.533421
2603.000000	99.542039
2602.000000	99.553706
2601.000000	99.564314
2600.000000	99.569297
2599.000000	99.567961
2598.000000	99.563449
2597.000000	99.559376
2596.000000	99.557562
2595.000000	99.558333
2594.000000	99.561489
2593.000000	99.566082
2592.000000	99.569705
2591.000000	99.569370
2590.000000	99.564114
2589.000000	99.556531
2588.000000	99.550645
2587.000000	99.548028
2586.000000	99.547071
2585.000000	99.546260
2584.000000	99.546796
2583.000000	99.551051
2582.000000	99.559509
2581.000000	99.570133
2580.000000	99.579712
2579.000000	99.585009
2578.000000	99.584143
2577.000000	99.578535
2576.000000	99.572532
2575.000000	99.569356
2574.000000	99.568190
2573.000000	99.566669
2572.000000	99.564748
2571.000000	99.563887
2570.000000	99.563889
2569.000000	99.563819
2568.000000	99.565600
2567.000000	99.573084
2566.000000	99.586827
2565.000000	99.602671
2564.000000	99.616140
2563.000000	99.625351
2562.000000	99.628934
2561.000000	99.625005
2560.000000	99.614498
2559.000000	99.602556
2558.000000	99.593830
2557.000000	99.588272
2556.000000	99.583906
2555.000000	99.581417
2554.000000	99.582631
2553.000000	99.585977
2552.000000	99.587438
2551.000000	99.585940
2550.000000	99.584566
2549.000000	99.585603
2548.000000	99.587046
2547.000000	99.585089
2546.000000	99.578530
2545.000000	99.569959
2544.000000	99.564050
2543.000000	99.565040
2542.000000	99.573951
2541.000000	99.586859
2540.000000	99.596846
2539.000000	99.598989
2538.000000	99.593495
2537.000000	99.584364
2536.000000	99.576306
2535.000000	99.573125
2534.000000	99.576792
2533.000000	99.585723
2532.000000	99.594330
2531.000000	99.596527
2530.000000	99.591010
2529.000000	99.582740
2528.000000	99.578676
2527.000000	99.581906
2526.000000	99.589727
2525.000000	99.596783
2524.000000	99.599564
2523.000000	99.598362
2522.000000	99.595807
2521.000000	99.594032
2520.000000	99.592949
2519.000000	99.590624
2518.000000	99.585261
2517.000000	99.577258
2516.000000	99.569520
2515.000000	99.565470
2514.000000	99.566374
2513.000000	99.570540
2512.000000	99.575000
2511.000000	99.577737
2510.000000	99.578126
2509.000000	99.575859
2508.000000	99.570506
2507.000000	99.562952
2506.000000	99.557083
2505.000000	99.558502
2504.000000	99.569871
2503.000000	99.587003
2502.000000	99.600942
2501.000000	99.605417
2500.000000	99.602195
2499.000000	99.598436
2498.000000	99.598726
2497.000000	99.600607
2496.000000	99.597868
2495.000000	99.587293
2494.000000	99.572139
2493.000000	99.559862
2492.000000	99.556703
2491.000000	99.563451
2490.000000	99.575540
2489.000000	99.587302
2488.000000	99.596133
2487.000000	99.602254
2486.000000	99.605336
2485.000000	99.603455
2484.000000	99.596198
2483.000000	99.587154
2482.000000	99.581523
2481.000000	99.581656
2480.000000	99.585909
2479.000000	99.591281
2478.000000	99.595830
2477.000000	99.598922
2476.000000	99.601072
2475.000000	99.604039
2474.000000	99.609656
2473.000000	99.617489
2472.000000	99.624321
2471.000000	99.626776
2470.000000	99.624179
2469.000000	99.618546
2468.000000	99.612475
2467.000000	99.607840
2466.000000	99.605706
2465.000000	99.606011
2464.000000	99.607176
2463.000000	99.607335
2462.000000	99.606599
2461.000000	99.607117
2460.000000	99.609888
2459.000000	99.612318
2458.000000	99.610580
2457.000000	99.604490
2456.000000	99.598679
2455.000000	99.598047
2454.000000	99.602724
2453.000000	99.608245
2452.000000	99.610124
2451.000000	99.607540
2450.000000	99.603287
2449.000000	99.601371
2448.000000	99.604388
2447.000000	99.611594
2446.000000	99.618899
2445.000000	99.621765
2444.000000	99.619167
2443.000000	99.614495
2442.000000	99.612077
2441.000000	99.613153
2440.000000	99.615482
2439.000000	99.616254
2438.000000	99.614665
2437.000000	99.612134
2436.000000	99.610823
2435.000000	99.611887
2434.000000	99.614476
2433.000000	99.616488
2432.000000	99.616966
2431.000000	99.617683
2430.000000	99.621337
2429.000000	99.627862
2428.000000	99.633405
2427.000000	99.633820
2426.000000	99.628865
2425.000000	99.622386
2424.000000	99.618728
2423.000000	99.619521
2422.000000	99.623385
2421.000000	99.627747
2420.000000	99.630681
2419.000000	99.631673
2418.000000	99.630829
2417.000000	99.627506
2416.000000	99.620666
2415.000000	99.611539
2414.000000	99.604851
2413.000000	99.605119
2412.000000	99.611216
2411.000000	99.616683
2410.000000	99.616657
2409.000000	99.613108
2408.000000	99.612026
2407.000000	99.616742
2406.000000	99.625427
2405.000000	99.633697
2404.000000	99.637633
2403.000000	99.635553
2402.000000	99.629716
2401.000000	99.626070
2400.000000	99.629542
2399.000000	99.638777
2398.000000	99.647664
2397.000000	99.652422
2396.000000	99.654704
2395.000000	99.656850
2394.000000	99.657078
2393.000000	99.652072
2392.000000	99.642861
2391.000000	99.635324
2390.000000	99.634750
2389.000000	99.641281
2388.000000	99.650574
2387.000000	99.657341
2386.000000	99.658474
2385.000000	99.654286
2384.000000	99.647741
2383.000000	99.642280
2382.000000	99.639691
2381.000000	99.639915
2380.000000	99.641945
2379.000000	99.644566
2378.000000	99.646913
2377.000000	99.648906
2376.000000	99.650857
2375.000000	99.652351
2374.000000	99.652504
2373.000000	99.651436
2372.000000	99.650191
2371.000000	99.648520
2370.000000	99.644559
2369.000000	99.637747
2368.000000	99.629876
2367.000000	99.622812
2366.000000	99.617436
2365.000000	99.615549
2364.000000	99.619218
2363.000000	99.625970
2362.000000	99.630040
2361.000000	99.630692
2360.000000	99.633012
2359.000000	99.640954
2358.000000	99.651632
2357.000000	99.657780
2356.000000	99.655193
2355.000000	99.642267
2354.000000	99.622964
2353.000000	99.606958
2352.000000	99.603229
2351.000000	99.610559
2350.000000	99.619016
2349.000000	99.621663
2348.000000	99.619070
2347.000000	99.616694
2346.000000	99.617234
2345.000000	99.615371
2344.000000	99.605330
2343.000000	99.589434
2342.000000	99.578829
2341.000000	99.580111
2340.000000	99.588669
2339.000000	99.596285
2338.000000	99.600079
2337.000000	99.602841
2336.000000	99.606734
2335.000000	99.611977
2334.000000	99.617914
2333.000000	99.625063
2332.000000	99.631531
2331.000000	99.634968
2330.000000	99.632532
2329.000000	99.626493
2328.000000	99.618353
2327.000000	99.608423
2326.000000	99.595464
2325.000000	99.581740
2324.000000	99.573457
2323.000000	99.574865
2322.000000	99.583013
2321.000000	99.590034
2320.000000	99.590778
2319.000000	99.587367
2318.000000	99.582934
2317.000000	99.579219
2316.000000	99.575839
2315.000000	99.574821
2314.000000	99.576694
2313.000000	99.580168
2312.000000	99.582062
2311.000000	99.582581
2310.000000	99.583412
2309.000000	99.586117
2308.000000	99.589984
2307.000000	99.594828
2306.000000	99.601055
2305.000000	99.608866
2304.000000	99.616275
2303.000000	99.620296
2302.000000	99.618570
2301.000000	99.612572
2300.000000	99.606812
2299.000000	99.606264
2298.000000	99.610610
2297.000000	99.614923
2296.000000	99.613663
2295.000000	99.606750
2294.000000	99.598806
2293.000000	99.595440
2292.000000	99.598876
2291.000000	99.606857
2290.000000	99.613922
2289.000000	99.614756
2288.000000	99.607831
2287.000000	99.595900
2286.000000	99.583599
2285.000000	99.574622
2284.000000	99.571107
2283.000000	99.572604
2282.000000	99.575401
2281.000000	99.574576
2280.000000	99.569470
2279.000000	99.565165
2278.000000	99.566469
2277.000000	99.571395
2276.000000	99.573644
2275.000000	99.571878
2274.000000	99.572923
2273.000000	99.583985
2272.000000	99.602543
2271.000000	99.616637
2270.000000	99.615555
2269.000000	99.599606
2268.000000	99.579198
2267.000000	99.565511
2266.000000	99.563111
2265.000000	99.570533
2264.000000	99.584551
2263.000000	99.602177
2262.000000	99.620335
2261.000000	99.636146
2260.000000	99.647899
2259.000000	99.654499
2258.000000	99.655428
2257.000000	99.652319
2256.000000	99.648712
2255.000000	99.645322
2254.000000	99.637768
2253.000000	99.623783
2252.000000	99.611300
2251.000000	99.613566
2250.000000	99.634583
2249.000000	99.663789
2248.000000	99.686577
2247.000000	99.696660
2246.000000	99.696648
2245.000000	99.691935
2244.000000	99.687796
2243.000000	99.688410
2242.000000	99.693037
2241.000000	99.694322
2240.000000	99.684346
2239.000000	99.662677
2238.000000	99.636412
2237.000000	99.613588
2236.000000	99.598594
2235.000000	99.592808
2234.000000	99.596829
2233.000000	99.611183
2232.000000	99.635116
2231.000000	99.663857
2230.000000	99.687378
2229.000000	99.695480
2228.000000	99.687083
2227.000000	99.672450
2226.000000	99.663950
2225.000000	99.666161
2224.000000	99.675728
2223.000000	99.686930
2222.000000	99.693722
2221.000000	99.689686
2220.000000	99.671933
2219.000000	99.645596
2218.000000	99.621171
2217.000000	99.607715
2216.000000	99.609917
2215.000000	99.629065
2214.000000	99.661696
2213.000000	99.697367
2212.000000	99.722970
2211.000000	99.731230
2210.000000	99.721732
2209.000000	99.694388
2208.000000	99.648817
2207.000000	99.593927
2206.000000	99.552657
2205.000000	99.547440
2204.000000	99.576848
2203.000000	99.611837
2202.000000	99.621429
2201.000000	99.602807
2200.000000	99.582701
2199.000000	99.587089
2198.000000	99.613084
2197.000000	99.633731
2196.000000	99.629068
2195.000000	99.607153
2194.000000	99.593134
2193.000000	99.602724
2192.000000	99.629998
2191.000000	99.657822
2190.000000	99.673151
2189.000000	99.671414
2188.000000	99.653937
2187.000000	99.627337
2186.000000	99.603460
2185.000000	99.593478
2184.000000	99.599138
2183.000000	99.613305
2182.000000	99.631292
2181.000000	99.656943
2180.000000	99.693540
2179.000000	99.732107
2178.000000	99.754506
2177.000000	99.748768
2176.000000	99.719313
2175.000000	99.682404
2174.000000	99.653408
2173.000000	99.636874
2172.000000	99.624118
2171.000000	99.601293
2170.000000	99.565163
2169.000000	99.531535
2168.000000	99.521414
2167.000000	99.537691
2166.000000	99.563696
2165.000000	99.585566
2164.000000	99.606141
2163.000000	99.631128
2162.000000	99.653428
2161.000000	99.665136
2160.000000	99.678306
2159.000000	99.714273
2158.000000	99.768895
2157.000000	99.811801
2156.000000	99.825914
2155.000000	99.824535
2154.000000	99.827172
2153.000000	99.835952
2152.000000	99.838545
2151.000000	99.825276
2150.000000	99.799761
2149.000000	99.775593
2148.000000	99.764497
2147.000000	99.767679
2146.000000	99.779369
2145.000000	99.796339
2144.000000	99.818307
2143.000000	99.839518
2142.000000	99.849037
2141.000000	99.844416
2140.000000	99.838113
2139.000000	99.842504
2138.000000	99.852617
2137.000000	99.851639
2136.000000	99.831088
2135.000000	99.799247
2134.000000	99.770733
2133.000000	99.754515
2132.000000	99.750655
2131.000000	99.752560
2130.000000	99.752274
2129.000000	99.747307
2128.000000	99.742269
2127.000000	99.741488
2126.000000	99.742869
2125.000000	99.742605
2124.000000	99.741940
2123.000000	99.742435
2122.000000	99.737474
2121.000000	99.717435
2120.000000	99.685005
2119.000000	99.657545
2118.000000	99.650529
2117.000000	99.663438
2116.000000	99.684130
2115.000000	99.702749
2114.000000	99.717020
2113.000000	99.727685
2112.000000	99.734022
2111.000000	99.734014
2110.000000	99.726832
2109.000000	99.715596
2108.000000	99.707853
2107.000000	99.710633
2106.000000	99.723365
2105.000000	99.737236
2104.000000	99.742974
2103.000000	99.738390
2102.000000	99.728304
2101.000000	99.719321
2100.000000	99.715468
2099.000000	99.716757
2098.000000	99.720788
2097.000000	99.726126
2096.000000	99.732974
2095.000000	99.738824
2094.000000	99.736016
2093.000000	99.718781
2092.000000	99.692847
2091.000000	99.672897
2090.000000	99.668513
2089.000000	99.674626
2088.000000	99.677094
2087.000000	99.667537
2086.000000	99.651963
2085.000000	99.645482
2084.000000	99.657281
2083.000000	99.679658
2082.000000	99.694745
2081.000000	99.693701
2080.000000	99.685545
2079.000000	99.683455
2078.000000	99.687280
2077.000000	99.687301
2076.000000	99.681615
2075.000000	99.679013
2074.000000	99.684423
2073.000000	99.691994
2072.000000	99.695930
2071.000000	99.699072
2070.000000	99.706050
2069.000000	99.714800
2068.000000	99.719501
2067.000000	99.716253
2066.000000	99.702487
2065.000000	99.678057
2064.000000	99.651311
2063.000000	99.636801
2062.000000	99.641846
2061.000000	99.659866
2060.000000	99.678087
2059.000000	99.686381
2058.000000	99.677683
2057.000000	99.651175
2056.000000	99.621421
2055.000000	99.612719
2054.000000	99.632611
2053.000000	99.657746
2052.000000	99.658716
2051.000000	99.634667
2050.000000	99.612354
2049.000000	99.612954
2048.000000	99.629877
2047.000000	99.643661
2046.000000	99.648317
2045.000000	99.653312
2044.000000	99.668540
2043.000000	99.696098
2042.000000	99.729729
2041.000000	99.754425
2040.000000	99.752831
2039.000000	99.721385
2038.000000	99.678811
2037.000000	99.654409
2036.000000	99.664901
2035.000000	99.702049
2034.000000	99.743763
2033.000000	99.774112
2032.000000	99.790645
2031.000000	99.795160
2030.000000	99.785416
2029.000000	99.761949
2028.000000	99.737225
2027.000000	99.727696
2026.000000	99.736719
2025.000000	99.751827
2024.000000	99.759256
2023.000000	99.756355
2022.000000	99.749535
2021.000000	99.746755
2020.000000	99.753072
2019.000000	99.767839
2018.000000	99.784621
2017.000000	99.797481
2016.000000	99.808076
2015.000000	99.821327
2014.000000	99.834747
2013.000000	99.839310
2012.000000	99.831383
2011.000000	99.817697
2010.000000	99.807884
2009.000000	99.808003
2008.000000	99.820078
2007.000000	99.840257
2006.000000	99.856840
2005.000000	99.858350
2004.000000	99.845695
2003.000000	99.829957
2002.000000	99.819192
2001.000000	99.813227
2000.000000	99.808483
1999.000000	99.800819
1998.000000	99.786373
1997.000000	99.767329
1996.000000	99.754908
1995.000000	99.757710
1994.000000	99.767647
1993.000000	99.766028
1992.000000	99.746583
1991.000000	99.723649
1990.000000	99.712376
1989.000000	99.713639
1988.000000	99.722718
1987.000000	99.738935
1986.000000	99.759209
1985.000000	99.771470
1984.000000	99.763838
1983.000000	99.736892
1982.000000	99.701699
1981.000000	99.671130
1980.000000	99.658995
1979.000000	99.680308
1978.000000	99.739451
1977.000000	99.814619
1976.000000	99.866047
1975.000000	99.868413
1974.000000	99.830842
1973.000000	99.787628
1972.000000	99.771572
1971.000000	99.789941
1970.000000	99.823353
1969.000000	99.846637
1968.000000	99.849370
1967.000000	99.837999
1966.000000	99.824857
1965.000000	99.821859
1964.000000	99.838132
1963.000000	99.871057
1962.000000	99.899894
1961.000000	99.900146
1960.000000	99.868616
1959.000000	99.824740
1958.000000	99.786389
1957.000000	99.756539
1956.000000	99.734039
1955.000000	99.724461
1954.000000	99.733891
1953.000000	99.757518
1952.000000	99.779757
1951.000000	99.785922
1950.000000	99.773872
1949.000000	99.757223
1948.000000	99.756028
1947.000000	99.778510
1946.000000	99.811820
1945.000000	99.835388
1944.000000	99.841726
1943.000000	99.838514
1942.000000	99.832637
1941.000000	99.823292
1940.000000	99.813097
1939.000000	99.811992
1938.000000	99.824959
1937.000000	99.843336
1936.000000	99.853298
1935.000000	99.849472
1934.000000	99.835214
1933.000000	99.814649
1932.000000	99.790444
1931.000000	99.767227
1930.000000	99.751605
1929.000000	99.748175
1928.000000	99.757537
1927.000000	99.776407
1926.000000	99.798283
1925.000000	99.814622
1924.000000	99.819000
1923.000000	99.811693
1922.000000	99.798905
1921.000000	99.787010
1920.000000	99.778528
1919.000000	99.772536
1918.000000	99.766789
1917.000000	99.759356
1916.000000	99.750718
1915.000000	99.743327
1914.000000	99.739008
1913.000000	99.738213
1912.000000	99.740085
1911.000000	99.742396
1910.000000	99.742910
1909.000000	99.742690
1908.000000	99.746213
1907.000000	99.754211
1906.000000	99.759550
1905.000000	99.753915
1904.000000	99.738919
1903.000000	99.725947
1902.000000	99.723083
1901.000000	99.726875
1900.000000	99.729213
1899.000000	99.727978
1898.000000	99.727628
1897.000000	99.731403
1896.000000	99.736636
1895.000000	99.738419
1894.000000	99.736394
1893.000000	99.736211
1892.000000	99.743216
1891.000000	99.755072
1890.000000	99.762085
1889.000000	99.757963
1888.000000	99.749115
1887.000000	99.746244
1886.000000	99.750941
1885.000000	99.756652
1884.000000	99.758605
1883.000000	99.758415
1882.000000	99.759376
1881.000000	99.762329
1880.000000	99.766751
1879.000000	99.771026
1878.000000	99.772254
1877.000000	99.770305
1876.000000	99.770789
1875.000000	99.778516
1874.000000	99.788829
1873.000000	99.792164
1872.000000	99.787917
1871.000000	99.786719
1870.000000	99.796782
1869.000000	99.811656
1868.000000	99.817849
1867.000000	99.814436
1866.000000	99.810126
1865.000000	99.808135
1864.000000	99.805888
1863.000000	99.801576
1862.000000	99.794680
1861.000000	99.783763
1860.000000	99.769196
1859.000000	99.756172
1858.000000	99.750823
1857.000000	99.754174
1856.000000	99.762558
1855.000000	99.772103
1854.000000	99.779736
1853.000000	99.781871
1852.000000	99.777518
1851.000000	99.770286
1850.000000	99.765011
1849.000000	99.763391
1848.000000	99.763721
1847.000000	99.764108
1846.000000	99.764546
1845.000000	99.767658
1844.000000	99.776601
1843.000000	99.789223
1842.000000	99.799584
1841.000000	99.804063
1840.000000	99.802436
1839.000000	99.796800
1838.000000	99.790278
1837.000000	99.784875
1836.000000	99.781103
1835.000000	99.778747
1834.000000	99.776956
1833.000000	99.774892
1832.000000	99.772489
1831.000000	99.769337
1830.000000	99.765390
1829.000000	99.763068
1828.000000	99.766424
1827.000000	99.776521
1826.000000	99.788527
1825.000000	99.795487
1824.000000	99.795553
1823.000000	99.793270
1822.000000	99.791827
1821.000000	99.789903
1820.000000	99.786790
1819.000000	99.785601
1818.000000	99.789726
1817.000000	99.797868
1816.000000	99.805432
1815.000000	99.809685
1814.000000	99.810435
1813.000000	99.808292
1812.000000	99.804342
1811.000000	99.800485
1810.000000	99.797478
1809.000000	99.793381
1808.000000	99.786773
1807.000000	99.779190
1806.000000	99.772387
1805.000000	99.765804
1804.000000	99.758361
1803.000000	99.751085
1802.000000	99.745671
1801.000000	99.742613
1800.000000	99.740462
1799.000000	99.737530
1798.000000	99.733350
1797.000000	99.728995
1796.000000	99.726947
1795.000000	99.728717
1794.000000	99.732021
1793.000000	99.733853
1792.000000	99.735725
1791.000000	99.741686
1790.000000	99.750362
1789.000000	99.755458
1788.000000	99.753360
1787.000000	99.747289
1786.000000	99.744482
1785.000000	99.749233
1784.000000	99.759031
1783.000000	99.768417
1782.000000	99.772871
1781.000000	99.771744
1780.000000	99.768889
1779.000000	99.769255
1778.000000	99.774072
1777.000000	99.781058
1776.000000	99.788447
1775.000000	99.795391
1774.000000	99.800231
1773.000000	99.802844
1772.000000	99.806293
1771.000000	99.810754
1770.000000	99.813084
1769.000000	99.811019
1768.000000	99.805583
1767.000000	99.801078
1766.000000	99.799657
1765.000000	99.799374
1764.000000	99.797491
1763.000000	99.794595
1762.000000	99.794182
1761.000000	99.797699
1760.000000	99.802400
1759.000000	99.805300
1758.000000	99.803508
1757.000000	99.796570
1756.000000	99.789823
1755.000000	99.788414
1754.000000	99.790732
1753.000000	99.790504
1752.000000	99.785095
1751.000000	99.779327
1750.000000	99.778562
1749.000000	99.781913
1748.000000	99.787907
1747.000000	99.797093
1746.000000	99.807305
1745.000000	99.814494
1744.000000	99.816726
1743.000000	99.815219
1742.000000	99.810701
1741.000000	99.802319
1740.000000	99.792935
1739.000000	99.790032
1738.000000	99.794758
1737.000000	99.800131
1736.000000	99.798764
1735.000000	99.794912
1734.000000	99.805280
1733.000000	99.823543
1732.000000	99.830131
1731.000000	99.827809
1730.000000	99.826604
1729.000000	99.829980
1728.000000	99.836021
1727.000000	99.842162
1726.000000	99.847189
1725.000000	99.850918
1724.000000	99.853618
1723.000000	99.856742
1722.000000	99.861323
1721.000000	99.866201
1720.000000	99.869296
1719.000000	99.869710
1718.000000	99.868872
1717.000000	99.863821
1716.000000	99.848230
1715.000000	99.827053
1714.000000	99.807432
1713.000000	99.788183
1712.000000	99.766889
1711.000000	99.746832
1710.000000	99.732734
1709.000000	99.723323
1708.000000	99.712007
1707.000000	99.693693
1706.000000	99.670552
1705.000000	99.649632
1704.000000	99.634061
1703.000000	99.620139
1702.000000	99.598091
1701.000000	99.564075
1700.000000	99.531866
1699.000000	99.511199
1698.000000	99.492966
1697.000000	99.459466
1696.000000	99.406525
1695.000000	99.354942
1694.000000	99.319130
1693.000000	99.293673
1692.000000	99.268836
1691.000000	99.239479
1690.000000	99.206658
1689.000000	99.175429
1688.000000	99.151255
1687.000000	99.132167
1686.000000	99.104189
1685.000000	99.050558
1684.000000	98.983168
1683.000000	98.934842
1682.000000	98.904768
1681.000000	98.872666
1680.000000	98.830210
1679.000000	98.783060
1678.000000	98.736166
1677.000000	98.682974
1676.000000	98.616460
1675.000000	98.547329
1674.000000	98.491757
1673.000000	98.447285
1672.000000	98.399403
1671.000000	98.337652
1670.000000	98.262742
1669.000000	98.186040
1668.000000	98.119090
1667.000000	98.065055
1666.000000	98.018460
1665.000000	97.969078
1664.000000	97.908748
1663.000000	97.841024
1662.000000	97.778132
1661.000000	97.725447
1660.000000	97.680538
1659.000000	97.642132
1658.000000	97.611762
1657.000000	97.590717
1656.000000	97.577617
1655.000000	97.564615
1654.000000	97.541166
1653.000000	97.510219
1652.000000	97.475090
1651.000000	97.443676
1650.000000	97.423505
1649.000000	97.408590
1648.000000	97.388555
1647.000000	97.366148
1646.000000	97.352526
1645.000000	97.343711
1644.000000	97.332741
1643.000000	97.321288
1642.000000	97.311667
1641.000000	97.304172
1640.000000	97.299867
1639.000000	97.299737
1638.000000	97.300052
1637.000000	97.290857
1636.000000	97.270394
1635.000000	97.253502
1634.000000	97.247625
1633.000000	97.246667
1632.000000	97.245633
1631.000000	97.245206
1630.000000	97.249531
1629.000000	97.262297
1628.000000	97.283837
1627.000000	97.311146
1626.000000	97.340507
1625.000000	97.372173
1624.000000	97.411586
1623.000000	97.463333
1622.000000	97.520594
1621.000000	97.573655
1620.000000	97.623119
1619.000000	97.672892
1618.000000	97.724579
1617.000000	97.780201
1616.000000	97.839021
1615.000000	97.894880
1614.000000	97.946068
1613.000000	97.995028
1612.000000	98.043718
1611.000000	98.093529
1610.000000	98.144118
1609.000000	98.194221
1608.000000	98.243109
1607.000000	98.289547
1606.000000	98.331339
1605.000000	98.369212
1604.000000	98.406744
1603.000000	98.444460
1602.000000	98.478333
1601.000000	98.505393
1600.000000	98.527102
1599.000000	98.545984
1598.000000	98.563194
1597.000000	98.580465
1596.000000	98.600040
1595.000000	98.620986
1594.000000	98.638695
1593.000000	98.650144
1592.000000	98.656758
1591.000000	98.660847
1590.000000	98.662702
1589.000000	98.662359
1588.000000	98.660543
1587.000000	98.656384
1586.000000	98.647487
1585.000000	98.633211
1584.000000	98.616279
1583.000000	98.598055
1582.000000	98.577227
1581.000000	98.555202
1580.000000	98.536994
1579.000000	98.523116
1578.000000	98.504586
1577.000000	98.471195
1576.000000	98.427922
1575.000000	98.389320
1574.000000	98.359524
1573.000000	98.334992
1572.000000	98.309595
1571.000000	98.276066
1570.000000	98.233087
1569.000000	98.190406
1568.000000	98.157209
1567.000000	98.128490
1566.000000	98.093082
1565.000000	98.047793
1564.000000	98.003423
1563.000000	97.972003
1562.000000	97.951818
1561.000000	97.926458
1560.000000	97.874734
1559.000000	97.794858
1558.000000	97.730103
1557.000000	97.691279
1556.000000	97.660489
1555.000000	97.629649
1554.000000	97.598665
1553.000000	97.570707
1552.000000	97.545649
1551.000000	97.521769
1550.000000	97.501214
1549.000000	97.487458
1548.000000	97.478751
1547.000000	97.469183
1546.000000	97.454679
1545.000000	97.437093
1544.000000	97.423799
1543.000000	97.419356
1542.000000	97.419704
1541.000000	97.416335
1540.000000	97.412371
1539.000000	97.418092
1538.000000	97.428720
1537.000000	97.439680
1536.000000	97.452602
1535.000000	97.470309
1534.000000	97.498464
1533.000000	97.537078
1532.000000	97.573040
1531.000000	97.598823
1530.000000	97.618360
1529.000000	97.636467
1528.000000	97.656035
1527.000000	97.678500
1526.000000	97.702503
1525.000000	97.724517
1524.000000	97.743076
1523.000000	97.759490
1522.000000	97.777019
1521.000000	97.797030
1520.000000	97.814322
1519.000000	97.828303
1518.000000	97.843492
1517.000000	97.861928
1516.000000	97.881600
1515.000000	97.897085
1514.000000	97.904968
1513.000000	97.906726
1512.000000	97.908581
1511.000000	97.917775
1510.000000	97.935620
1509.000000	97.956065
1508.000000	97.973603
1507.000000	97.994039
1506.000000	98.017152
1505.000000	98.024353
1504.000000	98.019006
1503.000000	98.013704
1502.000000	98.011538
1501.000000	98.011343
1500.000000	98.012803
1499.000000	98.016436
1498.000000	98.018832
1497.000000	98.015034
1496.000000	98.005968
1495.000000	97.997967
1494.000000	97.992728
1493.000000	97.986345
1492.000000	97.976412
1491.000000	97.967014
1490.000000	97.964111
1489.000000	97.965302
1488.000000	97.963021
1487.000000	97.955585
1486.000000	97.943568
1485.000000	97.925034
1484.000000	97.900948
1483.000000	97.875344
1482.000000	97.851366
1481.000000	97.829549
1480.000000	97.809334
1479.000000	97.789994
1478.000000	97.769193
1477.000000	97.744092
1476.000000	97.714773
1475.000000	97.683499
1474.000000	97.647597
1473.000000	97.602684
1472.000000	97.554817
1471.000000	97.513709
1470.000000	97.479339
1469.000000	97.447655
1468.000000	97.418278
1467.000000	97.392567
1466.000000	97.367574
1465.000000	97.337314
1464.000000	97.302628
1463.000000	97.269935
1462.000000	97.241392
1461.000000	97.214456
1460.000000	97.186729
1459.000000	97.154472
1458.000000	97.110668
1457.000000	97.057750
1456.000000	97.011381
1455.000000	96.977375
1454.000000	96.949404
1453.000000	96.923169
1452.000000	96.899850
1451.000000	96.881299
1450.000000	96.864825
1449.000000	96.847894
1448.000000	96.834887
1447.000000	96.831351
1446.000000	96.832698
1445.000000	96.831014
1444.000000	96.825201
1443.000000	96.818733
1442.000000	96.814159
1441.000000	96.811712
1440.000000	96.810938
1439.000000	96.810052
1438.000000	96.807536
1437.000000	96.807546
1436.000000	96.816021
1435.000000	96.828014
1434.000000	96.834453
1433.000000	96.833084
1432.000000	96.827360
1431.000000	96.821966
1430.000000	96.818101
1429.000000	96.814441
1428.000000	96.811065
1427.000000	96.808369
1426.000000	96.803545
1425.000000	96.794394
1424.000000	96.784812
1423.000000	96.779905
1422.000000	96.778083
1421.000000	96.773381
1420.000000	96.764559
1419.000000	96.757364
1418.000000	96.755839
1417.000000	96.757966
1416.000000	96.761132
1415.000000	96.762726
1414.000000	96.760454
1413.000000	96.756640
1412.000000	96.758071
1411.000000	96.768435
1410.000000	96.783083
1409.000000	96.795088
1408.000000	96.802776
1407.000000	96.808652
1406.000000	96.814187
1405.000000	96.820355
1404.000000	96.829728
1403.000000	96.842484
1402.000000	96.855291
1401.000000	96.866489
1400.000000	96.879369
1399.000000	96.897000
1398.000000	96.915755
1397.000000	96.930769
1396.000000	96.943850
1395.000000	96.960529
1394.000000	96.982114
1393.000000	97.006410
1392.000000	97.033068
1391.000000	97.061767
1390.000000	97.089748
1389.000000	97.115492
1388.000000	97.142371
1387.000000	97.174107
1386.000000	97.207672
1385.000000	97.238024
1384.000000	97.265367
1383.000000	97.292105
1382.000000	97.318841
1381.000000	97.345277
1380.000000	97.372293
1379.000000	97.400354
1378.000000	97.427472
1377.000000	97.452092
1376.000000	97.476459
1375.000000	97.504548
1374.000000	97.536875
1373.000000	97.570170
1372.000000	97.602367
1371.000000	97.634960
1370.000000	97.670481
1369.000000	97.710423
1368.000000	97.753190
1367.000000	97.793341
1366.000000	97.826634
1365.000000	97.855153
1364.000000	97.885451
1363.000000	97.921331
1362.000000	97.959030
1361.000000	97.992525
1360.000000	98.020731
1359.000000	98.045316
1358.000000	98.066839
1357.000000	98.085723
1356.000000	98.102845
1355.000000	98.117562
1354.000000	98.127969
1353.000000	98.134594
1352.000000	98.140664
1351.000000	98.147583
1350.000000	98.152127
1349.000000	98.150378
1348.000000	98.142690
1347.000000	98.132854
1346.000000	98.124145
1345.000000	98.117849
1344.000000	98.113777
1343.000000	98.110294
1342.000000	98.105113
1341.000000	98.097570
1340.000000	98.089960
1339.000000	98.085311
1338.000000	98.084180
1337.000000	98.085660
1336.000000	98.089883
1335.000000	98.097408
1334.000000	98.107915
1333.000000	98.120904
1332.000000	98.136548
1331.000000	98.155004
1330.000000	98.175675
1329.000000	98.197750
1328.000000	98.220342
1327.000000	98.241672
1326.000000	98.259519
1325.000000	98.273423
1324.000000	98.285081
1323.000000	98.295903
1322.000000	98.305776
1321.000000	98.314492
1320.000000	98.322729
1319.000000	98.331126
1318.000000	98.339845
1317.000000	98.349322
1316.000000	98.359806
1315.000000	98.370129
1314.000000	98.379180
1313.000000	98.388958
1312.000000	98.403467
1311.000000	98.423627
1310.000000	98.445601
1309.000000	98.464846
1308.000000	98.479412
1307.000000	98.489171
1306.000000	98.494840
1305.000000	98.499375
1304.000000	98.507641
1303.000000	98.521901
1302.000000	98.538845
1301.000000	98.553148
1300.000000	98.563160
1299.000000	98.571445
1298.000000	98.580773
1297.000000	98.591344
1296.000000	98.601220
1295.000000	98.607724
1294.000000	98.608876
1293.000000	98.604646
1292.000000	98.596673
1291.000000	98.586211
1290.000000	98.573027
1289.000000	98.557529
1288.000000	98.542868
1287.000000	98.532794
1286.000000	98.527380
1285.000000	98.522954
1284.000000	98.516851
1283.000000	98.510413
1282.000000	98.506469
1281.000000	98.505008
1280.000000	98.503249
1279.000000	98.500029
1278.000000	98.498695
1277.000000	98.504440
1276.000000	98.518531
1275.000000	98.536120
1274.000000	98.550418
1273.000000	98.558699
1272.000000	98.563510
1271.000000	98.568326
1270.000000	98.573397
1269.000000	98.576293
1268.000000	98.575130
1267.000000	98.570238
1266.000000	98.563764
1265.000000	98.558519
1264.000000	98.556575
1263.000000	98.557707
1262.000000	98.559006
1261.000000	98.556801
1260.000000	98.549289
1259.000000	98.537331
1258.000000	98.523021
1257.000000	98.507642
1256.000000	98.490890
1255.000000	98.471695
1254.000000	98.449939
1253.000000	98.427492
1252.000000	98.406950
1251.000000	98.389136
1250.000000	98.372110
1249.000000	98.353000
1248.000000	98.330522
1247.000000	98.305405
1246.000000	98.279148
1245.000000	98.253042
1244.000000	98.227840
1243.000000	98.203485
1242.000000	98.179423
1241.000000	98.155822
1240.000000	98.134255
1239.000000	98.116658
1238.000000	98.103824
1237.000000	98.095705
1236.000000	98.092370
1235.000000	98.093926
1234.000000	98.100487
1233.000000	98.112779
1232.000000	98.131891
1231.000000	98.156921
1230.000000	98.184196
1229.000000	98.210760
1228.000000	98.237334
1227.000000	98.266458
1226.000000	98.299008
1225.000000	98.334576
1224.000000	98.373915
1223.000000	98.417554
1222.000000	98.462118
1221.000000	98.501141
1220.000000	98.530933
1219.000000	98.554180
1218.000000	98.576589
1217.000000	98.600419
1216.000000	98.622161
1215.000000	98.636332
1214.000000	98.640619
1213.000000	98.637659
1212.000000	98.632185
1211.000000	98.627036
1210.000000	98.621817
1209.000000	98.614297
1208.000000	98.602591
1207.000000	98.586401
1206.000000	98.567684
1205.000000	98.550574
1204.000000	98.539543
1203.000000	98.536501
1202.000000	98.540012
1201.000000	98.547992
1200.000000	98.560172
1199.000000	98.577004
1198.000000	98.596970
1197.000000	98.616840
1196.000000	98.634715
1195.000000	98.651575
1194.000000	98.670081
1193.000000	98.692420
1192.000000	98.718740
1191.000000	98.746540
1190.000000	98.771945
1189.000000	98.792805
1188.000000	98.810441
1187.000000	98.827593
1186.000000	98.844914
1185.000000	98.860443
1184.000000	98.872096
1183.000000	98.879804
1182.000000	98.885660
1181.000000	98.892828
1180.000000	98.903781
1179.000000	98.917923
1178.000000	98.931019
1177.000000	98.938484
1176.000000	98.939323
1175.000000	98.936060
1174.000000	98.931105
1173.000000	98.924953
1172.000000	98.918485
1171.000000	98.914667
1170.000000	98.915915
1169.000000	98.920619
1168.000000	98.924309
1167.000000	98.924239
1166.000000	98.921688
1165.000000	98.919851
1164.000000	98.920606
1163.000000	98.923339
1162.000000	98.926027
1161.000000	98.927613
1160.000000	98.929774
1159.000000	98.935579
1158.000000	98.945398
1157.000000	98.955164
1156.000000	98.960551
1155.000000	98.962322
1154.000000	98.965459
1153.000000	98.973146
1152.000000	98.983889
1151.000000	98.995066
1150.000000	99.006717
1149.000000	99.020381
1148.000000	99.036220
1147.000000	99.053082
1146.000000	99.070023
1145.000000	99.085819
1144.000000	99.098116
1143.000000	99.105172
1142.000000	99.108070
1141.000000	99.109421
1140.000000	99.110377
1139.000000	99.110550
1138.000000	99.109999
1137.000000	99.109514
1136.000000	99.109590
1135.000000	99.111197
1134.000000	99.116781
1133.000000	99.127788
1132.000000	99.141265
1131.000000	99.151428
1130.000000	99.155135
1129.000000	99.153758
1128.000000	99.149755
1127.000000	99.144553
1126.000000	99.140521
1125.000000	99.141345
1124.000000	99.148128
1123.000000	99.157221
1122.000000	99.164189
1121.000000	99.168383
1120.000000	99.171446
1119.000000	99.172993
1118.000000	99.170462
1117.000000	99.162641
1116.000000	99.151188
1115.000000	99.138965
1114.000000	99.128482
1113.000000	99.121237
1112.000000	99.116775
1111.000000	99.112698
1110.000000	99.107246
1109.000000	99.101725
1108.000000	99.098859
1107.000000	99.098888
1106.000000	99.098889
1105.000000	99.096073
1104.000000	99.090485
1103.000000	99.084378
1102.000000	99.079904
1101.000000	99.077408
1100.000000	99.074865
1099.000000	99.069285
1098.000000	99.059666
1097.000000	99.048021
1096.000000	99.036795
1095.000000	99.026278
1094.000000	99.016006
1093.000000	99.007094
1092.000000	99.000386
1091.000000	98.993173
1090.000000	98.981250
1089.000000	98.964593
1088.000000	98.947063
1087.000000	98.929122
1086.000000	98.905263
1085.000000	98.872139
1084.000000	98.836710
1083.000000	98.811541
1082.000000	98.802193
1081.000000	98.802916
1080.000000	98.805282
1079.000000	98.807142
1078.000000	98.811438
1077.000000	98.819864
1076.000000	98.830762
1075.000000	98.842235
1074.000000	98.854285
1073.000000	98.867064
1072.000000	98.878215
1071.000000	98.883159
1070.000000	98.878877
1069.000000	98.867633
1068.000000	98.856191
1067.000000	98.850558
1066.000000	98.851530
1065.000000	98.855617
1064.000000	98.859458
1063.000000	98.862020
1062.000000	98.863406
1061.000000	98.864001
1060.000000	98.865373
1059.000000	98.869956
1058.000000	98.878464
1057.000000	98.888694
1056.000000	98.897738
1055.000000	98.904505
1054.000000	98.909432
1053.000000	98.913034
1052.000000	98.916090
1051.000000	98.920243
1050.000000	98.926427
1049.000000	98.932862
1048.000000	98.936418
1047.000000	98.936247
1046.000000	98.934935
1045.000000	98.935482
1044.000000	98.937734
1043.000000	98.938062
1042.000000	98.932160
1041.000000	98.918819
1040.000000	98.901765
1039.000000	98.887326
1038.000000	98.878992
1037.000000	98.873901
1036.000000	98.865952
1035.000000	98.852479
1034.000000	98.836792
1033.000000	98.824155
1032.000000	98.817069
1031.000000	98.815284
1030.000000	98.818435
1029.000000	98.826766
1028.000000	98.839644
1027.000000	98.855092
1026.000000	98.871134
1025.000000	98.886703
1024.000000	98.901636
1023.000000	98.916888
1022.000000	98.934462
1021.000000	98.955055
1020.000000	98.975234
1019.000000	98.988774
1018.000000	98.992435
1017.000000	98.989489
1016.000000	98.986363
1015.000000	98.987158
1014.000000	98.992699
1013.000000	99.003211
1012.000000	99.018896
1011.000000	99.037959
1010.000000	99.056877
1009.000000	99.073832
1008.000000	99.089947
1007.000000	99.105995
1006.000000	99.120117
1005.000000	99.130799
1004.000000	99.140736
1003.000000	99.154931
1002.000000	99.174806
1001.000000	99.196258
1000.000000	99.214047
999.000000	99.226890
998.000000	99.237848
997.000000	99.251082
996.000000	99.269029
995.000000	99.291194
994.000000	99.314273
993.000000	99.334330
992.000000	99.350242
991.000000	99.364579
990.000000	99.379982
989.000000	99.395291
988.000000	99.407269
987.000000	99.415969
986.000000	99.425725
985.000000	99.439592
984.000000	99.454688
983.000000	99.465094
982.000000	99.468223
981.000000	99.466273
980.000000	99.462360
979.000000	99.457550
978.000000	99.451713
977.000000	99.445131
976.000000	99.438585
975.000000	99.433364
974.000000	99.431409
973.000000	99.433868
972.000000	99.438940
971.000000	99.442811
970.000000	99.443954
969.000000	99.445557
968.000000	99.452787
967.000000	99.468259
966.000000	99.490713
965.000000	99.516731
964.000000	99.541843
963.000000	99.560404
962.000000	99.567262
961.000000	99.561825
960.000000	99.550297
959.000000	99.542480
958.000000	99.545030
957.000000	99.557108
956.000000	99.572620
955.000000	99.586530
954.000000	99.598362
953.000000	99.609926
952.000000	99.621119
951.000000	99.629356
950.000000	99.632837
949.000000	99.632950
948.000000	99.633029
947.000000	99.635340
946.000000	99.639274
945.000000	99.642006
944.000000	99.641031
943.000000	99.636643
942.000000	99.632012
941.000000	99.630249
940.000000	99.631718
939.000000	99.634836
938.000000	99.638905
937.000000	99.645067
936.000000	99.654424
935.000000	99.666073
934.000000	99.676973
933.000000	99.683499
932.000000	99.683954
931.000000	99.680475
930.000000	99.677872
929.000000	99.679599
928.000000	99.685486
927.000000	99.694211
926.000000	99.705982
925.000000	99.720325
924.000000	99.732780
923.000000	99.737639
922.000000	99.734651
921.000000	99.730078
920.000000	99.730608
919.000000	99.738478
918.000000	99.752143
917.000000	99.767868
916.000000	99.779587
915.000000	99.781590
914.000000	99.774768
913.000000	99.767640
912.000000	99.768072
911.000000	99.775704
910.000000	99.784343
909.000000	99.789540
908.000000	99.790876
907.000000	99.789089
906.000000	99.785392
905.000000	99.783071
904.000000	99.785824
903.000000	99.793761
902.000000	99.803475
901.000000	99.812278
900.000000	99.820174
899.000000	99.827681
898.000000	99.834366
897.000000	99.840138
896.000000	99.845760
895.000000	99.851286
894.000000	99.855705
893.000000	99.859083
892.000000	99.863570
891.000000	99.871207
890.000000	99.880879
889.000000	99.887517
888.000000	99.884132
887.000000	99.864999
886.000000	99.828580
885.000000	99.777660
884.000000	99.716394
883.000000	99.647313
882.000000	99.569198
881.000000	99.476054
880.000000	99.358480
879.000000	99.210416
878.000000	99.036558
877.000000	98.850379
876.000000	98.663799
875.000000	98.484210
874.000000	98.327880
873.000000	98.231361
872.000000	98.238432
871.000000	98.365284
870.000000	98.579530
869.000000	98.819332
868.000000	99.031916
867.000000	99.195613
866.000000	99.314373
865.000000	99.401309
864.000000	99.467945
863.000000	99.521477
862.000000	99.565621
861.000000	99.602467
860.000000	99.633472
859.000000	99.658645
858.000000	99.676570
857.000000	99.686390
856.000000	99.690016
855.000000	99.692039
854.000000	99.697302
853.000000	99.707664
852.000000	99.719291
851.000000	99.724048
850.000000	99.716967
849.000000	99.703415
848.000000	99.696025
847.000000	99.702411
846.000000	99.718248
845.000000	99.734338
844.000000	99.747137
843.000000	99.759214
842.000000	99.772266
841.000000	99.784641
840.000000	99.794740
839.000000	99.802184
838.000000	99.806061
837.000000	99.806570
836.000000	99.808359
835.000000	99.817102
834.000000	99.831083
833.000000	99.840904
832.000000	99.840739
831.000000	99.836163
830.000000	99.837295
829.000000	99.846753
828.000000	99.858395
827.000000	99.866563
826.000000	99.871442
825.000000	99.874814
824.000000	99.875061
823.000000	99.869116
822.000000	99.857544
821.000000	99.845474
820.000000	99.838717
819.000000	99.839185
818.000000	99.843186
817.000000	99.844104
816.000000	99.837982
815.000000	99.827735
814.000000	99.821889
813.000000	99.827829
812.000000	99.844604
811.000000	99.861585
810.000000	99.866167
809.000000	99.855911
808.000000	99.842662
807.000000	99.841482
806.000000	99.854716
805.000000	99.869975
804.000000	99.875246
803.000000	99.871670
802.000000	99.867741
801.000000	99.864951
800.000000	99.855796
799.000000	99.835619
798.000000	99.810253
797.000000	99.789899
796.000000	99.779950
795.000000	99.780138
794.000000	99.788041
793.000000	99.799340
792.000000	99.807960
791.000000	99.811409
790.000000	99.815651
789.000000	99.829826
788.000000	99.854376
787.000000	99.877423
786.000000	99.885571
785.000000	99.877166
784.000000	99.862582
783.000000	99.852334
782.000000	99.847909
781.000000	99.844896
780.000000	99.841935
779.000000	99.842847
778.000000	99.849754
777.000000	99.857298
776.000000	99.856644
775.000000	99.845164
774.000000	99.829910
773.000000	99.820479
772.000000	99.819643
771.000000	99.822183
770.000000	99.821976
769.000000	99.818033
768.000000	99.813433
767.000000	99.811139
766.000000	99.812929
765.000000	99.820364
764.000000	99.833036
763.000000	99.845467
762.000000	99.849520
761.000000	99.842593
760.000000	99.831741
759.000000	99.827206
758.000000	99.832542
757.000000	99.842556
756.000000	99.849582
755.000000	99.850041
754.000000	99.846349
753.000000	99.845028
752.000000	99.851998
751.000000	99.866541
750.000000	99.879672
749.000000	99.881131
748.000000	99.868560
747.000000	99.848397
746.000000	99.829360
745.000000	99.818265
744.000000	99.820437
743.000000	99.837570
742.000000	99.862486
741.000000	99.880591
740.000000	99.881355
739.000000	99.867665
738.000000	99.851202
737.000000	99.839924
736.000000	99.832335
735.000000	99.822786
734.000000	99.809765
733.000000	99.798217
732.000000	99.794261
731.000000	99.797497
730.000000	99.799308
729.000000	99.791099
728.000000	99.774795
727.000000	99.761674
726.000000	99.758970
725.000000	99.762162
724.000000	99.763082
723.000000	99.760208
722.000000	99.755861
721.000000	99.747285
720.000000	99.728233
719.000000	99.698493
718.000000	99.663611
717.000000	99.623283
716.000000	99.567436
715.000000	99.489923
714.000000	99.404115
713.000000	99.339561
712.000000	99.321001
711.000000	99.350493
710.000000	99.409002
709.000000	99.472246
708.000000	99.524025
707.000000	99.558022
706.000000	99.572340
705.000000	99.568059
704.000000	99.552790
703.000000	99.538772
702.000000	99.533895
701.000000	99.536488
700.000000	99.540719
699.000000	99.545198
698.000000	99.553057
697.000000	99.565706
696.000000	99.580451
695.000000	99.592990
694.000000	99.600168
693.000000	99.600622
692.000000	99.595546
691.000000	99.589443
690.000000	99.586447
689.000000	99.585921
688.000000	99.584450
687.000000	99.581971
686.000000	99.582345
685.000000	99.585633
684.000000	99.583831
683.000000	99.569049
682.000000	99.544048
681.000000	99.520546
680.000000	99.507104
679.000000	99.502053
678.000000	99.498158
677.000000	99.489368
676.000000	99.474637
675.000000	99.459107
674.000000	99.451291
673.000000	99.457623
672.000000	99.478041
671.000000	99.508486
670.000000	99.542392
669.000000	99.570008
668.000000	99.575965
667.000000	99.553190
666.000000	99.514905
665.000000	99.472721
664.000000	99.437072
663.000000	99.419027
662.000000	99.417749
661.000000	99.420889
660.000000	99.417927
659.000000	99.410788
658.000000	99.405412
657.000000	99.401982
656.000000	99.400232
655.000000	99.404568
654.000000	99.414352
653.000000	99.419409
652.000000	99.414382
651.000000	99.408196
650.000000	99.411144
649.000000	99.419341
648.000000	99.421258
647.000000	99.413541
646.000000	99.402421
645.000000	99.395269
644.000000	99.395768
643.000000	99.402084
642.000000	99.405984
641.000000	99.399296
640.000000	99.385769
639.000000	99.380808
638.000000	99.394301
637.000000	99.419875
636.000000	99.445036
635.000000	99.463480
634.000000	99.472783
633.000000	99.469011
632.000000	99.451934
631.000000	99.431621
630.000000	99.422371
629.000000	99.430669
628.000000	99.452881
627.000000	99.480148
626.000000	99.501844
625.000000	99.511222
624.000000	99.510581
623.000000	99.505495
622.000000	99.493576
621.000000	99.467806
620.000000	99.433905
619.000000	99.412853
618.000000	99.417958
617.000000	99.436759
616.000000	99.445858
615.000000	99.437960
614.000000	99.423689
613.000000	99.413323
612.000000	99.408586
611.000000	99.407965
610.000000	99.408407
609.000000	99.403670
608.000000	99.391082
607.000000	99.379123
606.000000	99.379893
605.000000	99.395933
604.000000	99.420450
603.000000	99.446868
602.000000	99.471236
601.000000	99.488320
600.000000	99.494449
599.000000	99.493268
598.000000	99.491101
597.000000	99.488250
596.000000	99.481131
595.000000	99.469798
594.000000	99.456538
593.000000	99.440494
592.000000	99.423191
591.000000	99.416914
590.000000	99.434982
589.000000	99.472976
588.000000	99.508844
587.000000	99.521772
586.000000	99.507482
585.000000	99.478916
584.000000	99.456035
583.000000	99.451722
582.000000	99.462231
581.000000	99.472825
580.000000	99.476895
579.000000	99.484560
578.000000	99.504919
577.000000	99.527641
576.000000	99.533484
575.000000	99.519053
574.000000	99.497817
573.000000	99.477144
572.000000	99.451381
571.000000	99.418659
570.000000	99.389176
569.000000	99.371334
568.000000	99.360646
567.000000	99.349222
566.000000	99.337129
565.000000	99.328602
564.000000	99.324323
563.000000	99.321801
562.000000	99.318028
561.000000	99.310994
560.000000	99.303497
559.000000	99.304863
558.000000	99.322307
557.000000	99.350163
556.000000	99.374576
555.000000	99.388928
554.000000	99.396774
553.000000	99.399377
552.000000	99.390044
551.000000	99.365030
550.000000	99.334569
549.000000	99.317225
548.000000	99.325863
547.000000	99.361376
546.000000	99.411948
545.000000	99.455716
544.000000	99.472484
543.000000	99.458240
542.000000	99.428690
541.000000	99.407116
540.000000	99.406572
539.000000	99.421127
538.000000	99.430725
537.000000	99.416123
536.000000	99.374739
535.000000	99.325237
534.000000	99.293559
533.000000	99.290862
532.000000	99.306470
531.000000	99.320795
530.000000	99.322574
529.000000	99.314329
528.000000	99.303600
527.000000	99.293575
526.000000	99.284768
525.000000	99.283535
524.000000	99.300237
523.000000	99.335166
522.000000	99.373830
521.000000	99.400636
520.000000	99.413588
519.000000	99.421613
518.000000	99.430962
517.000000	99.444044
516.000000	99.467627
515.000000	99.504051
514.000000	99.538022
513.000000	99.548909
512.000000	99.537618
511.000000	99.530344
510.000000	99.551346
509.000000	99.601592
508.000000	99.665824
507.000000	99.724323
506.000000	99.756142
505.000000	99.750766
504.000000	99.721597
503.000000	99.697102
502.000000	99.691359
501.000000	99.689916
500.000000	99.676349
499.000000	99.658237
498.000000	99.653169
497.000000	99.663325
496.000000	99.674826
495.000000	99.675946
494.000000	99.666932
493.000000	99.655458
492.000000	99.649399
491.000000	99.651425
490.000000	99.658484
489.000000	99.671587
488.000000	99.701262
487.000000	99.749832
486.000000	99.790924
485.000000	99.789379
484.000000	99.750866
483.000000	99.723820
482.000000	99.734214
481.000000	99.749116
480.000000	99.724184
479.000000	99.662744
478.000000	99.612256
477.000000	99.616863
476.000000	99.688300
475.000000	99.810498
474.000000	99.945021
473.000000	100.033570
472.000000	100.035426
471.000000	99.974617
470.000000	99.909508
469.000000	99.865952
468.000000	99.831349
467.000000	99.791631
466.000000	99.752915
465.000000	99.731602
464.000000	99.734493
463.000000	99.746918
462.000000	99.739096
461.000000	99.702382
460.000000	99.678420
459.000000	99.730351
458.000000	99.865343
457.000000	100.000469
456.000000	100.069958
455.000000	100.104285
454.000000	100.158520
453.000000	100.240735
452.000000	100.326809
451.000000	100.390623
450.000000	100.428068
