PE UV       SUBTECH     SPECTRUM    ASCII       PEDS        4.00        
   -1
S_aborted_flesh_colored.Sample.asc
23/09/07
16:12:26.00
23/09/07
16:12:26.00
Administrator

250.000000
1
Lambda 750
750N8071901
PerkinElmer UV WinLab 6.0.4.0738 / 1.61.00 Lambda 900

0
0
3350/servo 860.8/2
0
0
UV/VIS
1
1
1
CommonBeamDepol,150mm sphere / downward view
0
0
0
0
Program
Program
3350/servo 860.8/2
3350/0.2 860.8/0.2
3350/0.2 860.8/0.2
0
1
 
 
 
0
 
860.8
319.2
860.8
Front
100
on
 
 
0
0
0
 
0
 
 
 
0
 
 
0
0
0
0
0
 
 
 
 
0
0


0
0
#HDR
-1
-1
#GR
nm
%R
1.0
0.0
2500.000000
-10.000000
226
8
28.859250
-5.875030
#DATA
2500.000000	-2.659613
2490.000000	-3.765414
2480.000000	0.125665
2470.000000	-3.012956
2460.000000	-5.875030
2450.000000	-4.030281
2440.000000	-1.607858
2430.000000	-2.684154
2420.000000	-2.962458
2410.000000	-4.035047
2400.000000	-3.326984
2390.000000	-3.680763
2380.000000	-1.941187
2370.000000	-2.434256
2360.000000	-1.279340
2350.000000	-1.736881
2340.000000	-1.986860
2330.000000	-3.054626
2320.000000	-2.224737
2310.000000	-2.005282
2300.000000	-2.802280
2290.000000	-2.063481
2280.000000	-0.529180
2270.000000	-2.288322
2260.000000	-1.768655
2250.000000	-0.214096
2240.000000	-0.745646
2230.000000	-0.078292
2220.000000	-0.372094
2210.000000	-1.296129
2200.000000	-1.773250
2190.000000	-1.678932
2180.000000	-0.507103
2170.000000	-0.513602
2160.000000	-0.197610
2150.000000	0.039098
2140.000000	0.059540
2130.000000	-0.202544
2120.000000	0.064687
2110.000000	0.344016
2100.000000	-0.126970
2090.000000	-0.189351
2080.000000	-0.466034
2070.000000	-1.210197
2060.000000	-0.918172
2050.000000	-1.343495
2040.000000	-0.875383
2030.000000	-0.445702
2020.000000	-1.024348
2010.000000	-0.813090
2000.000000	-1.452816
1990.000000	-1.657408
1980.000000	-2.043891
1970.000000	-1.926287
1960.000000	-1.922838
1950.000000	-1.671007
1940.000000	-1.874491
1930.000000	-1.195080
1920.000000	0.377471
1910.000000	2.699289
1900.000000	5.467143
1890.000000	7.786268
1880.000000	9.334774
1870.000000	9.983902
1860.000000	10.236511
1850.000000	9.786319
1840.000000	9.682580
1830.000000	9.485975
1820.000000	9.252798
1810.000000	9.142488
1800.000000	8.881620
1790.000000	8.539995
1780.000000	8.138882
1770.000000	7.965521
1760.000000	7.744416
1750.000000	7.125581
1740.000000	7.017052
1730.000000	7.936910
1720.000000	8.825173
1710.000000	9.225674
1700.000000	10.060985
1690.000000	11.387958
1680.000000	12.453069
1670.000000	12.988831
1660.000000	13.073128
1650.000000	12.843055
1640.000000	12.656128
1630.000000	12.227404
1620.000000	11.767023
1610.000000	11.224077
1600.000000	10.894909
1590.000000	10.515151
1580.000000	10.126331
1570.000000	9.888516
1560.000000	9.570475
1550.000000	8.966597
1540.000000	8.494204
1530.000000	8.152328
1520.000000	8.027922
1510.000000	7.819165
1500.000000	7.806386
1490.000000	7.820569
1480.000000	7.861573
1470.000000	8.096252
1460.000000	8.519804
1450.000000	9.254548
1440.000000	10.351095
1430.000000	11.845807
1420.000000	13.908332
1410.000000	15.983442
1400.000000	17.865310
1390.000000	19.284885
1380.000000	20.158000
1370.000000	20.731657
1360.000000	21.617059
1350.000000	22.385757
1340.000000	22.858470
1330.000000	23.095867
1320.000000	23.652384
1310.000000	24.102388
1300.000000	24.139812
1290.000000	24.095124
1280.000000	24.080635
1270.000000	24.024101
1260.000000	23.926953
1250.000000	23.626668
1240.000000	23.232284
1230.000000	22.753386
1220.000000	22.455380
1210.000000	22.266586
1200.000000	22.421560
1190.000000	22.935141
1180.000000	23.647574
1170.000000	24.626950
1160.000000	25.408244
1150.000000	26.146325
1140.000000	26.653940
1130.000000	26.770462
1120.000000	27.050210
1110.000000	27.092389
1100.000000	27.100332
1090.000000	27.004323
1080.000000	27.061599
1070.000000	27.037450
1060.000000	26.996916
1050.000000	26.916700
1040.000000	26.855601
1030.000000	26.918980
1020.000000	27.139558
1010.000000	27.398093
1000.000000	27.494030
990.000000	27.542730
980.000000	27.662779
970.000000	27.873988
960.000000	28.042911
950.000000	28.241881
940.000000	28.327454
930.000000	28.163200
920.000000	28.257381
910.000000	28.249879
900.000000	28.744799
890.000000	28.758032
880.000000	28.859250
870.000000	28.514889
860.000000	28.777038
850.000000	28.115929
840.000000	23.704503
830.000000	26.288900
820.000000	27.278975
810.000000	27.667848
800.000000	27.752414
790.000000	27.302828
780.000000	27.352046
770.000000	26.962201
760.000000	26.919610
750.000000	26.715057
740.000000	26.702542
730.000000	26.467992
720.000000	26.067951
710.000000	25.674133
700.000000	25.368433
690.000000	25.076923
680.000000	24.596554
670.000000	24.027489
660.000000	23.485332
650.000000	22.918349
640.000000	22.193106
630.000000	21.462153
620.000000	20.815779
610.000000	20.179613
600.000000	19.648687
590.000000	19.189915
580.000000	18.685001
570.000000	18.160672
560.000000	17.756220
550.000000	17.235041
540.000000	16.625609
530.000000	15.962663
520.000000	15.308276
510.000000	14.661378
500.000000	13.966773
490.000000	12.780603
480.000000	11.130001
470.000000	10.556406
460.000000	9.694476
450.000000	8.362539
440.000000	6.772778
430.000000	5.449183
420.000000	4.267382
410.000000	3.518532
400.000000	3.398063
390.000000	3.294507
380.000000	3.351216
370.000000	3.398781
360.000000	2.169858
350.000000	6.707537
340.000000	10.153476
330.000000	8.764684
320.000000	6.354570
310.000000	3.832216
300.000000	2.106702
290.000000	1.960940
280.000000	1.927696
270.000000	1.977048
260.000000	3.212715
250.000000	3.631826
