PE UV       SUBTECH     SPECTRUM    ASCII       PEDS        4.00        
   -1
TDAgneauUK 22.Sample.asc
18/03/01
11:41:44.00
18/03/01
11:41:44.00
Administrator

200.000000
1
Lambda 750
750N8071901
PerkinElmer UV WinLab 6.0.4.0738 / 1.61.00 Lambda 900

0
0
3350/servo 860.8/2
0
0
UV/VIS
1
1
1
CommonBeamDepol,150mm sphere / downward view
0
0
0
0
Program
Program
3350/servo 860.8/2
3350/0.2 860.8/0.2
3350/0.2 860.8/0.2
0
1
 
 
 
0
 
860.8
319.2
860.8
Front
100
on
 
 
0
0
0
 
0
 
 
 
0
 
 
0
0
0
0
0
 
 
 
 
0
0


0
0
#HDR
-1
-1
#GR
nm
%T
1.0
0.0
2350.000000
-1.000000
2151
8
30.728706
0.059433
#DATA
2350.000000	9.935670
2349.000000	10.131153
2348.000000	10.032351
2347.000000	10.536074
2346.000000	10.060726
2345.000000	9.953603
2344.000000	9.962815
2343.000000	9.445144
2342.000000	10.002258
2341.000000	10.147941
2340.000000	10.516294
2339.000000	10.651081
2338.000000	10.238518
2337.000000	10.537701
2336.000000	10.333595
2335.000000	10.357321
2334.000000	10.934423
2333.000000	10.908425
2332.000000	11.027781
2331.000000	10.778847
2330.000000	10.654454
2329.000000	10.721991
2328.000000	10.672806
2327.000000	10.866485
2326.000000	10.751774
2325.000000	10.916768
2324.000000	10.639197
2323.000000	10.514266
2322.000000	10.520909
2321.000000	10.680204
2320.000000	10.848870
2319.000000	10.482887
2318.000000	10.367253
2317.000000	10.403443
2316.000000	10.277106
2315.000000	10.381488
2314.000000	10.276687
2313.000000	10.431443
2312.000000	10.224176
2311.000000	9.930312
2310.000000	10.090578
2309.000000	9.915914
2308.000000	9.816269
2307.000000	9.845032
2306.000000	9.742324
2305.000000	9.657821
2304.000000	9.726392
2303.000000	9.774737
2302.000000	9.679845
2301.000000	9.594389
2300.000000	9.627399
2299.000000	9.583061
2298.000000	9.386857
2297.000000	9.550101
2296.000000	9.519083
2295.000000	9.472042
2294.000000	9.462638
2293.000000	9.535910
2292.000000	9.272290
2291.000000	8.939964
2290.000000	8.841721
2289.000000	9.114947
2288.000000	9.250771
2287.000000	9.152916
2286.000000	9.033592
2285.000000	9.033593
2284.000000	9.030862
2283.000000	9.054178
2282.000000	8.910732
2281.000000	9.065401
2280.000000	8.987893
2279.000000	9.064867
2278.000000	9.106062
2277.000000	9.019318
2276.000000	9.025920
2275.000000	9.178625
2274.000000	8.990134
2273.000000	9.097358
2272.000000	9.185083
2271.000000	9.197751
2270.000000	9.191062
2269.000000	9.127590
2268.000000	9.107129
2267.000000	9.222919
2266.000000	9.343534
2265.000000	9.416484
2264.000000	9.642718
2263.000000	9.667527
2262.000000	9.603211
2261.000000	9.805360
2260.000000	9.791173
2259.000000	9.839127
2258.000000	10.045471
2257.000000	10.103437
2256.000000	10.226000
2255.000000	10.350266
2254.000000	10.533324
2253.000000	10.598314
2252.000000	10.668634
2251.000000	10.966056
2250.000000	11.102420
2249.000000	11.202613
2248.000000	11.303075
2247.000000	11.301331
2246.000000	11.399589
2245.000000	11.546722
2244.000000	11.763106
2243.000000	11.849250
2242.000000	11.801617
2241.000000	11.919133
2240.000000	12.025932
2239.000000	12.129736
2238.000000	12.186855
2237.000000	12.159222
2236.000000	12.269048
2235.000000	12.402036
2234.000000	12.476659
2233.000000	12.468010
2232.000000	12.473674
2231.000000	12.553532
2230.000000	12.643970
2229.000000	12.628751
2228.000000	12.636399
2227.000000	12.683814
2226.000000	12.610310
2225.000000	12.608964
2224.000000	12.620558
2223.000000	12.510436
2222.000000	12.673775
2221.000000	12.694155
2220.000000	12.501254
2219.000000	12.411570
2218.000000	12.455477
2217.000000	12.495471
2216.000000	12.531077
2215.000000	12.412641
2214.000000	12.290173
2213.000000	12.212474
2212.000000	12.344805
2211.000000	12.303358
2210.000000	12.290262
2209.000000	12.335227
2208.000000	12.218630
2207.000000	12.071750
2206.000000	11.909728
2205.000000	11.894195
2204.000000	11.878859
2203.000000	11.819091
2202.000000	11.803355
2201.000000	11.823903
2200.000000	11.758613
2199.000000	11.723047
2198.000000	11.666430
2197.000000	11.577030
2196.000000	11.552207
2195.000000	11.673742
2194.000000	11.598168
2193.000000	11.461972
2192.000000	11.321927
2191.000000	11.357142
2190.000000	11.369786
2189.000000	11.210643
2188.000000	11.058327
2187.000000	11.179171
2186.000000	11.125011
2185.000000	11.153884
2184.000000	11.111796
2183.000000	11.275032
2182.000000	11.133052
2181.000000	10.815286
2180.000000	10.809439
2179.000000	10.886025
2178.000000	10.841626
2177.000000	10.844412
2176.000000	10.922407
2175.000000	11.153079
2174.000000	10.909054
2173.000000	10.958484
2172.000000	11.064807
2171.000000	10.928414
2170.000000	11.081783
2169.000000	11.145378
2168.000000	11.200028
2167.000000	11.201770
2166.000000	11.075490
2165.000000	11.297353
2164.000000	11.262450
2163.000000	11.256556
2162.000000	11.524230
2161.000000	11.397167
2160.000000	11.713362
2159.000000	11.564429
2158.000000	11.774993
2157.000000	11.757199
2156.000000	11.811591
2155.000000	11.799311
2154.000000	12.059534
2153.000000	12.274121
2152.000000	12.428481
2151.000000	12.275085
2150.000000	12.463453
2149.000000	12.391970
2148.000000	12.571551
2147.000000	12.725056
2146.000000	12.719806
2145.000000	12.805520
2144.000000	13.014933
2143.000000	13.112957
2142.000000	13.167411
2141.000000	13.084062
2140.000000	13.166244
2139.000000	13.249979
2138.000000	13.476070
2137.000000	13.473339
2136.000000	13.422781
2135.000000	13.660660
2134.000000	13.709700
2133.000000	13.528991
2132.000000	13.882260
2131.000000	13.915980
2130.000000	13.841240
2129.000000	13.962757
2128.000000	13.825998
2127.000000	13.860703
2126.000000	13.933840
2125.000000	14.036397
2124.000000	14.263326
2123.000000	14.110825
2122.000000	14.229656
2121.000000	14.290042
2120.000000	14.118295
2119.000000	14.121762
2118.000000	14.313301
2117.000000	14.284764
2116.000000	14.384318
2115.000000	14.414090
2114.000000	14.356382
2113.000000	14.483730
2112.000000	14.436203
2111.000000	14.500914
2110.000000	14.326869
2109.000000	14.434856
2108.000000	14.427149
2107.000000	14.469375
2106.000000	14.554467
2105.000000	14.593994
2104.000000	14.545524
2103.000000	14.770105
2102.000000	14.598783
2101.000000	14.473409
2100.000000	14.577805
2099.000000	14.580257
2098.000000	14.484078
2097.000000	14.491953
2096.000000	14.512743
2095.000000	14.608947
2094.000000	14.507579
2093.000000	14.474515
2092.000000	14.620735
2091.000000	14.567342
2090.000000	14.617183
2089.000000	14.558976
2088.000000	14.632382
2087.000000	14.489920
2086.000000	14.510139
2085.000000	14.521788
2084.000000	14.423854
2083.000000	14.389241
2082.000000	14.384548
2081.000000	14.307237
2080.000000	14.275156
2079.000000	14.228593
2078.000000	14.184651
2077.000000	14.118599
2076.000000	14.006136
2075.000000	14.019562
2074.000000	14.001021
2073.000000	13.903640
2072.000000	13.850109
2071.000000	13.774215
2070.000000	13.757371
2069.000000	13.628154
2068.000000	13.551604
2067.000000	13.389565
2066.000000	13.310450
2065.000000	13.204917
2064.000000	13.137401
2063.000000	13.041460
2062.000000	13.004895
2061.000000	12.903777
2060.000000	12.779959
2059.000000	12.612483
2058.000000	12.579406
2057.000000	12.501921
2056.000000	12.436702
2055.000000	12.416275
2054.000000	12.349276
2053.000000	12.186177
2052.000000	12.068334
2051.000000	12.044639
2050.000000	11.964216
2049.000000	11.923584
2048.000000	11.880698
2047.000000	11.843006
2046.000000	11.781646
2045.000000	11.781399
2044.000000	11.730233
2043.000000	11.740695
2042.000000	11.769825
2041.000000	11.779094
2040.000000	11.792847
2039.000000	11.798199
2038.000000	11.830709
2037.000000	11.902827
2036.000000	11.931308
2035.000000	11.987197
2034.000000	12.077241
2033.000000	12.082698
2032.000000	12.130611
2031.000000	12.260696
2030.000000	12.353620
2029.000000	12.429283
2028.000000	12.526077
2027.000000	12.623785
2026.000000	12.716915
2025.000000	12.795226
2024.000000	12.845866
2023.000000	12.905590
2022.000000	12.998442
2021.000000	13.064499
2020.000000	13.100812
2019.000000	13.127704
2018.000000	13.175250
2017.000000	13.220080
2016.000000	13.251053
2015.000000	13.281690
2014.000000	13.307476
2013.000000	13.345306
2012.000000	13.368743
2011.000000	13.312328
2010.000000	13.279289
2009.000000	13.301134
2008.000000	13.279958
2007.000000	13.261484
2006.000000	13.211048
2005.000000	13.172051
2004.000000	13.140214
2003.000000	13.102066
2002.000000	13.077878
2001.000000	13.048442
2000.000000	12.989705
1999.000000	12.943497
1998.000000	12.884238
1997.000000	12.848726
1996.000000	12.799815
1995.000000	12.762963
1994.000000	12.696232
1993.000000	12.617860
1992.000000	12.584525
1991.000000	12.504531
1990.000000	12.455320
1989.000000	12.411400
1988.000000	12.351513
1987.000000	12.346858
1986.000000	12.275899
1985.000000	12.228780
1984.000000	12.189030
1983.000000	12.115692
1982.000000	12.062955
1981.000000	12.017525
1980.000000	11.966520
1979.000000	11.910043
1978.000000	11.858426
1977.000000	11.833113
1976.000000	11.768931
1975.000000	11.705315
1974.000000	11.646094
1973.000000	11.617592
1972.000000	11.560456
1971.000000	11.490259
1970.000000	11.409522
1969.000000	11.338718
1968.000000	11.288497
1967.000000	11.300695
1966.000000	11.232478
1965.000000	11.213071
1964.000000	11.185378
1963.000000	11.092566
1962.000000	10.984509
1961.000000	10.982924
1960.000000	10.943386
1959.000000	10.894594
1958.000000	10.830462
1957.000000	10.791119
1956.000000	10.744070
1955.000000	10.666233
1954.000000	10.628001
1953.000000	10.617406
1952.000000	10.609414
1951.000000	10.596779
1950.000000	10.549004
1949.000000	10.504218
1948.000000	10.459390
1947.000000	10.486693
1946.000000	10.491412
1945.000000	10.489586
1944.000000	10.463300
1943.000000	10.547454
1942.000000	10.505261
1941.000000	10.521973
1940.000000	10.547329
1939.000000	10.565573
1938.000000	10.589761
1937.000000	10.710281
1936.000000	10.751098
1935.000000	10.777420
1934.000000	10.827530
1933.000000	10.979877
1932.000000	11.024253
1931.000000	11.006292
1930.000000	11.177204
1929.000000	11.292950
1928.000000	11.435189
1927.000000	11.496620
1926.000000	11.636846
1925.000000	11.760827
1924.000000	11.916458
1923.000000	11.983293
1922.000000	12.257233
1921.000000	12.394045
1920.000000	12.605736
1919.000000	12.715960
1918.000000	12.913072
1917.000000	13.159922
1916.000000	13.177556
1915.000000	13.463792
1914.000000	13.708194
1913.000000	13.996930
1912.000000	14.133382
1911.000000	14.331838
1910.000000	14.631550
1909.000000	14.845065
1908.000000	15.128082
1907.000000	15.363656
1906.000000	15.590322
1905.000000	15.913847
1904.000000	16.203908
1903.000000	16.459381
1902.000000	16.730082
1901.000000	17.033883
1900.000000	17.320817
1899.000000	17.612731
1898.000000	18.001364
1897.000000	18.284923
1896.000000	18.548756
1895.000000	18.864923
1894.000000	19.178854
1893.000000	19.483879
1892.000000	19.685967
1891.000000	19.975624
1890.000000	20.298396
1889.000000	20.490325
1888.000000	20.724668
1887.000000	21.089325
1886.000000	21.311529
1885.000000	21.501903
1884.000000	21.728565
1883.000000	21.974143
1882.000000	22.174732
1881.000000	22.342290
1880.000000	22.570950
1879.000000	22.717552
1878.000000	22.869105
1877.000000	23.063590
1876.000000	23.198727
1875.000000	23.350261
1874.000000	23.505669
1873.000000	23.587039
1872.000000	23.689328
1871.000000	23.799583
1870.000000	23.887308
1869.000000	23.962180
1868.000000	24.033085
1867.000000	24.059020
1866.000000	24.124214
1865.000000	24.195772
1864.000000	24.221901
1863.000000	24.287374
1862.000000	24.327566
1861.000000	24.313737
1860.000000	24.336614
1859.000000	24.372345
1858.000000	24.387309
1857.000000	24.408232
1856.000000	24.423241
1855.000000	24.436493
1854.000000	24.474340
1853.000000	24.480974
1852.000000	24.490731
1851.000000	24.489548
1850.000000	24.487954
1849.000000	24.478078
1848.000000	24.493041
1847.000000	24.447619
1846.000000	24.428700
1845.000000	24.424345
1844.000000	24.374691
1843.000000	24.398750
1842.000000	24.367249
1841.000000	24.342557
1840.000000	24.316487
1839.000000	24.344362
1838.000000	24.325286
1837.000000	24.271079
1836.000000	24.241714
1835.000000	24.195860
1834.000000	24.154782
1833.000000	24.156355
1832.000000	24.115393
1831.000000	24.089513
1830.000000	24.080282
1829.000000	24.054299
1828.000000	24.011901
1827.000000	23.990125
1826.000000	23.970878
1825.000000	23.945796
1824.000000	23.924783
1823.000000	23.890438
1822.000000	23.836032
1821.000000	23.809234
1820.000000	23.809988
1819.000000	23.794418
1818.000000	23.757463
1817.000000	23.731765
1816.000000	23.726423
1815.000000	23.708875
1814.000000	23.676777
1813.000000	23.646184
1812.000000	23.627300
1811.000000	23.617470
1810.000000	23.596425
1809.000000	23.575235
1808.000000	23.553089
1807.000000	23.527793
1806.000000	23.511765
1805.000000	23.485338
1804.000000	23.464287
1803.000000	23.458202
1802.000000	23.443941
1801.000000	23.425550
1800.000000	23.413597
1799.000000	23.404126
1798.000000	23.384016
1797.000000	23.370481
1796.000000	23.357636
1795.000000	23.340363
1794.000000	23.323042
1793.000000	23.302922
1792.000000	23.299670
1791.000000	23.297711
1790.000000	23.281539
1789.000000	23.257153
1788.000000	23.261104
1787.000000	23.249553
1786.000000	23.237866
1785.000000	23.224561
1784.000000	23.197572
1783.000000	23.160043
1782.000000	23.157994
1781.000000	23.128540
1780.000000	23.103705
1779.000000	23.069454
1778.000000	23.039688
1777.000000	22.992938
1776.000000	22.948930
1775.000000	22.902300
1774.000000	22.860952
1773.000000	22.844447
1772.000000	22.785714
1771.000000	22.743034
1770.000000	22.717775
1769.000000	22.647854
1768.000000	22.632076
1767.000000	22.599911
1766.000000	22.534942
1765.000000	22.476395
1764.000000	22.444373
1763.000000	22.396454
1762.000000	22.344377
1761.000000	22.317185
1760.000000	22.267845
1759.000000	22.210948
1758.000000	22.189032
1757.000000	22.155203
1756.000000	22.110286
1755.000000	22.083245
1754.000000	22.034738
1753.000000	21.992882
1752.000000	21.940908
1751.000000	21.885536
1750.000000	21.868132
1749.000000	21.832633
1748.000000	21.768496
1747.000000	21.712710
1746.000000	21.678712
1745.000000	21.632950
1744.000000	21.602950
1743.000000	21.554448
1742.000000	21.514870
1741.000000	21.468647
1740.000000	21.434498
1739.000000	21.366934
1738.000000	21.386578
1737.000000	21.354147
1736.000000	21.321802
1735.000000	21.300775
1734.000000	21.282594
1733.000000	21.276710
1732.000000	21.286779
1731.000000	21.310180
1730.000000	21.306301
1729.000000	21.317752
1728.000000	21.381998
1727.000000	21.397485
1726.000000	21.411892
1725.000000	21.469796
1724.000000	21.523923
1723.000000	21.554369
1722.000000	21.627473
1721.000000	21.663717
1720.000000	21.720637
1719.000000	21.835125
1718.000000	21.850231
1717.000000	21.919721
1716.000000	21.973484
1715.000000	22.029706
1714.000000	22.060276
1713.000000	22.113189
1712.000000	22.167727
1711.000000	22.204407
1710.000000	22.250721
1709.000000	22.294894
1708.000000	22.297245
1707.000000	22.324774
1706.000000	22.350633
1705.000000	22.387951
1704.000000	22.413977
1703.000000	22.406617
1702.000000	22.378583
1701.000000	22.422100
1700.000000	22.415979
1699.000000	22.412909
1698.000000	22.476030
1697.000000	22.487028
1696.000000	22.500449
1695.000000	22.530622
1694.000000	22.525023
1693.000000	22.540811
1692.000000	22.613875
1691.000000	22.667228
1690.000000	22.711280
1689.000000	22.762559
1688.000000	22.825836
1687.000000	22.921938
1686.000000	23.013386
1685.000000	23.114027
1684.000000	23.191917
1683.000000	23.296104
1682.000000	23.411934
1681.000000	23.514142
1680.000000	23.609939
1679.000000	23.720828
1678.000000	23.851682
1677.000000	23.960962
1676.000000	24.069246
1675.000000	24.191806
1674.000000	24.297495
1673.000000	24.435085
1672.000000	24.518135
1671.000000	24.610509
1670.000000	24.723694
1669.000000	24.859388
1668.000000	24.930971
1667.000000	25.008145
1666.000000	25.058653
1665.000000	25.117409
1664.000000	25.192445
1663.000000	25.222229
1662.000000	25.296982
1661.000000	25.345456
1660.000000	25.380329
1659.000000	25.431855
1658.000000	25.469882
1657.000000	25.517366
1656.000000	25.536684
1655.000000	25.554849
1654.000000	25.587526
1653.000000	25.592026
1652.000000	25.606078
1651.000000	25.615268
1650.000000	25.613403
1649.000000	25.597933
1648.000000	25.571645
1647.000000	25.575420
1646.000000	25.561537
1645.000000	25.564253
1644.000000	25.551336
1643.000000	25.538349
1642.000000	25.537945
1641.000000	25.520147
1640.000000	25.490115
1639.000000	25.476554
1638.000000	25.446129
1637.000000	25.435202
1636.000000	25.420185
1635.000000	25.386822
1634.000000	25.367535
1633.000000	25.339236
1632.000000	25.320927
1631.000000	25.293992
1630.000000	25.272904
1629.000000	25.251032
1628.000000	25.220900
1627.000000	25.188061
1626.000000	25.166813
1625.000000	25.152806
1624.000000	25.139886
1623.000000	25.126537
1622.000000	25.077364
1621.000000	25.025164
1620.000000	25.003145
1619.000000	24.970958
1618.000000	24.935803
1617.000000	24.912263
1616.000000	24.897396
1615.000000	24.850582
1614.000000	24.805970
1613.000000	24.765673
1612.000000	24.744922
1611.000000	24.706220
1610.000000	24.670048
1609.000000	24.634810
1608.000000	24.606952
1607.000000	24.566791
1606.000000	24.530381
1605.000000	24.496991
1604.000000	24.459543
1603.000000	24.433465
1602.000000	24.390721
1601.000000	24.350948
1600.000000	24.306941
1599.000000	24.260137
1598.000000	24.229625
1597.000000	24.204521
1596.000000	24.168950
1595.000000	24.137784
1594.000000	24.109622
1593.000000	24.079213
1592.000000	24.049407
1591.000000	24.009135
1590.000000	23.978586
1589.000000	23.945584
1588.000000	23.911965
1587.000000	23.887852
1586.000000	23.876536
1585.000000	23.853984
1584.000000	23.818050
1583.000000	23.791920
1582.000000	23.752122
1581.000000	23.718494
1580.000000	23.701952
1579.000000	23.682329
1578.000000	23.642700
1577.000000	23.608695
1576.000000	23.591201
1575.000000	23.562588
1574.000000	23.534155
1573.000000	23.511733
1572.000000	23.482741
1571.000000	23.453409
1570.000000	23.436091
1569.000000	23.408729
1568.000000	23.385626
1567.000000	23.366422
1566.000000	23.336977
1565.000000	23.315243
1564.000000	23.295571
1563.000000	23.293884
1562.000000	23.276777
1561.000000	23.255269
1560.000000	23.229828
1559.000000	23.226414
1558.000000	23.203501
1557.000000	23.186048
1556.000000	23.172622
1555.000000	23.163635
1554.000000	23.142720
1553.000000	23.127149
1552.000000	23.112519
1551.000000	23.081775
1550.000000	23.059628
1549.000000	23.045423
1548.000000	23.021350
1547.000000	22.979810
1546.000000	22.935291
1545.000000	22.896217
1544.000000	22.858253
1543.000000	22.797936
1542.000000	22.753564
1541.000000	22.707365
1540.000000	22.656923
1539.000000	22.607113
1538.000000	22.553533
1537.000000	22.476612
1536.000000	22.425639
1535.000000	22.366023
1534.000000	22.306351
1533.000000	22.245161
1532.000000	22.181960
1531.000000	22.123890
1530.000000	22.077565
1529.000000	22.013296
1528.000000	21.979942
1527.000000	21.921673
1526.000000	21.874338
1525.000000	21.837686
1524.000000	21.780002
1523.000000	21.742843
1522.000000	21.720484
1521.000000	21.678171
1520.000000	21.641345
1519.000000	21.610702
1518.000000	21.576034
1517.000000	21.566899
1516.000000	21.529293
1515.000000	21.482508
1514.000000	21.458068
1513.000000	21.440400
1512.000000	21.427630
1511.000000	21.408950
1510.000000	21.390378
1509.000000	21.365456
1508.000000	21.350177
1507.000000	21.338977
1506.000000	21.332350
1505.000000	21.332277
1504.000000	21.328144
1503.000000	21.317444
1502.000000	21.327528
1501.000000	21.344175
1500.000000	21.359537
1499.000000	21.384889
1498.000000	21.386583
1497.000000	21.373027
1496.000000	21.384745
1495.000000	21.391236
1494.000000	21.416734
1493.000000	21.418279
1492.000000	21.450358
1491.000000	21.499331
1490.000000	21.526366
1489.000000	21.558039
1488.000000	21.602515
1487.000000	21.655700
1486.000000	21.696646
1485.000000	21.741105
1484.000000	21.811743
1483.000000	21.882707
1482.000000	21.877281
1481.000000	21.970592
1480.000000	22.036882
1479.000000	22.069345
1478.000000	22.127573
1477.000000	22.182279
1476.000000	22.231819
1475.000000	22.295110
1474.000000	22.331205
1473.000000	22.398130
1472.000000	22.425607
1471.000000	22.481868
1470.000000	22.524195
1469.000000	22.572176
1468.000000	22.632622
1467.000000	22.704775
1466.000000	22.732291
1465.000000	22.755013
1464.000000	22.785354
1463.000000	22.853632
1462.000000	22.885608
1461.000000	22.915957
1460.000000	22.953891
1459.000000	23.017364
1458.000000	23.052009
1457.000000	23.067113
1456.000000	23.094102
1455.000000	23.135590
1454.000000	23.191380
1453.000000	23.228678
1452.000000	23.271373
1451.000000	23.303356
1450.000000	23.354841
1449.000000	23.403861
1448.000000	23.433089
1447.000000	23.464858
1446.000000	23.498130
1445.000000	23.540837
1444.000000	23.620602
1443.000000	23.685353
1442.000000	23.711777
1441.000000	23.748088
1440.000000	23.793615
1439.000000	23.822588
1438.000000	23.884389
1437.000000	23.970100
1436.000000	24.030111
1435.000000	24.071805
1434.000000	24.128203
1433.000000	24.177721
1432.000000	24.245603
1431.000000	24.310581
1430.000000	24.390345
1429.000000	24.456447
1428.000000	24.531924
1427.000000	24.594723
1426.000000	24.668168
1425.000000	24.744486
1424.000000	24.845696
1423.000000	24.936846
1422.000000	25.019934
1421.000000	25.106424
1420.000000	25.186254
1419.000000	25.243996
1418.000000	25.337746
1417.000000	25.436521
1416.000000	25.558560
1415.000000	25.662709
1414.000000	25.750581
1413.000000	25.838751
1412.000000	25.925180
1411.000000	26.015743
1410.000000	26.109135
1409.000000	26.216323
1408.000000	26.319619
1407.000000	26.419124
1406.000000	26.518354
1405.000000	26.589423
1404.000000	26.676344
1403.000000	26.757222
1402.000000	26.846335
1401.000000	26.939518
1400.000000	27.021866
1399.000000	27.100282
1398.000000	27.179857
1397.000000	27.256202
1396.000000	27.335049
1395.000000	27.411372
1394.000000	27.494635
1393.000000	27.560626
1392.000000	27.632035
1391.000000	27.710748
1390.000000	27.802225
1389.000000	27.867530
1388.000000	27.919251
1387.000000	27.989652
1386.000000	28.056763
1385.000000	28.105388
1384.000000	28.137710
1383.000000	28.186920
1382.000000	28.246568
1381.000000	28.292229
1380.000000	28.337753
1379.000000	28.380085
1378.000000	28.405864
1377.000000	28.448409
1376.000000	28.494393
1375.000000	28.519378
1374.000000	28.537112
1373.000000	28.552712
1372.000000	28.587257
1371.000000	28.638154
1370.000000	28.663891
1369.000000	28.677878
1368.000000	28.693103
1367.000000	28.711979
1366.000000	28.737843
1365.000000	28.769746
1364.000000	28.801685
1363.000000	28.826469
1362.000000	28.854233
1361.000000	28.877059
1360.000000	28.897630
1359.000000	28.916918
1358.000000	28.961587
1357.000000	29.011992
1356.000000	29.030696
1355.000000	29.055527
1354.000000	29.076078
1353.000000	29.095328
1352.000000	29.129446
1351.000000	29.168951
1350.000000	29.201749
1349.000000	29.225059
1348.000000	29.237709
1347.000000	29.253361
1346.000000	29.262338
1345.000000	29.310879
1344.000000	29.361889
1343.000000	29.387031
1342.000000	29.402461
1341.000000	29.416519
1340.000000	29.435565
1339.000000	29.462313
1338.000000	29.483436
1337.000000	29.496582
1336.000000	29.518171
1335.000000	29.520737
1334.000000	29.552727
1333.000000	29.591490
1332.000000	29.607650
1331.000000	29.619353
1330.000000	29.635451
1329.000000	29.638907
1328.000000	29.656426
1327.000000	29.656023
1326.000000	29.655693
1325.000000	29.673810
1324.000000	29.700123
1323.000000	29.707741
1322.000000	29.708064
1321.000000	29.725387
1320.000000	29.728202
1319.000000	29.723116
1318.000000	29.733441
1317.000000	29.738059
1316.000000	29.747775
1315.000000	29.772478
1314.000000	29.772858
1313.000000	29.770567
1312.000000	29.785711
1311.000000	29.781001
1310.000000	29.782588
1309.000000	29.805329
1308.000000	29.803799
1307.000000	29.804840
1306.000000	29.800125
1305.000000	29.827271
1304.000000	29.823230
1303.000000	29.812171
1302.000000	29.806398
1301.000000	29.811853
1300.000000	29.819573
1299.000000	29.819126
1298.000000	29.813339
1297.000000	29.824398
1296.000000	29.832839
1295.000000	29.818517
1294.000000	29.816122
1293.000000	29.824615
1292.000000	29.829660
1291.000000	29.817600
1290.000000	29.813753
1289.000000	29.809667
1288.000000	29.803619
1287.000000	29.801910
1286.000000	29.811284
1285.000000	29.801136
1284.000000	29.789843
1283.000000	29.806059
1282.000000	29.741049
1281.000000	29.743913
1280.000000	29.756825
1279.000000	29.769674
1278.000000	29.753884
1277.000000	29.755704
1276.000000	29.755163
1275.000000	29.747081
1274.000000	29.742444
1273.000000	29.738208
1272.000000	29.753078
1271.000000	29.759586
1270.000000	29.738372
1269.000000	29.737364
1268.000000	29.750024
1267.000000	29.731299
1266.000000	29.764748
1265.000000	29.783055
1264.000000	29.786523
1263.000000	29.768638
1262.000000	29.790400
1261.000000	29.779299
1260.000000	29.789696
1259.000000	29.817855
1258.000000	29.805958
1257.000000	29.795244
1256.000000	29.812991
1255.000000	29.803873
1254.000000	29.798302
1253.000000	29.804646
1252.000000	29.833180
1251.000000	29.839144
1250.000000	29.839127
1249.000000	29.841809
1248.000000	29.829561
1247.000000	29.826956
1246.000000	29.809275
1245.000000	29.812021
1244.000000	29.775184
1243.000000	29.760722
1242.000000	29.761950
1241.000000	29.761815
1240.000000	29.762545
1239.000000	29.712488
1238.000000	29.711813
1237.000000	29.713047
1236.000000	29.708730
1235.000000	29.667860
1234.000000	29.663042
1233.000000	29.655419
1232.000000	29.630298
1231.000000	29.608378
1230.000000	29.602103
1229.000000	29.601421
1228.000000	29.587485
1227.000000	29.585950
1226.000000	29.533510
1225.000000	29.516755
1224.000000	29.524168
1223.000000	29.512612
1222.000000	29.508524
1221.000000	29.507243
1220.000000	29.490910
1219.000000	29.469892
1218.000000	29.452725
1217.000000	29.441952
1216.000000	29.430584
1215.000000	29.435816
1214.000000	29.425718
1213.000000	29.382633
1212.000000	29.370221
1211.000000	29.364477
1210.000000	29.343002
1209.000000	29.315485
1208.000000	29.288513
1207.000000	29.288552
1206.000000	29.285393
1205.000000	29.263087
1204.000000	29.251800
1203.000000	29.218441
1202.000000	29.182349
1201.000000	29.163755
1200.000000	29.154004
1199.000000	29.156765
1198.000000	29.125267
1197.000000	29.096012
1196.000000	29.083490
1195.000000	29.094816
1194.000000	29.094527
1193.000000	29.075023
1192.000000	29.046563
1191.000000	29.036006
1190.000000	29.009890
1189.000000	28.953143
1188.000000	28.957870
1187.000000	28.967221
1186.000000	28.955811
1185.000000	28.944944
1184.000000	28.951087
1183.000000	28.964802
1182.000000	28.976657
1181.000000	28.995666
1180.000000	29.014993
1179.000000	29.037903
1178.000000	29.053116
1177.000000	29.077630
1176.000000	29.101694
1175.000000	29.128552
1174.000000	29.148764
1173.000000	29.191518
1172.000000	29.231328
1171.000000	29.245693
1170.000000	29.267277
1169.000000	29.297102
1168.000000	29.340327
1167.000000	29.386528
1166.000000	29.424631
1165.000000	29.458318
1164.000000	29.487163
1163.000000	29.520944
1162.000000	29.557474
1161.000000	29.591238
1160.000000	29.628354
1159.000000	29.666293
1158.000000	29.706142
1157.000000	29.739788
1156.000000	29.770037
1155.000000	29.807087
1154.000000	29.826876
1153.000000	29.847190
1152.000000	29.876658
1151.000000	29.904050
1150.000000	29.909561
1149.000000	29.914208
1148.000000	29.934362
1147.000000	29.960451
1146.000000	29.981432
1145.000000	30.003300
1144.000000	30.031720
1143.000000	30.057926
1142.000000	30.076647
1141.000000	30.096413
1140.000000	30.120691
1139.000000	30.152092
1138.000000	30.178101
1137.000000	30.187346
1136.000000	30.201968
1135.000000	30.221951
1134.000000	30.239615
1133.000000	30.250377
1132.000000	30.264502
1131.000000	30.257604
1130.000000	30.255719
1129.000000	30.271680
1128.000000	30.304778
1127.000000	30.319707
1126.000000	30.333647
1125.000000	30.335148
1124.000000	30.335572
1123.000000	30.353979
1122.000000	30.370771
1121.000000	30.373224
1120.000000	30.375835
1119.000000	30.376757
1118.000000	30.387934
1117.000000	30.384285
1116.000000	30.380178
1115.000000	30.388632
1114.000000	30.359554
1113.000000	30.353906
1112.000000	30.367714
1111.000000	30.368120
1110.000000	30.381410
1109.000000	30.387393
1108.000000	30.381633
1107.000000	30.384236
1106.000000	30.398117
1105.000000	30.400074
1104.000000	30.404379
1103.000000	30.415880
1102.000000	30.392638
1101.000000	30.375002
1100.000000	30.379661
1099.000000	30.381209
1098.000000	30.388304
1097.000000	30.392246
1096.000000	30.386071
1095.000000	30.406049
1094.000000	30.374904
1093.000000	30.369720
1092.000000	30.370953
1091.000000	30.381655
1090.000000	30.402015
1089.000000	30.394089
1088.000000	30.385591
1087.000000	30.361877
1086.000000	30.337297
1085.000000	30.348435
1084.000000	30.368662
1083.000000	30.379516
1082.000000	30.379640
1081.000000	30.370461
1080.000000	30.329658
1079.000000	30.335200
1078.000000	30.333021
1077.000000	30.347762
1076.000000	30.349442
1075.000000	30.347325
1074.000000	30.349016
1073.000000	30.311846
1072.000000	30.308984
1071.000000	30.320533
1070.000000	30.331330
1069.000000	30.324410
1068.000000	30.318064
1067.000000	30.339578
1066.000000	30.284328
1065.000000	30.276758
1064.000000	30.286893
1063.000000	30.292195
1062.000000	30.299728
1061.000000	30.300653
1060.000000	30.309590
1059.000000	30.259265
1058.000000	30.259972
1057.000000	30.262533
1056.000000	30.274056
1055.000000	30.256971
1054.000000	30.231735
1053.000000	30.241002
1052.000000	30.240549
1051.000000	30.255477
1050.000000	30.243598
1049.000000	30.224686
1048.000000	30.208721
1047.000000	30.240657
1046.000000	30.245057
1045.000000	30.204233
1044.000000	30.189245
1043.000000	30.196088
1042.000000	30.188478
1041.000000	30.207006
1040.000000	30.175641
1039.000000	30.192071
1038.000000	30.202995
1037.000000	30.197758
1036.000000	30.171193
1035.000000	30.175060
1034.000000	30.185189
1033.000000	30.178828
1032.000000	30.180926
1031.000000	30.172049
1030.000000	30.179457
1029.000000	30.193781
1028.000000	30.172045
1027.000000	30.162861
1026.000000	30.173287
1025.000000	30.158138
1024.000000	30.162518
1023.000000	30.161551
1022.000000	30.168989
1021.000000	30.158844
1020.000000	30.162533
1019.000000	30.189219
1018.000000	30.172407
1017.000000	30.174513
1016.000000	30.171553
1015.000000	30.152619
1014.000000	30.182793
1013.000000	30.192331
1012.000000	30.173137
1011.000000	30.187796
1010.000000	30.191646
1009.000000	30.183595
1008.000000	30.174767
1007.000000	30.196578
1006.000000	30.208448
1005.000000	30.221273
1004.000000	30.223621
1003.000000	30.244776
1002.000000	30.255243
1001.000000	30.267742
1000.000000	30.279196
999.000000	30.291557
998.000000	30.297872
997.000000	30.302521
996.000000	30.298528
995.000000	30.301823
994.000000	30.303119
993.000000	30.318130
992.000000	30.319832
991.000000	30.329148
990.000000	30.341377
989.000000	30.343890
988.000000	30.322763
987.000000	30.334873
986.000000	30.346829
985.000000	30.344892
984.000000	30.356941
983.000000	30.365505
982.000000	30.375826
981.000000	30.375095
980.000000	30.362180
979.000000	30.375810
978.000000	30.370162
977.000000	30.378649
976.000000	30.377906
975.000000	30.377017
974.000000	30.388375
973.000000	30.397500
972.000000	30.394569
971.000000	30.391951
970.000000	30.406393
969.000000	30.421058
968.000000	30.408117
967.000000	30.400136
966.000000	30.406782
965.000000	30.409066
964.000000	30.424663
963.000000	30.437561
962.000000	30.427793
961.000000	30.429660
960.000000	30.453510
959.000000	30.452918
958.000000	30.443689
957.000000	30.467690
956.000000	30.485515
955.000000	30.476975
954.000000	30.471334
953.000000	30.469490
952.000000	30.468828
951.000000	30.466221
950.000000	30.461356
949.000000	30.473164
948.000000	30.483033
947.000000	30.483232
946.000000	30.499263
945.000000	30.495791
944.000000	30.492146
943.000000	30.507417
942.000000	30.509607
941.000000	30.509084
940.000000	30.517758
939.000000	30.507932
938.000000	30.507291
937.000000	30.542847
936.000000	30.533072
935.000000	30.524300
934.000000	30.513848
933.000000	30.475841
932.000000	30.484732
931.000000	30.504630
930.000000	30.520206
929.000000	30.518296
928.000000	30.499157
927.000000	30.525590
926.000000	30.557925
925.000000	30.543160
924.000000	30.525451
923.000000	30.510355
922.000000	30.504103
921.000000	30.506315
920.000000	30.527577
919.000000	30.516172
918.000000	30.490950
917.000000	30.515983
916.000000	30.523394
915.000000	30.531190
914.000000	30.521206
913.000000	30.499483
912.000000	30.528719
911.000000	30.552260
910.000000	30.554074
909.000000	30.550889
908.000000	30.569071
907.000000	30.530278
906.000000	30.523626
905.000000	30.576157
904.000000	30.558272
903.000000	30.556830
902.000000	30.556826
901.000000	30.587037
900.000000	30.578924
899.000000	30.571307
898.000000	30.608420
897.000000	30.630558
896.000000	30.612237
895.000000	30.666539
894.000000	30.610034
893.000000	30.655612
892.000000	30.662931
891.000000	30.583041
890.000000	30.539452
889.000000	30.591829
888.000000	30.640820
887.000000	30.630074
886.000000	30.647070
885.000000	30.600921
884.000000	30.649760
883.000000	30.685085
882.000000	30.691807
881.000000	30.652355
880.000000	30.692983
879.000000	30.690533
878.000000	30.649582
877.000000	30.620848
876.000000	30.608553
875.000000	30.659010
874.000000	30.636793
873.000000	30.639781
872.000000	30.673008
871.000000	30.683848
870.000000	30.659637
869.000000	30.606052
868.000000	30.629084
867.000000	30.650457
866.000000	30.663641
865.000000	30.626441
864.000000	30.689698
863.000000	30.728706
862.000000	30.614433
861.000000	30.586394
860.000000	30.590931
859.000000	30.267201
858.000000	30.120054
857.000000	30.365066
856.000000	30.308844
855.000000	30.255570
854.000000	30.256379
853.000000	30.309815
852.000000	30.211288
851.000000	30.255430
850.000000	30.386494
849.000000	30.283027
848.000000	30.287000
847.000000	30.219134
846.000000	30.219607
845.000000	30.186802
844.000000	30.372418
843.000000	30.285623
842.000000	30.086737
841.000000	30.086073
840.000000	30.283446
839.000000	30.300201
838.000000	30.305351
837.000000	30.290335
836.000000	30.279617
835.000000	30.219223
834.000000	30.176252
833.000000	30.242388
832.000000	30.273565
831.000000	30.298472
830.000000	30.190569
829.000000	30.151122
828.000000	30.122131
827.000000	30.102179
826.000000	30.240140
825.000000	30.105993
824.000000	30.195177
823.000000	30.156180
822.000000	30.251853
821.000000	30.201911
820.000000	30.232142
819.000000	30.177509
818.000000	30.205514
817.000000	30.197187
816.000000	30.191996
815.000000	30.138675
814.000000	30.209633
813.000000	30.097155
812.000000	30.084639
811.000000	30.128211
810.000000	30.134882
809.000000	30.081039
808.000000	30.110595
807.000000	30.258496
806.000000	30.143051
805.000000	30.163363
804.000000	30.165898
803.000000	30.198045
802.000000	30.155958
801.000000	30.121432
800.000000	30.203767
799.000000	30.181666
798.000000	30.160268
797.000000	30.176389
796.000000	30.124972
795.000000	30.173447
794.000000	30.120382
793.000000	30.135645
792.000000	30.121643
791.000000	30.142605
790.000000	30.089926
789.000000	30.080968
788.000000	30.161598
787.000000	30.179103
786.000000	30.107692
785.000000	30.161769
784.000000	30.131306
783.000000	30.123527
782.000000	30.097021
781.000000	30.127803
780.000000	30.112214
779.000000	30.184287
778.000000	30.137167
777.000000	30.035860
776.000000	30.101533
775.000000	30.129668
774.000000	30.048695
773.000000	30.098521
772.000000	30.132159
771.000000	30.132142
770.000000	30.102708
769.000000	30.131931
768.000000	30.158761
767.000000	30.151283
766.000000	30.077731
765.000000	30.094390
764.000000	30.109995
763.000000	30.124101
762.000000	30.061987
761.000000	30.075041
760.000000	30.152259
759.000000	30.139731
758.000000	30.127358
757.000000	30.122189
756.000000	30.095310
755.000000	30.078256
754.000000	30.065819
753.000000	30.047644
752.000000	30.055821
751.000000	30.051129
750.000000	30.050298
749.000000	30.084144
748.000000	30.096413
747.000000	30.097693
746.000000	30.111880
745.000000	30.061391
744.000000	30.057937
743.000000	30.040962
742.000000	30.016428
741.000000	30.039384
740.000000	30.059767
739.000000	30.059715
738.000000	30.031674
737.000000	30.035868
736.000000	30.089843
735.000000	30.032698
734.000000	30.010360
733.000000	30.046626
732.000000	30.070174
731.000000	30.033193
730.000000	30.034841
729.000000	30.028012
728.000000	30.038329
727.000000	30.034024
726.000000	30.013846
725.000000	30.033355
724.000000	30.033366
723.000000	30.043570
722.000000	29.996812
721.000000	30.000372
720.000000	30.024491
719.000000	29.988339
718.000000	29.999709
717.000000	29.995807
716.000000	29.980506
715.000000	29.993139
714.000000	29.993254
713.000000	29.960505
712.000000	29.964414
711.000000	29.966255
710.000000	29.963347
709.000000	29.978101
708.000000	29.968851
707.000000	29.971282
706.000000	29.988336
705.000000	29.984434
704.000000	29.976060
703.000000	29.977232
702.000000	29.950817
701.000000	29.911042
700.000000	29.907680
699.000000	29.907424
698.000000	29.913008
697.000000	29.931815
696.000000	29.931648
695.000000	29.907080
694.000000	29.897319
693.000000	29.873365
692.000000	29.879911
691.000000	29.916984
690.000000	29.919402
689.000000	29.880728
688.000000	29.831178
687.000000	29.858043
686.000000	29.846559
685.000000	29.837762
684.000000	29.831678
683.000000	29.841160
682.000000	29.840730
681.000000	29.830393
680.000000	29.795848
679.000000	29.800336
678.000000	29.803105
677.000000	29.793763
676.000000	29.806753
675.000000	29.798129
674.000000	29.766890
673.000000	29.787174
672.000000	29.781866
671.000000	29.764949
670.000000	29.739733
669.000000	29.765040
668.000000	29.772500
667.000000	29.769523
666.000000	29.730581
665.000000	29.733431
664.000000	29.742378
663.000000	29.721544
662.000000	29.744145
661.000000	29.766793
660.000000	29.736388
659.000000	29.742321
658.000000	29.716391
657.000000	29.706573
656.000000	29.690844
655.000000	29.687179
654.000000	29.704148
653.000000	29.675956
652.000000	29.662789
651.000000	29.681667
650.000000	29.670776
649.000000	29.674422
648.000000	29.665909
647.000000	29.635572
646.000000	29.648431
645.000000	29.637846
644.000000	29.616956
643.000000	29.624131
642.000000	29.635294
641.000000	29.613677
640.000000	29.601266
639.000000	29.620791
638.000000	29.592966
637.000000	29.579159
636.000000	29.547647
635.000000	29.579191
634.000000	29.514273
633.000000	29.540265
632.000000	29.542980
631.000000	29.566245
630.000000	29.538064
629.000000	29.543045
628.000000	29.518598
627.000000	29.509127
626.000000	29.510908
625.000000	29.485319
624.000000	29.495677
623.000000	29.481569
622.000000	29.494342
621.000000	29.504475
620.000000	29.435216
619.000000	29.424206
618.000000	29.430639
617.000000	29.410927
616.000000	29.397720
615.000000	29.384754
614.000000	29.379431
613.000000	29.381716
612.000000	29.342162
611.000000	29.383489
610.000000	29.384507
609.000000	29.393143
608.000000	29.332922
607.000000	29.328931
606.000000	29.318385
605.000000	29.324010
604.000000	29.286768
603.000000	29.296674
602.000000	29.301265
601.000000	29.305460
600.000000	29.249900
599.000000	29.233375
598.000000	29.215789
597.000000	29.234143
596.000000	29.234132
595.000000	29.199887
594.000000	29.211535
593.000000	29.191734
592.000000	29.191240
591.000000	29.169886
590.000000	29.154917
589.000000	29.142295
588.000000	29.110832
587.000000	29.130141
586.000000	29.090194
585.000000	29.079739
584.000000	29.090405
583.000000	29.054227
582.000000	29.041863
581.000000	29.053803
580.000000	29.021830
579.000000	29.037204
578.000000	29.004937
577.000000	28.984310
576.000000	28.983320
575.000000	28.964125
574.000000	28.887928
573.000000	28.948410
572.000000	28.902300
571.000000	28.916784
570.000000	28.885924
569.000000	28.898797
568.000000	28.838743
567.000000	28.818263
566.000000	28.812448
565.000000	28.828040
564.000000	28.787625
563.000000	28.787176
562.000000	28.758344
561.000000	28.758519
560.000000	28.709844
559.000000	28.697726
558.000000	28.686614
557.000000	28.683139
556.000000	28.638778
555.000000	28.630225
554.000000	28.597132
553.000000	28.576762
552.000000	28.574774
551.000000	28.579636
550.000000	28.531202
549.000000	28.533358
548.000000	28.493031
547.000000	28.488036
546.000000	28.448332
545.000000	28.447362
544.000000	28.421815
543.000000	28.393857
542.000000	28.378879
541.000000	28.344532
540.000000	28.320751
539.000000	28.314911
538.000000	28.298658
537.000000	28.267804
536.000000	28.235494
535.000000	28.223207
534.000000	28.192985
533.000000	28.181042
532.000000	28.155619
531.000000	28.141300
530.000000	28.106003
529.000000	28.064581
528.000000	28.053724
527.000000	28.023686
526.000000	27.984629
525.000000	27.965082
524.000000	27.930123
523.000000	27.929105
522.000000	27.882806
521.000000	27.854222
520.000000	27.827458
519.000000	27.787198
518.000000	27.766533
517.000000	27.734755
516.000000	27.714198
515.000000	27.688453
514.000000	27.630752
513.000000	27.593216
512.000000	27.552813
511.000000	27.535386
510.000000	27.522359
509.000000	27.489506
508.000000	27.440080
507.000000	27.415098
506.000000	27.369900
505.000000	27.343650
504.000000	27.293559
503.000000	27.265700
502.000000	27.243049
501.000000	27.220879
500.000000	27.169842
499.000000	27.133432
498.000000	27.084282
497.000000	27.064712
496.000000	27.041247
495.000000	27.003315
494.000000	26.956711
493.000000	26.925686
492.000000	26.866829
491.000000	26.842104
490.000000	26.812091
489.000000	26.774733
488.000000	26.752577
487.000000	26.718001
486.000000	26.668618
485.000000	26.618067
484.000000	26.596183
483.000000	26.563506
482.000000	26.524397
481.000000	26.475786
480.000000	26.416847
479.000000	26.388133
478.000000	26.321152
477.000000	26.271194
476.000000	26.239118
475.000000	26.194711
474.000000	26.139594
473.000000	26.090440
472.000000	26.044010
471.000000	25.981904
470.000000	25.933673
469.000000	25.884565
468.000000	25.828916
467.000000	25.778538
466.000000	25.718627
465.000000	25.664026
464.000000	25.601686
463.000000	25.553615
462.000000	25.517711
461.000000	25.442828
460.000000	25.372238
459.000000	25.313219
458.000000	25.243485
457.000000	25.180816
456.000000	25.127253
455.000000	25.096638
454.000000	25.034220
453.000000	24.943289
452.000000	24.863678
451.000000	24.815301
450.000000	24.742705
449.000000	24.670538
448.000000	24.569753
447.000000	24.507704
446.000000	24.464949
445.000000	24.375721
444.000000	24.291883
443.000000	24.201840
442.000000	24.114437
441.000000	24.057461
440.000000	23.999126
439.000000	23.903887
438.000000	23.782547
437.000000	23.702910
436.000000	23.609919
435.000000	23.518437
434.000000	23.443460
433.000000	23.344621
432.000000	23.240404
431.000000	23.149596
430.000000	23.046849
429.000000	22.945235
428.000000	22.840546
427.000000	22.716668
426.000000	22.661964
425.000000	22.581339
424.000000	22.429739
423.000000	22.312761
422.000000	22.236872
421.000000	22.106293
420.000000	21.998853
419.000000	21.891926
418.000000	21.747157
417.000000	21.615884
416.000000	21.505788
415.000000	21.374889
414.000000	21.257505
413.000000	21.134302
412.000000	20.981506
411.000000	20.861014
410.000000	20.757222
409.000000	20.585006
408.000000	20.475115
407.000000	20.318371
406.000000	20.180734
405.000000	20.060006
404.000000	19.948027
403.000000	19.825459
402.000000	19.678296
401.000000	19.505086
400.000000	19.352114
399.000000	19.222530
398.000000	19.085308
397.000000	18.914287
396.000000	18.764351
395.000000	18.635354
394.000000	18.462106
393.000000	18.329633
392.000000	18.153258
391.000000	18.004284
390.000000	17.870366
389.000000	17.700409
388.000000	17.545230
387.000000	17.361730
386.000000	17.203651
385.000000	17.038233
384.000000	16.894273
383.000000	16.734885
382.000000	16.539234
381.000000	16.371395
380.000000	16.219444
379.000000	16.019298
378.000000	15.880686
377.000000	15.645640
376.000000	15.543261
375.000000	15.288557
374.000000	15.133040
373.000000	14.983344
372.000000	14.844007
371.000000	14.533140
370.000000	14.481871
369.000000	14.217679
368.000000	14.029984
367.000000	13.867978
366.000000	13.642875
365.000000	13.458022
364.000000	13.291344
363.000000	13.087894
362.000000	12.938856
361.000000	12.790416
360.000000	12.600779
359.000000	12.422650
358.000000	12.215833
357.000000	12.040710
356.000000	11.946755
355.000000	11.724886
354.000000	11.534403
353.000000	11.415039
352.000000	11.184665
351.000000	11.015143
350.000000	10.885715
349.000000	10.711315
348.000000	10.535668
347.000000	10.370944
346.000000	10.186653
345.000000	10.028251
344.000000	9.806888
343.000000	9.644649
342.000000	9.417823
341.000000	9.236324
340.000000	9.022909
339.000000	8.847455
338.000000	8.678008
337.000000	8.353251
336.000000	8.136154
335.000000	7.866895
334.000000	7.709268
333.000000	7.432942
332.000000	7.137569
331.000000	6.913969
330.000000	6.656387
329.000000	6.453256
328.000000	6.215098
327.000000	6.019964
326.000000	5.839003
325.000000	5.582669
324.000000	5.479044
323.000000	5.334033
322.000000	5.189331
321.000000	5.033614
320.000000	4.869659
319.000000	4.712675
318.000000	4.724899
317.000000	4.576795
316.000000	4.474147
315.000000	4.424986
314.000000	4.308706
313.000000	4.228534
312.000000	4.124060
311.000000	4.031063
310.000000	3.938407
309.000000	3.851238
308.000000	3.772301
307.000000	3.695392
306.000000	3.595356
305.000000	3.519445
304.000000	3.476294
303.000000	3.373484
302.000000	3.310710
301.000000	3.197300
300.000000	3.124793
299.000000	3.033081
298.000000	2.945959
297.000000	2.832183
296.000000	2.697349
295.000000	2.562173
294.000000	2.393159
293.000000	2.215464
292.000000	2.044987
291.000000	1.863956
290.000000	1.696664
289.000000	1.538956
288.000000	1.429706
287.000000	1.328378
286.000000	1.261469
285.000000	1.220639
284.000000	1.212329
283.000000	1.207459
282.000000	1.199399
281.000000	1.192454
280.000000	1.192368
279.000000	1.185295
278.000000	1.210421
277.000000	1.217517
276.000000	1.240662
275.000000	1.275661
274.000000	1.305335
273.000000	1.325750
272.000000	1.349764
271.000000	1.355346
270.000000	1.360439
269.000000	1.375893
268.000000	1.404387
267.000000	1.443315
266.000000	1.477783
265.000000	1.505754
264.000000	1.525030
263.000000	1.574100
262.000000	1.614622
261.000000	1.646915
260.000000	1.662873
259.000000	1.703018
258.000000	1.733941
257.000000	1.793207
256.000000	1.837502
255.000000	1.839207
254.000000	1.814442
253.000000	1.785952
252.000000	1.755228
251.000000	1.709691
250.000000	1.643506
249.000000	1.551424
248.000000	1.421122
247.000000	1.294553
246.000000	1.175083
245.000000	1.045432
244.000000	0.918313
243.000000	0.817942
242.000000	0.713087
241.000000	0.620088
240.000000	0.546806
239.000000	0.484334
238.000000	0.424259
237.000000	0.377945
236.000000	0.349330
235.000000	0.323212
234.000000	0.294980
233.000000	0.266166
232.000000	0.232414
231.000000	0.210801
230.000000	0.209324
229.000000	0.189369
228.000000	0.159414
227.000000	0.138440
226.000000	0.127610
225.000000	0.121805
224.000000	0.109052
223.000000	0.098466
222.000000	0.090518
221.000000	0.090167
220.000000	0.086487
219.000000	0.078855
218.000000	0.067615
217.000000	0.059433
216.000000	0.064097
215.000000	0.066293
214.000000	0.064863
213.000000	0.071760
212.000000	0.076856
211.000000	0.067896
210.000000	0.069113
209.000000	0.070116
208.000000	0.064702
207.000000	0.072864
206.000000	0.080047
205.000000	0.069315
204.000000	0.059991
203.000000	0.069048
202.000000	0.068950
201.000000	0.126123
200.000000	0.186408
