PE UV       SUBTECH     SPECTRUM    ASCII       PEDS        4.00        
   -1
3C-H10-C016.Sample.Raw.asc
22/03/18
16:15:01.00
22/03/18
16:15:01.00
Administrator

250.000000
1
Lambda 750
750N8071901
PerkinElmer UV WinLab 6.0.4.0738 / 1.61.00 Lambda 900

0
0
3350/servo 860.8/2
0
0
UV/VIS
1
1
1
CommonBeamDepol,150mm sphere / downward view
0
0
0
0
Program
Program
3350/servo 860.8/2
3350/0.2 860.8/0.2
3350/0.2 860.8/0.2
0
1
 
 
 
0
 
860.8
319.2
860.8
Front
100
on
 
 
0
0
0
 
0
 
 
 
0
 
 
0
0
0
0
0
 
 
 
 
0
0


0
0
#HDR
-1
-1
#GR
nm
%R
1.0
0.0
2500.000000
-10.000000
226
8
51.720307
11.980620
#DATA
2500.000000	15.216604
2490.000000	14.723724
2480.000000	11.980620
2470.000000	15.702685
2460.000000	15.820876
2450.000000	17.462925
2440.000000	15.275994
2430.000000	17.181318
2420.000000	18.732932
2410.000000	17.538790
2400.000000	18.178139
2390.000000	18.064373
2380.000000	18.594476
2370.000000	18.567738
2360.000000	19.305453
2350.000000	19.000682
2340.000000	19.619524
2330.000000	19.511368
2320.000000	18.277100
2310.000000	18.028842
2300.000000	18.556159
2290.000000	18.169819
2280.000000	17.225146
2270.000000	16.758014
2260.000000	18.036407
2250.000000	18.339639
2240.000000	19.839898
2230.000000	20.347387
2220.000000	20.323901
2210.000000	20.608262
2200.000000	19.895264
2190.000000	19.465517
2180.000000	19.507147
2170.000000	19.365382
2160.000000	19.613324
2150.000000	20.265657
2140.000000	20.261013
2130.000000	21.770467
2120.000000	22.185076
2110.000000	22.460647
2100.000000	22.342424
2090.000000	22.169329
2080.000000	22.032124
2070.000000	21.969907
2060.000000	21.117864
2050.000000	20.695277
2040.000000	19.590064
2030.000000	20.057769
2020.000000	20.564566
2010.000000	20.536168
2000.000000	20.228322
1990.000000	19.765717
1980.000000	19.368694
1970.000000	18.745158
1960.000000	18.124107
1950.000000	17.798528
1940.000000	17.431598
1930.000000	17.844335
1920.000000	19.004374
1910.000000	20.281826
1900.000000	22.877848
1890.000000	26.379289
1880.000000	29.575434
1870.000000	32.193317
1860.000000	33.524619
1850.000000	34.110733
1840.000000	34.105202
1830.000000	33.905344
1820.000000	33.482019
1810.000000	33.132348
1800.000000	32.780612
1790.000000	32.553824
1780.000000	32.295439
1770.000000	31.894457
1760.000000	31.537675
1750.000000	31.077926
1740.000000	30.701084
1730.000000	30.521427
1720.000000	30.830354
1710.000000	31.601485
1700.000000	32.133890
1690.000000	32.594721
1680.000000	33.658433
1670.000000	35.183490
1660.000000	36.312533
1650.000000	36.781862
1640.000000	36.552495
1630.000000	36.218852
1620.000000	35.769627
1610.000000	35.121728
1600.000000	34.566688
1590.000000	34.037274
1580.000000	33.570628
1570.000000	33.104668
1560.000000	32.743209
1550.000000	32.444083
1540.000000	31.904672
1530.000000	31.173102
1520.000000	30.658997
1510.000000	30.412090
1500.000000	30.252464
1490.000000	30.269850
1480.000000	30.522237
1470.000000	30.816245
1460.000000	31.186473
1450.000000	31.730748
1440.000000	32.518567
1430.000000	33.450948
1420.000000	34.731731
1410.000000	36.614631
1400.000000	38.988067
1390.000000	41.485784
1380.000000	43.228355
1370.000000	44.119145
1360.000000	44.691311
1350.000000	45.161259
1340.000000	45.523902
1330.000000	45.909289
1320.000000	46.523736
1310.000000	47.119699
1300.000000	47.557888
1290.000000	47.714757
1280.000000	47.637125
1270.000000	47.490917
1260.000000	47.530203
1250.000000	47.504218
1240.000000	47.236280
1230.000000	46.971100
1220.000000	46.700908
1210.000000	46.241394
1200.000000	45.867936
1190.000000	45.733300
1180.000000	46.030130
1170.000000	46.806536
1160.000000	47.744250
1150.000000	48.558607
1140.000000	49.230141
1130.000000	49.659716
1120.000000	49.833485
1110.000000	49.864729
1100.000000	49.953495
1090.000000	49.994240
1080.000000	49.967252
1070.000000	49.922134
1060.000000	49.863065
1050.000000	49.779115
1040.000000	49.719196
1030.000000	49.702592
1020.000000	49.860876
1010.000000	50.197283
1000.000000	50.623452
990.000000	50.779888
980.000000	50.789318
970.000000	50.842223
960.000000	51.031292
950.000000	51.165319
940.000000	51.165462
930.000000	51.175510
920.000000	51.095141
910.000000	51.154425
900.000000	51.293705
890.000000	51.522498
880.000000	51.592303
870.000000	51.611487
860.000000	51.720307
850.000000	51.593948
840.000000	51.088881
830.000000	51.179424
820.000000	51.233201
810.000000	51.063068
800.000000	51.023856
790.000000	51.168512
780.000000	51.121450
770.000000	51.179200
760.000000	51.169727
750.000000	51.147215
740.000000	51.055025
730.000000	51.030559
720.000000	51.112026
710.000000	51.093939
700.000000	50.943392
690.000000	50.836922
680.000000	50.978092
670.000000	51.000242
660.000000	50.896217
650.000000	50.885064
640.000000	50.831232
630.000000	50.795521
620.000000	50.699411
610.000000	50.637344
600.000000	50.503607
590.000000	50.437688
580.000000	50.320812
570.000000	50.184666
560.000000	50.041921
550.000000	49.865513
540.000000	49.569102
530.000000	49.176705
520.000000	48.746796
510.000000	48.268666
500.000000	47.670325
490.000000	46.995894
480.000000	46.340831
470.000000	45.627961
460.000000	44.738921
450.000000	43.633877
440.000000	42.426781
430.000000	40.880160
420.000000	39.002861
410.000000	36.964976
400.000000	35.227217
390.000000	33.892741
380.000000	32.704102
370.000000	31.635657
360.000000	30.617314
350.000000	29.437079
340.000000	28.169023
330.000000	27.073014
320.000000	25.892170
310.000000	24.965985
300.000000	23.380855
290.000000	20.378337
280.000000	18.257767
270.000000	17.843614
260.000000	17.818198
250.000000	16.556247
