PE UV       SUBTECH     SPECTRUM    ASCII       PEDS        4.00        
   -1
3C-H10-C011.Sample.Raw.asc
22/03/18
15:59:57.00
22/03/18
15:59:57.00
Administrator

250.000000
1
Lambda 750
750N8071901
PerkinElmer UV WinLab 6.0.4.0738 / 1.61.00 Lambda 900

0
0
3350/servo 860.8/2
0
0
UV/VIS
1
1
1
CommonBeamDepol,150mm sphere / downward view
0
0
0
0
Program
Program
3350/servo 860.8/2
3350/0.2 860.8/0.2
3350/0.2 860.8/0.2
0
1
 
 
 
0
 
860.8
319.2
860.8
Front
100
on
 
 
0
0
0
 
0
 
 
 
0
 
 
0
0
0
0
0
 
 
 
 
0
0


0
0
#HDR
-1
-1
#GR
nm
%R
1.0
0.0
2500.000000
-10.000000
226
8
51.209089
11.868887
#DATA
2500.000000	17.840741
2490.000000	13.289961
2480.000000	11.868887
2470.000000	15.690961
2460.000000	16.326819
2450.000000	17.068564
2440.000000	15.591212
2430.000000	17.582155
2420.000000	18.651242
2410.000000	17.765078
2400.000000	18.056234
2390.000000	18.772179
2380.000000	17.939377
2370.000000	16.424407
2360.000000	17.210703
2350.000000	18.560140
2340.000000	19.766151
2330.000000	18.804043
2320.000000	19.167417
2310.000000	17.847689
2300.000000	17.893702
2290.000000	17.410758
2280.000000	17.062957
2270.000000	17.423973
2260.000000	17.550520
2250.000000	18.721810
2240.000000	19.279061
2230.000000	19.607141
2220.000000	19.839684
2210.000000	19.780228
2200.000000	20.070779
2190.000000	19.300250
2180.000000	18.939298
2170.000000	18.741172
2160.000000	19.798333
2150.000000	19.872383
2140.000000	20.398640
2130.000000	21.797399
2120.000000	21.724346
2110.000000	21.679326
2100.000000	21.920063
2090.000000	22.009133
2080.000000	21.745578
2070.000000	21.479903
2060.000000	20.763165
2050.000000	20.238578
2040.000000	19.440140
2030.000000	20.071684
2020.000000	20.166145
2010.000000	20.393968
2000.000000	19.874304
1990.000000	19.443887
1980.000000	19.130917
1970.000000	18.589972
1960.000000	17.864781
1950.000000	17.470331
1940.000000	17.260791
1930.000000	17.703278
1920.000000	18.495838
1910.000000	20.003142
1900.000000	22.743863
1890.000000	25.818825
1880.000000	28.956460
1870.000000	31.503687
1860.000000	33.080606
1850.000000	33.542689
1840.000000	33.554553
1830.000000	33.334132
1820.000000	33.059717
1810.000000	32.656139
1800.000000	32.273543
1790.000000	32.120478
1780.000000	31.816895
1770.000000	31.489153
1760.000000	31.221974
1750.000000	30.687484
1740.000000	30.258735
1730.000000	30.190458
1720.000000	30.473038
1710.000000	31.204409
1700.000000	31.712616
1690.000000	32.043660
1680.000000	33.092808
1670.000000	34.658991
1660.000000	35.719948
1650.000000	36.146738
1640.000000	36.056428
1630.000000	35.717057
1620.000000	35.239223
1610.000000	34.619156
1600.000000	34.118181
1590.000000	33.652053
1580.000000	33.166259
1570.000000	32.642008
1560.000000	32.322129
1550.000000	32.033530
1540.000000	31.450055
1530.000000	30.794728
1520.000000	30.274622
1510.000000	30.027338
1500.000000	29.866288
1490.000000	29.900994
1480.000000	30.105027
1470.000000	30.424457
1460.000000	30.739515
1450.000000	31.264254
1440.000000	32.019101
1430.000000	32.974862
1420.000000	34.213145
1410.000000	36.048351
1400.000000	38.415579
1390.000000	40.873324
1380.000000	42.608458
1370.000000	43.518376
1360.000000	44.055209
1350.000000	44.527346
1340.000000	44.872803
1330.000000	45.176549
1320.000000	45.810424
1310.000000	46.490505
1300.000000	46.979123
1290.000000	47.191285
1280.000000	47.104129
1270.000000	46.935243
1260.000000	46.966377
1250.000000	47.001659
1240.000000	46.836270
1230.000000	46.447821
1220.000000	46.072679
1210.000000	45.607029
1200.000000	45.234855
1190.000000	45.132149
1180.000000	45.429533
1170.000000	46.220696
1160.000000	47.125033
1150.000000	47.927887
1140.000000	48.662392
1130.000000	49.143278
1120.000000	49.290778
1110.000000	49.265201
1100.000000	49.206592
1090.000000	49.249440
1080.000000	49.297732
1070.000000	49.222041
1060.000000	49.122281
1050.000000	49.071067
1040.000000	49.065741
1030.000000	49.061052
1020.000000	49.209995
1010.000000	49.522619
1000.000000	49.905630
990.000000	50.058054
980.000000	50.082431
970.000000	50.180965
960.000000	50.301921
950.000000	50.456225
940.000000	50.502955
930.000000	50.397315
920.000000	50.384190
910.000000	50.388196
900.000000	50.531263
890.000000	50.746305
880.000000	50.824651
870.000000	50.791473
860.000000	51.051178
850.000000	51.082941
840.000000	51.012676
830.000000	51.166914
820.000000	51.064352
810.000000	51.022542
800.000000	51.133454
790.000000	51.174836
780.000000	51.085779
770.000000	51.039089
760.000000	51.078178
750.000000	51.209089
740.000000	51.128851
730.000000	51.044833
720.000000	51.067702
710.000000	51.059161
700.000000	50.956648
690.000000	50.889117
680.000000	50.890118
670.000000	50.940162
660.000000	50.937124
650.000000	50.887551
640.000000	50.835985
630.000000	50.801866
620.000000	50.695784
610.000000	50.654355
600.000000	50.572796
590.000000	50.459918
580.000000	50.372749
570.000000	50.232534
560.000000	50.137350
550.000000	49.956536
540.000000	49.648337
530.000000	49.278076
520.000000	48.853778
510.000000	48.398238
500.000000	47.813965
490.000000	47.129050
480.000000	46.488821
470.000000	45.881696
460.000000	45.011507
450.000000	43.906503
440.000000	42.701407
430.000000	41.209238
420.000000	39.400500
410.000000	37.459372
400.000000	35.732616
390.000000	34.421203
380.000000	33.273997
370.000000	32.095069
360.000000	30.937487
350.000000	29.928837
340.000000	28.744631
330.000000	27.388755
320.000000	26.250677
310.000000	25.084887
300.000000	23.712219
290.000000	20.681391
280.000000	18.506331
270.000000	18.291778
260.000000	18.208373
250.000000	16.809817
