PE UV       SUBTECH     SPECTRUM    ASCII       PEDS        4.00        
   -1
3C-H10-F027.Sample.Raw.asc
22/03/21
16:10:05.00
22/03/21
16:10:05.00
Administrator

250.000000
1
Lambda 750
750N8071901
PerkinElmer UV WinLab 6.0.4.0738 / 1.61.00 Lambda 900

0
0
3350/servo 860.8/2
0
0
UV/VIS
1
1
1
CommonBeamDepol,150mm sphere / downward view
0
0
0
0
Program
Program
3350/servo 860.8/2
3350/0.2 860.8/0.2
3350/0.2 860.8/0.2
0
1
 
 
 
0
 
860.8
319.2
860.8
Front
100
on
 
 
0
0
0
 
0
 
 
 
0
 
 
0
0
0
0
0
 
 
 
 
0
0


0
0
#HDR
-1
-1
#GR
nm
%R
1.0
0.0
2500.000000
-10.000000
226
8
42.639448
9.067914
#DATA
2500.000000	10.332874
2490.000000	12.177616
2480.000000	9.067914
2470.000000	13.947030
2460.000000	11.873004
2450.000000	13.204731
2440.000000	13.922229
2430.000000	12.992994
2420.000000	14.516577
2410.000000	15.847011
2400.000000	14.675816
2390.000000	13.470818
2380.000000	15.381557
2370.000000	15.794131
2360.000000	15.735737
2350.000000	14.758694
2340.000000	15.680036
2330.000000	13.902478
2320.000000	15.051000
2310.000000	14.463704
2300.000000	14.340271
2290.000000	14.645549
2280.000000	14.770175
2270.000000	14.389136
2260.000000	14.476982
2250.000000	15.292632
2240.000000	15.725538
2230.000000	16.822650
2220.000000	16.623878
2210.000000	16.454627
2200.000000	15.778327
2190.000000	15.937477
2180.000000	15.726508
2170.000000	15.654346
2160.000000	16.444251
2150.000000	16.088491
2140.000000	16.220110
2130.000000	17.148975
2120.000000	18.109418
2110.000000	17.851148
2100.000000	18.131712
2090.000000	18.427409
2080.000000	18.019738
2070.000000	17.366460
2060.000000	16.643161
2050.000000	16.326422
2040.000000	15.949330
2030.000000	16.280213
2020.000000	16.631914
2010.000000	16.736714
2000.000000	16.649883
1990.000000	16.134168
1980.000000	15.678008
1970.000000	15.205966
1960.000000	14.808764
1950.000000	14.425103
1940.000000	14.336874
1930.000000	14.754945
1920.000000	15.530242
1910.000000	16.798326
1900.000000	18.939447
1890.000000	21.689277
1880.000000	24.418567
1870.000000	26.639134
1860.000000	27.844160
1850.000000	28.388049
1840.000000	28.266052
1830.000000	28.119302
1820.000000	27.817201
1810.000000	27.648130
1800.000000	27.349281
1790.000000	27.062552
1780.000000	26.798105
1770.000000	26.494126
1760.000000	26.076939
1750.000000	25.671842
1740.000000	25.341951
1730.000000	25.226373
1720.000000	25.659403
1710.000000	26.272022
1700.000000	26.662677
1690.000000	27.020674
1680.000000	28.095787
1670.000000	29.358724
1660.000000	30.392049
1650.000000	30.712544
1640.000000	30.529275
1630.000000	30.338304
1620.000000	30.013165
1610.000000	29.442713
1600.000000	28.921146
1590.000000	28.415128
1580.000000	27.953576
1570.000000	27.621766
1560.000000	27.360100
1550.000000	27.050268
1540.000000	26.611279
1530.000000	26.018875
1520.000000	25.567181
1510.000000	25.297055
1500.000000	25.177306
1490.000000	25.184682
1480.000000	25.456436
1470.000000	25.732216
1460.000000	26.037343
1450.000000	26.576364
1440.000000	27.140771
1430.000000	27.903468
1420.000000	28.994586
1410.000000	30.637406
1400.000000	32.880258
1390.000000	35.024144
1380.000000	36.450105
1370.000000	37.178990
1360.000000	37.688622
1350.000000	38.110559
1340.000000	38.475043
1330.000000	38.927627
1320.000000	39.546835
1310.000000	40.054562
1300.000000	40.388598
1290.000000	40.442523
1280.000000	40.342460
1270.000000	40.310521
1260.000000	40.257754
1250.000000	40.237438
1240.000000	40.019544
1230.000000	39.786986
1220.000000	39.567221
1210.000000	39.142285
1200.000000	38.824635
1190.000000	38.685821
1180.000000	38.934705
1170.000000	39.523345
1160.000000	40.326563
1150.000000	41.027915
1140.000000	41.530062
1130.000000	41.899671
1120.000000	42.088694
1110.000000	42.151112
1100.000000	42.150101
1090.000000	42.063663
1080.000000	42.011453
1070.000000	41.941082
1060.000000	41.852546
1050.000000	41.795337
1040.000000	41.778687
1030.000000	41.725262
1020.000000	41.779386
1010.000000	41.995635
1000.000000	42.217912
990.000000	42.251386
980.000000	42.278282
970.000000	42.384364
960.000000	42.484971
950.000000	42.520188
940.000000	42.514475
930.000000	42.429149
920.000000	42.298931
910.000000	42.338460
900.000000	42.506560
890.000000	42.639448
880.000000	42.558479
870.000000	42.496602
860.000000	42.389133
850.000000	42.063150
840.000000	41.356305
830.000000	41.216726
820.000000	41.092819
810.000000	41.187411
800.000000	41.185261
790.000000	41.152722
780.000000	41.085197
770.000000	41.157846
760.000000	41.121291
750.000000	41.010432
740.000000	40.995527
730.000000	40.980656
720.000000	40.947481
710.000000	40.840875
700.000000	40.772824
690.000000	40.719522
680.000000	40.654380
670.000000	40.597800
660.000000	40.489875
650.000000	40.446721
640.000000	40.360870
630.000000	40.292239
620.000000	40.225745
610.000000	40.097952
600.000000	39.952656
590.000000	39.788624
580.000000	39.650625
570.000000	39.495240
560.000000	39.334625
550.000000	39.126689
540.000000	38.815434
530.000000	38.498131
520.000000	38.053496
510.000000	37.524874
500.000000	36.988379
490.000000	36.493043
480.000000	35.968442
470.000000	35.288773
460.000000	34.529974
450.000000	33.622203
440.000000	32.622233
430.000000	31.381982
420.000000	29.814543
410.000000	28.117063
400.000000	26.673827
390.000000	25.714095
380.000000	24.952774
370.000000	24.320776
360.000000	23.788466
350.000000	22.992665
340.000000	22.149929
330.000000	21.648831
320.000000	20.926926
310.000000	19.809005
300.000000	18.262116
290.000000	16.070690
280.000000	14.655664
270.000000	14.462937
260.000000	14.399450
250.000000	13.483571
