PE UV       SUBTECH     SPECTRUM    ASCII       PEDS        4.00        
   -1
3C-N10-F018.Sample.Raw.asc
22/03/25
15:40:34.00
22/03/25
15:40:34.00
Administrator

250.000000
1
Lambda 750
750N8071901
PerkinElmer UV WinLab 6.0.4.0738 / 1.61.00 Lambda 900

0
0
3350/servo 860.8/2
0
0
UV/VIS
1
1
1
CommonBeamDepol,150mm sphere / downward view
0
0
0
0
Program
Program
3350/servo 860.8/2
3350/0.2 860.8/0.2
3350/0.2 860.8/0.2
0
1
 
 
 
0
 
860.8
319.2
860.8
Front
100
on
 
 
0
0
0
 
0
 
 
 
0
 
 
0
0
0
0
0
 
 
 
 
0
0


0
0
#HDR
-1
-1
#GR
nm
%R
1.0
0.0
2500.000000
-10.000000
226
8
40.450934
8.447185
#DATA
2500.000000	8.447185
2490.000000	12.420761
2480.000000	8.601929
2470.000000	11.868788
2460.000000	11.683116
2450.000000	12.819368
2440.000000	9.890620
2430.000000	12.711554
2420.000000	12.592252
2410.000000	13.325457
2400.000000	13.575647
2390.000000	13.634864
2380.000000	15.235968
2370.000000	14.623454
2360.000000	14.050616
2350.000000	13.098750
2340.000000	12.656142
2330.000000	12.720556
2320.000000	12.677189
2310.000000	13.026412
2300.000000	11.941233
2290.000000	12.888927
2280.000000	12.620818
2270.000000	13.417037
2260.000000	13.515133
2250.000000	13.737717
2240.000000	14.530336
2230.000000	15.217202
2220.000000	14.728549
2210.000000	15.048025
2200.000000	14.416386
2190.000000	14.871216
2180.000000	14.359237
2170.000000	14.214517
2160.000000	15.004640
2150.000000	14.787352
2140.000000	15.360326
2130.000000	15.903745
2120.000000	15.777321
2110.000000	16.407179
2100.000000	16.353374
2090.000000	16.761328
2080.000000	16.488718
2070.000000	16.053729
2060.000000	15.465494
2050.000000	15.026965
2040.000000	14.809152
2030.000000	14.969611
2020.000000	15.090644
2010.000000	15.191932
2000.000000	15.057897
1990.000000	14.562052
1980.000000	14.219976
1970.000000	13.677073
1960.000000	13.464758
1950.000000	13.082544
1940.000000	12.703512
1930.000000	13.092736
1920.000000	13.952997
1910.000000	15.319879
1900.000000	17.277135
1890.000000	19.905880
1880.000000	22.425609
1870.000000	24.620865
1860.000000	25.671984
1850.000000	25.962079
1840.000000	26.051736
1830.000000	25.921353
1820.000000	25.656191
1810.000000	25.455857
1800.000000	25.169770
1790.000000	24.909844
1780.000000	24.654391
1770.000000	24.404022
1760.000000	24.086321
1750.000000	23.750379
1740.000000	23.443144
1730.000000	23.324982
1720.000000	23.625458
1710.000000	24.306099
1700.000000	24.681681
1690.000000	24.926702
1680.000000	25.830269
1670.000000	26.968745
1660.000000	27.838863
1650.000000	28.074969
1640.000000	28.000600
1630.000000	27.736896
1620.000000	27.408441
1610.000000	26.935952
1600.000000	26.484110
1590.000000	26.030449
1580.000000	25.677479
1570.000000	25.409184
1560.000000	25.057803
1550.000000	24.821955
1540.000000	24.455240
1530.000000	23.907113
1520.000000	23.520757
1510.000000	23.261102
1500.000000	23.177337
1490.000000	23.178504
1480.000000	23.318343
1470.000000	23.595902
1460.000000	23.913640
1450.000000	24.323172
1440.000000	24.869421
1430.000000	25.589819
1420.000000	26.494080
1410.000000	27.969514
1400.000000	29.941917
1390.000000	31.912735
1380.000000	33.220204
1370.000000	33.802762
1360.000000	34.229506
1350.000000	34.590261
1340.000000	34.851468
1330.000000	35.163495
1320.000000	35.752810
1310.000000	36.364533
1300.000000	36.728442
1290.000000	36.849780
1280.000000	36.805156
1270.000000	36.721035
1260.000000	36.719128
1250.000000	36.712013
1240.000000	36.627454
1230.000000	36.472353
1220.000000	36.222722
1210.000000	35.883893
1200.000000	35.560753
1190.000000	35.479197
1180.000000	35.745037
1170.000000	36.342352
1160.000000	37.053475
1150.000000	37.630749
1140.000000	38.120197
1130.000000	38.413212
1120.000000	38.614766
1110.000000	38.764969
1100.000000	38.795491
1090.000000	38.818334
1080.000000	38.818025
1070.000000	38.777440
1060.000000	38.736620
1050.000000	38.671075
1040.000000	38.634419
1030.000000	38.653438
1020.000000	38.754841
1010.000000	39.012190
1000.000000	39.345313
990.000000	39.474332
980.000000	39.497317
970.000000	39.552054
960.000000	39.710261
950.000000	39.855896
940.000000	39.870247
930.000000	39.891914
920.000000	39.832427
910.000000	39.896621
900.000000	40.086536
890.000000	40.242829
880.000000	40.427905
870.000000	40.450934
860.000000	40.324765
850.000000	39.855607
840.000000	39.343134
830.000000	39.488713
820.000000	39.536397
810.000000	39.541792
800.000000	39.561949
790.000000	39.657903
780.000000	39.760369
770.000000	39.712258
760.000000	39.686488
750.000000	39.695971
740.000000	39.762566
730.000000	39.773779
720.000000	39.787088
710.000000	39.819900
700.000000	39.896330
690.000000	39.896307
680.000000	39.879454
670.000000	39.898976
660.000000	39.958217
650.000000	39.986068
640.000000	39.946406
630.000000	39.936809
620.000000	39.956179
610.000000	39.892795
600.000000	39.843745
590.000000	39.885524
580.000000	39.836591
570.000000	39.740398
560.000000	39.624719
550.000000	39.546143
540.000000	39.404299
530.000000	39.153222
520.000000	38.829554
510.000000	38.466250
500.000000	38.058892
490.000000	37.681020
480.000000	37.257101
470.000000	36.735244
460.000000	36.096448
450.000000	35.267320
440.000000	34.280797
430.000000	32.973966
420.000000	31.237983
410.000000	29.243488
400.000000	27.536196
390.000000	26.594820
380.000000	25.915909
370.000000	25.165906
360.000000	24.469672
350.000000	23.770124
340.000000	22.773490
330.000000	21.817353
320.000000	21.152947
310.000000	20.065729
300.000000	18.112309
290.000000	15.962620
280.000000	14.530256
270.000000	14.416490
260.000000	14.390908
250.000000	13.371218
