PE UV       SUBTECH     SPECTRUM    ASCII       PEDS        4.00        
   -1
3C-N10-C012.Sample.Raw.asc
22/03/22
17:09:40.00
22/03/22
17:09:40.00
Administrator

250.000000
1
Lambda 750
750N8071901
PerkinElmer UV WinLab 6.0.4.0738 / 1.61.00 Lambda 900

0
0
3350/servo 860.8/2
0
0
UV/VIS
1
1
1
CommonBeamDepol,150mm sphere / downward view
0
0
0
0
Program
Program
3350/servo 860.8/2
3350/0.2 860.8/0.2
3350/0.2 860.8/0.2
0
1
 
 
 
0
 
860.8
319.2
860.8
Front
100
on
 
 
0
0
0
 
0
 
 
 
0
 
 
0
0
0
0
0
 
 
 
 
0
0


0
0
#HDR
-1
-1
#GR
nm
%R
1.0
0.0
2500.000000
-10.000000
226
8
47.720954
11.448433
#DATA
2500.000000	12.302026
2490.000000	14.733598
2480.000000	11.448433
2470.000000	14.480732
2460.000000	13.054739
2450.000000	12.128055
2440.000000	14.090320
2430.000000	15.358571
2420.000000	15.457637
2410.000000	16.425766
2400.000000	18.234273
2390.000000	16.105902
2380.000000	16.756549
2370.000000	16.319386
2360.000000	15.441131
2350.000000	15.045245
2340.000000	14.821919
2330.000000	16.413720
2320.000000	15.066799
2310.000000	16.355978
2300.000000	15.648562
2290.000000	13.908797
2280.000000	13.958551
2270.000000	14.759462
2260.000000	15.363445
2250.000000	16.216573
2240.000000	16.433690
2230.000000	16.778705
2220.000000	17.459240
2210.000000	17.176413
2200.000000	17.064954
2190.000000	16.246725
2180.000000	16.020658
2170.000000	16.040666
2160.000000	16.724371
2150.000000	17.356653
2140.000000	17.804206
2130.000000	18.531824
2120.000000	18.796001
2110.000000	18.455216
2100.000000	19.385572
2090.000000	19.139936
2080.000000	18.830871
2070.000000	18.069468
2060.000000	17.539483
2050.000000	17.376962
2040.000000	16.612502
2030.000000	16.780879
2020.000000	17.400300
2010.000000	17.491004
2000.000000	17.035869
1990.000000	16.690963
1980.000000	16.144531
1970.000000	15.524144
1960.000000	15.175234
1950.000000	14.687731
1940.000000	14.577579
1930.000000	14.984209
1920.000000	16.078436
1910.000000	17.340089
1900.000000	19.972542
1890.000000	23.099644
1880.000000	26.289750
1870.000000	28.672270
1860.000000	29.910571
1850.000000	30.319307
1840.000000	30.272294
1830.000000	30.082690
1820.000000	29.863220
1810.000000	29.722167
1800.000000	29.344105
1790.000000	28.897292
1780.000000	28.613347
1770.000000	28.240778
1760.000000	27.933765
1750.000000	27.722032
1740.000000	27.278420
1730.000000	27.095485
1720.000000	27.481043
1710.000000	28.212395
1700.000000	28.641999
1690.000000	29.009078
1680.000000	29.942000
1670.000000	31.330924
1660.000000	32.321583
1650.000000	32.853060
1640.000000	32.739110
1630.000000	32.462745
1620.000000	32.054944
1610.000000	31.502625
1600.000000	30.865447
1590.000000	30.348930
1580.000000	29.900599
1570.000000	29.485617
1560.000000	29.185072
1550.000000	28.953470
1540.000000	28.516865
1530.000000	27.855840
1520.000000	27.334038
1510.000000	27.053557
1500.000000	26.845004
1490.000000	26.848109
1480.000000	27.067323
1470.000000	27.384467
1460.000000	27.715770
1450.000000	28.228072
1440.000000	28.847156
1430.000000	29.704082
1420.000000	30.895675
1410.000000	32.617768
1400.000000	34.974595
1390.000000	37.301261
1380.000000	38.855732
1370.000000	39.602889
1360.000000	40.063877
1350.000000	40.597422
1340.000000	41.106331
1330.000000	41.651822
1320.000000	42.350765
1310.000000	42.981860
1300.000000	43.374600
1290.000000	43.530961
1280.000000	43.488690
1270.000000	43.410382
1260.000000	43.411559
1250.000000	43.316929
1240.000000	43.145998
1230.000000	43.000213
1220.000000	42.764144
1210.000000	42.445437
1200.000000	42.038477
1190.000000	41.852812
1180.000000	42.078621
1170.000000	42.737901
1160.000000	43.615325
1150.000000	44.319228
1140.000000	44.857733
1130.000000	45.250529
1120.000000	45.482668
1110.000000	45.565618
1100.000000	45.602692
1090.000000	45.633910
1080.000000	45.603434
1070.000000	45.562907
1060.000000	45.447545
1050.000000	45.413939
1040.000000	45.449092
1030.000000	45.402312
1020.000000	45.455806
1010.000000	45.705760
1000.000000	45.925740
990.000000	45.982697
980.000000	46.066459
970.000000	46.176218
960.000000	46.233628
950.000000	46.388914
940.000000	46.489094
930.000000	46.419956
920.000000	46.348228
910.000000	46.463517
900.000000	46.694816
890.000000	46.754516
880.000000	46.736352
870.000000	46.794832
860.000000	47.163583
850.000000	47.432782
840.000000	47.260787
830.000000	47.393854
820.000000	47.376087
810.000000	47.368638
800.000000	47.464566
790.000000	47.553652
780.000000	47.513229
770.000000	47.513624
760.000000	47.642352
750.000000	47.628533
740.000000	47.628026
730.000000	47.626028
720.000000	47.658039
710.000000	47.691768
700.000000	47.676797
690.000000	47.681188
680.000000	47.720954
670.000000	47.666110
660.000000	47.558387
650.000000	47.580332
640.000000	47.574721
630.000000	47.475582
620.000000	47.411474
610.000000	47.370036
600.000000	47.345504
590.000000	47.262883
580.000000	47.109508
570.000000	46.941001
560.000000	46.796792
550.000000	46.612070
540.000000	46.410397
530.000000	46.249351
520.000000	46.127121
510.000000	45.953712
500.000000	45.608491
490.000000	45.111702
480.000000	44.455170
470.000000	43.702464
460.000000	42.896912
450.000000	41.917363
440.000000	40.699374
430.000000	39.086781
420.000000	37.170240
410.000000	35.132907
400.000000	33.290486
390.000000	32.028467
380.000000	31.096110
370.000000	29.913307
360.000000	28.334002
350.000000	27.101822
340.000000	26.188754
330.000000	25.096182
320.000000	23.779783
310.000000	22.155126
300.000000	20.529989
290.000000	18.350451
280.000000	16.977568
270.000000	17.005570
260.000000	17.005131
250.000000	15.728732
