PE UV       SUBTECH     SPECTRUM    ASCII       PEDS        4.00        
   -1
3C-N10-C007.Sample.Raw.asc
22/02/28
16:19:24.00
22/02/28
16:19:24.00
Administrator

250.000000
1
Lambda 750
750N8071901
PerkinElmer UV WinLab 6.0.4.0738 / 1.61.00 Lambda 900

0
0
3350/servo 860.8/2
0
0
UV/VIS
1
1
1
CommonBeamDepol,150mm sphere / downward view
0
0
0
0
Program
Program
3350/servo 860.8/2
3350/0.2 860.8/0.2
3350/0.2 860.8/0.2
0
1
 
 
 
0
 
860.8
319.2
860.8
Front
100
on
 
 
0
0
0
 
0
 
 
 
0
 
 
0
0
0
0
0
 
 
 
 
0
0


0
0
#HDR
-1
-1
#GR
nm
%R
1.0
0.0
2500.000000
-10.000000
226
8
43.005952
6.509994
#DATA
2500.000000	12.338585
2490.000000	12.105188
2480.000000	12.428742
2470.000000	6.509994
2460.000000	12.996024
2450.000000	10.897736
2440.000000	14.978182
2430.000000	17.252111
2420.000000	10.353542
2410.000000	11.516658
2400.000000	16.598436
2390.000000	12.311373
2380.000000	19.748393
2370.000000	11.728118
2360.000000	15.021400
2350.000000	17.856084
2340.000000	13.507427
2330.000000	13.139812
2320.000000	13.526062
2310.000000	11.307283
2300.000000	13.824218
2290.000000	15.492318
2280.000000	14.861772
2270.000000	13.320067
2260.000000	12.349164
2250.000000	15.140814
2240.000000	16.091120
2230.000000	15.316329
2220.000000	15.944670
2210.000000	14.193676
2200.000000	15.093608
2190.000000	13.935623
2180.000000	14.154812
2170.000000	15.501631
2160.000000	15.264144
2150.000000	15.201466
2140.000000	15.440657
2130.000000	16.678629
2120.000000	17.019512
2110.000000	16.868156
2100.000000	18.134667
2090.000000	18.579420
2080.000000	17.589729
2070.000000	17.038189
2060.000000	15.893628
2050.000000	15.450538
2040.000000	14.995759
2030.000000	14.249650
2020.000000	16.007724
2010.000000	15.844806
2000.000000	15.467651
1990.000000	14.969526
1980.000000	14.460711
1970.000000	14.167671
1960.000000	13.661666
1950.000000	13.419189
1940.000000	13.778992
1930.000000	13.501929
1920.000000	14.159212
1910.000000	15.909207
1900.000000	18.418636
1890.000000	20.502763
1880.000000	23.742048
1870.000000	25.671508
1860.000000	27.054179
1850.000000	26.992806
1840.000000	27.198760
1830.000000	27.255697
1820.000000	26.725236
1810.000000	26.773385
1800.000000	26.505753
1790.000000	26.100061
1780.000000	25.885606
1770.000000	25.512883
1760.000000	25.258739
1750.000000	25.042649
1740.000000	24.633196
1730.000000	24.435101
1720.000000	25.022912
1710.000000	25.434692
1700.000000	25.943157
1690.000000	26.372533
1680.000000	27.115736
1670.000000	28.122574
1660.000000	29.127760
1650.000000	29.527842
1640.000000	29.392981
1630.000000	29.222949
1620.000000	28.926238
1610.000000	28.367453
1600.000000	27.838623
1590.000000	27.174109
1580.000000	26.805185
1570.000000	26.592750
1560.000000	26.363823
1550.000000	26.029691
1540.000000	25.538047
1530.000000	24.876961
1520.000000	24.500871
1510.000000	24.183174
1500.000000	24.128161
1490.000000	24.160556
1480.000000	24.265893
1470.000000	24.468508
1460.000000	24.791356
1450.000000	25.217375
1440.000000	25.690757
1430.000000	25.985678
1420.000000	26.422890
1410.000000	27.908731
1400.000000	30.395909
1390.000000	33.481319
1380.000000	35.382267
1370.000000	35.902768
1360.000000	35.871996
1350.000000	35.761191
1340.000000	35.826944
1330.000000	36.283778
1320.000000	37.516928
1310.000000	38.719263
1300.000000	39.521657
1290.000000	39.935071
1280.000000	40.021686
1270.000000	39.704458
1260.000000	39.353985
1250.000000	39.050763
1240.000000	38.849328
1230.000000	38.732949
1220.000000	38.560949
1210.000000	38.289651
1200.000000	37.986529
1190.000000	38.080208
1180.000000	38.426552
1170.000000	38.625127
1160.000000	39.397907
1150.000000	40.218106
1140.000000	40.872040
1130.000000	41.111539
1120.000000	41.020947
1110.000000	41.047033
1100.000000	41.300243
1090.000000	41.401611
1080.000000	41.388661
1070.000000	41.346258
1060.000000	41.223460
1050.000000	41.179225
1040.000000	41.104345
1030.000000	41.024656
1020.000000	41.060951
1010.000000	41.589572
1000.000000	42.302126
990.000000	42.596558
980.000000	42.480352
970.000000	42.361218
960.000000	42.406787
950.000000	42.500490
940.000000	42.623011
930.000000	42.434235
920.000000	42.388726
910.000000	42.688676
900.000000	42.652221
890.000000	42.284354
880.000000	41.820848
870.000000	42.093897
860.000000	42.398021
850.000000	42.495474
840.000000	42.674102
830.000000	42.729465
820.000000	42.805139
810.000000	42.863379
800.000000	42.749162
790.000000	42.725162
780.000000	42.779933
770.000000	42.807938
760.000000	42.935810
750.000000	42.907333
740.000000	42.833822
730.000000	42.820813
720.000000	42.898531
710.000000	42.924793
700.000000	42.954963
690.000000	42.892641
680.000000	42.959473
670.000000	43.005952
660.000000	42.867451
650.000000	42.822292
640.000000	42.807863
630.000000	42.726650
620.000000	42.791503
610.000000	42.794084
600.000000	42.677791
590.000000	42.613106
580.000000	42.467580
570.000000	42.335487
560.000000	42.226304
550.000000	42.018576
540.000000	41.791655
530.000000	41.604337
520.000000	41.384943
510.000000	41.207244
500.000000	40.974511
490.000000	40.572399
480.000000	39.994557
470.000000	39.377464
460.000000	38.674517
450.000000	37.813231
440.000000	36.770168
430.000000	35.446319
420.000000	33.784490
410.000000	31.848642
400.000000	30.186373
390.000000	29.150840
380.000000	28.280569
370.000000	27.291778
360.000000	26.137844
350.000000	25.121839
340.000000	24.120614
330.000000	23.347693
320.000000	22.430946
310.000000	20.815347
300.000000	18.438290
290.000000	16.521344
280.000000	15.410162
270.000000	15.294855
260.000000	15.268203
250.000000	14.133553
