PE UV       SUBTECH     SPECTRUM    ASCII       PEDS        4.00        
   -1
3C-N10-C015.Sample.Raw.asc
22/03/22
17:19:13.00
22/03/22
17:19:13.00
Administrator

250.000000
1
Lambda 750
750N8071901
PerkinElmer UV WinLab 6.0.4.0738 / 1.61.00 Lambda 900

0
0
3350/servo 860.8/2
0
0
UV/VIS
1
1
1
CommonBeamDepol,150mm sphere / downward view
0
0
0
0
Program
Program
3350/servo 860.8/2
3350/0.2 860.8/0.2
3350/0.2 860.8/0.2
0
1
 
 
 
0
 
860.8
319.2
860.8
Front
100
on
 
 
0
0
0
 
0
 
 
 
0
 
 
0
0
0
0
0
 
 
 
 
0
0


0
0
#HDR
-1
-1
#GR
nm
%R
1.0
0.0
2500.000000
-10.000000
226
8
51.420223
9.310720
#DATA
2500.000000	12.124164
2490.000000	13.997612
2480.000000	9.310720
2470.000000	14.931229
2460.000000	13.692763
2450.000000	12.723987
2440.000000	15.401630
2430.000000	14.680905
2420.000000	15.248658
2410.000000	16.053461
2400.000000	15.457380
2390.000000	16.343566
2380.000000	16.623989
2370.000000	16.782147
2360.000000	17.002698
2350.000000	17.709830
2340.000000	15.091700
2330.000000	16.456717
2320.000000	16.258395
2310.000000	16.985103
2300.000000	15.794858
2290.000000	15.510248
2280.000000	15.586494
2270.000000	16.615732
2260.000000	16.340350
2250.000000	16.686567
2240.000000	17.296445
2230.000000	17.707821
2220.000000	18.681967
2210.000000	18.227054
2200.000000	17.578035
2190.000000	16.687030
2180.000000	17.505738
2170.000000	17.453360
2160.000000	17.474990
2150.000000	17.988256
2140.000000	18.858468
2130.000000	19.110539
2120.000000	19.393590
2110.000000	19.799270
2100.000000	20.938628
2090.000000	20.057851
2080.000000	20.014295
2070.000000	19.268668
2060.000000	18.569991
2050.000000	18.257135
2040.000000	17.811394
2030.000000	17.718305
2020.000000	18.224062
2010.000000	18.471498
2000.000000	18.109619
1990.000000	17.693461
1980.000000	17.140926
1970.000000	16.367147
1960.000000	16.048564
1950.000000	15.699314
1940.000000	15.457618
1930.000000	16.051184
1920.000000	16.884674
1910.000000	18.245720
1900.000000	21.141668
1890.000000	24.277022
1880.000000	27.740983
1870.000000	30.325719
1860.000000	31.756905
1850.000000	32.445548
1840.000000	32.267192
1830.000000	32.036085
1820.000000	31.753918
1810.000000	31.628238
1800.000000	31.263448
1790.000000	30.876762
1780.000000	30.516420
1770.000000	30.077939
1760.000000	29.627156
1750.000000	29.276599
1740.000000	29.002505
1730.000000	28.690408
1720.000000	29.221077
1710.000000	30.027238
1700.000000	30.435875
1690.000000	30.914243
1680.000000	31.949581
1670.000000	33.435642
1660.000000	34.432906
1650.000000	35.006850
1640.000000	34.929496
1630.000000	34.659725
1620.000000	34.140193
1610.000000	33.560251
1600.000000	32.895222
1590.000000	32.314563
1580.000000	31.838385
1570.000000	31.363470
1560.000000	31.038976
1550.000000	30.812841
1540.000000	30.302689
1530.000000	29.633790
1520.000000	29.055021
1510.000000	28.723943
1500.000000	28.534920
1490.000000	28.495620
1480.000000	28.794654
1470.000000	29.114322
1460.000000	29.475270
1450.000000	29.967352
1440.000000	30.717959
1430.000000	31.629633
1420.000000	32.938614
1410.000000	34.769334
1400.000000	37.240929
1390.000000	39.704122
1380.000000	41.379539
1370.000000	42.220411
1360.000000	42.725827
1350.000000	43.311216
1340.000000	43.856302
1330.000000	44.443335
1320.000000	45.317916
1310.000000	46.100919
1300.000000	46.627946
1290.000000	46.799816
1280.000000	46.745247
1270.000000	46.663667
1260.000000	46.651860
1250.000000	46.631958
1240.000000	46.450478
1230.000000	46.230943
1220.000000	45.926457
1210.000000	45.534291
1200.000000	45.143107
1190.000000	45.031591
1180.000000	45.253666
1170.000000	45.776851
1160.000000	46.677145
1150.000000	47.512372
1140.000000	48.224946
1130.000000	48.689401
1120.000000	48.855212
1110.000000	48.816336
1100.000000	48.783970
1090.000000	48.820826
1080.000000	48.819491
1070.000000	48.744016
1060.000000	48.659102
1050.000000	48.571543
1040.000000	48.525345
1030.000000	48.415151
1020.000000	48.420831
1010.000000	48.650628
1000.000000	48.926728
990.000000	49.033395
980.000000	49.075221
970.000000	49.208105
960.000000	49.305646
950.000000	49.405987
940.000000	49.508929
930.000000	49.463990
920.000000	49.474251
910.000000	49.597569
900.000000	49.750488
890.000000	49.941789
880.000000	49.923768
870.000000	49.783979
860.000000	49.824840
850.000000	50.536379
840.000000	51.153038
830.000000	51.242413
820.000000	51.249379
810.000000	51.303877
800.000000	51.284267
790.000000	51.286165
780.000000	51.282956
770.000000	51.319111
760.000000	51.385881
750.000000	51.391499
740.000000	51.394607
730.000000	51.396197
720.000000	51.420223
710.000000	51.406325
700.000000	51.407228
690.000000	51.343246
680.000000	51.343052
670.000000	51.310597
660.000000	51.241506
650.000000	51.248342
640.000000	51.237465
630.000000	51.106679
620.000000	51.036719
610.000000	50.959010
600.000000	50.909471
590.000000	50.796699
580.000000	50.603163
570.000000	50.449707
560.000000	50.274081
550.000000	50.030209
540.000000	49.788305
530.000000	49.586344
520.000000	49.430723
510.000000	49.277667
500.000000	48.913169
490.000000	48.249325
480.000000	47.547032
470.000000	46.780678
460.000000	45.845859
450.000000	44.729841
440.000000	43.397531
430.000000	41.723490
420.000000	39.720137
410.000000	37.528105
400.000000	35.558860
390.000000	34.221038
380.000000	33.141321
370.000000	31.793154
360.000000	30.210193
350.000000	28.998420
340.000000	27.973456
330.000000	26.695096
320.000000	25.537463
310.000000	24.165506
300.000000	22.045584
290.000000	19.552252
280.000000	17.907276
270.000000	17.754368
260.000000	17.738365
250.000000	16.359374
