PE UV       SUBTECH     SPECTRUM    ASCII       PEDS        4.00        
   -1
3G-H10-F029.Sample.Cycle1.Raw.asc
22/04/19
18:00:45.00
22/04/19
18:00:45.00
Administrator

250.000000
1
Lambda 750
750N8071901
PerkinElmer UV WinLab 6.0.4.0738 / 1.61.00 Lambda 900

0
0
3350/servo 860.8/2
0
0
UV/VIS
1
1
1
CommonBeamDepol,150mm sphere / downward view
0
0
0
0
Program
Program
3350/servo 860.8/2
3350/0.2 860.8/0.2
3350/0.2 860.8/0.2
0
1
 
 
 
0
 
860.8
319.2
860.8
Front
100
on
 
 
0
0
0
 
0
 
 
 
0
 
 
0
0
0
0
0
 
 
 
 
0
0


0
0
#HDR
-1
-1
#GR
nm
%R
1.0
0.0
2500.000000
-10.000000
226
8
66.738878
11.251603
#DATA
2500.000000	13.720415
2490.000000	11.251603
2480.000000	13.990797
2470.000000	13.916529
2460.000000	14.395965
2450.000000	16.957575
2440.000000	18.300133
2430.000000	19.735491
2420.000000	17.879384
2410.000000	20.638261
2400.000000	20.114196
2390.000000	17.392557
2380.000000	18.401587
2370.000000	18.018455
2360.000000	18.824557
2350.000000	16.867868
2340.000000	19.239314
2330.000000	17.085711
2320.000000	18.885039
2310.000000	18.388888
2300.000000	18.581606
2290.000000	19.387221
2280.000000	17.864289
2270.000000	18.300354
2260.000000	16.626003
2250.000000	18.243064
2240.000000	20.241548
2230.000000	19.025382
2220.000000	20.552248
2210.000000	19.872221
2200.000000	19.185064
2190.000000	20.803961
2180.000000	19.748875
2170.000000	18.588002
2160.000000	20.183127
2150.000000	19.595869
2140.000000	21.325986
2130.000000	21.886255
2120.000000	22.656971
2110.000000	22.749316
2100.000000	23.789638
2090.000000	23.056146
2080.000000	22.533717
2070.000000	21.944753
2060.000000	21.824604
2050.000000	21.442061
2040.000000	20.743603
2030.000000	21.285947
2020.000000	21.095230
2010.000000	21.301817
2000.000000	21.415381
1990.000000	20.554184
1980.000000	19.766507
1970.000000	18.868415
1960.000000	18.524964
1950.000000	18.270931
1940.000000	17.630567
1930.000000	18.159844
1920.000000	19.624364
1910.000000	21.289011
1900.000000	24.948573
1890.000000	29.108598
1880.000000	33.712434
1870.000000	37.259125
1860.000000	39.400711
1850.000000	39.830329
1840.000000	39.513822
1830.000000	39.345862
1820.000000	38.724117
1810.000000	38.540137
1800.000000	38.215121
1790.000000	37.522715
1780.000000	36.758384
1770.000000	35.971038
1760.000000	35.693971
1750.000000	35.242410
1740.000000	34.450145
1730.000000	34.274077
1720.000000	34.565643
1710.000000	35.574557
1700.000000	36.496069
1690.000000	37.464357
1680.000000	39.277167
1670.000000	41.302298
1660.000000	42.888652
1650.000000	43.670170
1640.000000	43.448440
1630.000000	42.993678
1620.000000	42.178031
1610.000000	41.359322
1600.000000	40.518362
1590.000000	39.776770
1580.000000	39.027251
1570.000000	38.438348
1560.000000	37.977832
1550.000000	37.458502
1540.000000	36.773812
1530.000000	35.773741
1520.000000	34.983447
1510.000000	34.634749
1500.000000	34.308024
1490.000000	34.364580
1480.000000	34.887467
1470.000000	35.288562
1460.000000	35.867544
1450.000000	36.663668
1440.000000	37.694490
1430.000000	38.996925
1420.000000	40.561340
1410.000000	43.016478
1400.000000	46.776408
1390.000000	50.894960
1380.000000	53.639477
1370.000000	54.969788
1360.000000	55.764513
1350.000000	56.521795
1340.000000	57.132912
1330.000000	57.984208
1320.000000	59.512926
1310.000000	60.941523
1300.000000	61.755037
1290.000000	61.885905
1280.000000	61.631412
1270.000000	61.309276
1260.000000	61.294047
1250.000000	61.155806
1240.000000	60.851490
1230.000000	60.404410
1220.000000	59.729322
1210.000000	59.007551
1200.000000	58.407624
1190.000000	58.166280
1180.000000	58.647593
1170.000000	59.911843
1160.000000	61.532157
1150.000000	62.853405
1140.000000	64.183717
1130.000000	65.060597
1120.000000	65.330895
1110.000000	65.429904
1100.000000	65.542488
1090.000000	65.517330
1080.000000	65.397838
1070.000000	65.087537
1060.000000	64.944715
1050.000000	64.878575
1040.000000	64.724672
1030.000000	64.655113
1020.000000	64.785522
1010.000000	65.308749
1000.000000	65.842861
990.000000	65.961008
980.000000	65.859594
970.000000	66.081868
960.000000	66.161157
950.000000	66.453035
940.000000	66.628237
930.000000	66.350801
920.000000	66.258516
910.000000	66.522111
900.000000	66.738878
890.000000	66.671609
880.000000	66.455387
870.000000	65.504526
860.000000	65.743828
850.000000	66.310811
840.000000	65.819043
830.000000	65.896105
820.000000	65.821214
810.000000	65.471322
800.000000	65.277956
790.000000	65.317305
780.000000	65.289884
770.000000	65.267621
760.000000	65.008696
750.000000	64.726751
740.000000	64.451841
730.000000	64.197027
720.000000	64.053285
710.000000	63.787666
700.000000	63.354784
690.000000	62.840418
680.000000	62.511350
670.000000	62.022754
660.000000	61.571962
650.000000	60.960649
640.000000	60.335080
630.000000	59.537190
620.000000	58.867354
610.000000	58.057632
600.000000	57.369767
590.000000	56.783953
580.000000	56.027245
570.000000	55.264336
560.000000	54.523278
550.000000	53.637278
540.000000	52.688074
530.000000	51.710691
520.000000	50.722790
510.000000	49.658235
500.000000	48.412436
490.000000	46.976207
480.000000	45.505874
470.000000	43.893452
460.000000	42.035502
450.000000	39.906607
440.000000	37.625589
430.000000	35.345518
420.000000	33.080742
410.000000	31.448040
400.000000	30.639239
390.000000	30.016978
380.000000	29.117753
370.000000	27.885220
360.000000	26.792864
350.000000	26.150368
340.000000	25.057984
330.000000	23.789566
320.000000	23.289847
310.000000	21.877572
300.000000	18.965526
290.000000	16.664943
280.000000	15.407018
270.000000	15.099802
260.000000	15.073690
250.000000	14.374883
