PE UV       SUBTECH     SPECTRUM    ASCII       PEDS        4.00        
   -1
3G-H10-C014.Sample.Raw.asc
22/04/19
16:13:13.00
22/04/19
16:13:13.00
Administrator

250.000000
1
Lambda 750
750N8071901
PerkinElmer UV WinLab 6.0.4.0738 / 1.61.00 Lambda 900

0
0
3350/servo 860.8/2
0
0
UV/VIS
1
1
1
CommonBeamDepol,150mm sphere / downward view
0
0
0
0
Program
Program
3350/servo 860.8/2
3350/0.2 860.8/0.2
3350/0.2 860.8/0.2
0
1
 
 
 
0
 
860.8
319.2
860.8
Front
100
on
 
 
0
0
0
 
0
 
 
 
0
 
 
0
0
0
0
0
 
 
 
 
0
0


0
0
#HDR
-1
-1
#GR
nm
%R
1.0
0.0
2500.000000
-10.000000
226
8
65.222279
16.996260
#DATA
2500.000000	23.139854
2490.000000	29.123828
2480.000000	20.275463
2470.000000	32.212008
2460.000000	26.996870
2450.000000	28.401143
2440.000000	27.448892
2430.000000	31.084071
2420.000000	29.731568
2410.000000	32.230551
2400.000000	35.296984
2390.000000	29.573300
2380.000000	29.056569
2370.000000	27.627555
2360.000000	30.101945
2350.000000	31.238476
2340.000000	30.493844
2330.000000	29.412836
2320.000000	29.458862
2310.000000	29.585058
2300.000000	28.257632
2290.000000	28.472329
2280.000000	28.412042
2270.000000	28.011290
2260.000000	28.885852
2250.000000	29.929031
2240.000000	30.403979
2230.000000	31.281058
2220.000000	32.997045
2210.000000	33.995677
2200.000000	31.074160
2190.000000	30.977406
2180.000000	31.125006
2170.000000	30.466937
2160.000000	32.602345
2150.000000	32.833568
2140.000000	34.563322
2130.000000	34.663721
2120.000000	34.268486
2110.000000	34.085216
2100.000000	34.801498
2090.000000	35.966141
2080.000000	33.851742
2070.000000	33.641173
2060.000000	33.732418
2050.000000	33.488913
2040.000000	32.625412
2030.000000	32.916270
2020.000000	32.803499
2010.000000	32.700833
2000.000000	32.986996
1990.000000	32.219335
1980.000000	30.713184
1970.000000	30.093302
1960.000000	29.827923
1950.000000	29.107243
1940.000000	29.023130
1930.000000	29.142348
1920.000000	30.002267
1910.000000	33.085561
1900.000000	36.385108
1890.000000	40.509646
1880.000000	43.896593
1870.000000	46.377425
1860.000000	47.597035
1850.000000	48.436790
1840.000000	48.262598
1830.000000	47.838041
1820.000000	47.460640
1810.000000	47.314069
1800.000000	46.880530
1790.000000	46.524171
1780.000000	46.142790
1770.000000	45.958412
1760.000000	45.524290
1750.000000	45.032543
1740.000000	44.315532
1730.000000	44.436424
1720.000000	44.924129
1710.000000	45.574621
1700.000000	46.040157
1690.000000	46.560591
1680.000000	47.812717
1670.000000	49.381370
1660.000000	50.357529
1650.000000	50.841876
1640.000000	50.777805
1630.000000	50.128053
1620.000000	49.798319
1610.000000	49.312692
1600.000000	48.760410
1590.000000	48.303217
1580.000000	47.804935
1570.000000	47.364929
1560.000000	46.956438
1550.000000	46.639602
1540.000000	46.244765
1530.000000	45.435394
1520.000000	44.814708
1510.000000	44.572426
1500.000000	44.458773
1490.000000	44.541614
1480.000000	44.805057
1470.000000	45.117603
1460.000000	45.545669
1450.000000	46.132991
1440.000000	46.898135
1430.000000	47.705021
1420.000000	48.606997
1410.000000	49.992560
1400.000000	52.620317
1390.000000	55.569675
1380.000000	57.351795
1370.000000	58.012085
1360.000000	58.182364
1350.000000	58.457482
1340.000000	58.590371
1330.000000	59.089530
1320.000000	60.183105
1310.000000	61.364359
1300.000000	61.923640
1290.000000	62.266222
1280.000000	62.085525
1270.000000	61.629706
1260.000000	61.587205
1250.000000	61.521016
1240.000000	61.336179
1230.000000	61.222582
1220.000000	60.819680
1210.000000	60.341453
1200.000000	59.994432
1190.000000	59.802069
1180.000000	60.002856
1170.000000	60.857949
1160.000000	61.823849
1150.000000	62.553732
1140.000000	63.311358
1130.000000	63.830662
1120.000000	63.968819
1110.000000	63.984805
1100.000000	63.869992
1090.000000	63.927022
1080.000000	63.887256
1070.000000	63.776546
1060.000000	63.699931
1050.000000	63.803183
1040.000000	63.802387
1030.000000	63.759874
1020.000000	63.830886
1010.000000	64.240244
1000.000000	64.863562
990.000000	64.879413
980.000000	64.583632
970.000000	64.703546
960.000000	64.942497
950.000000	65.078280
940.000000	65.079813
930.000000	64.904628
920.000000	64.736010
910.000000	64.921759
900.000000	64.871755
890.000000	64.687359
880.000000	64.905807
870.000000	65.016567
860.000000	64.883814
850.000000	65.222279
840.000000	64.487840
830.000000	64.382717
820.000000	64.588869
810.000000	64.329887
800.000000	64.020134
790.000000	64.009011
780.000000	64.020684
770.000000	63.958976
760.000000	63.909801
750.000000	63.726333
740.000000	63.599955
730.000000	63.396695
720.000000	63.332650
710.000000	63.207114
700.000000	62.801293
690.000000	62.412102
680.000000	62.258931
670.000000	62.139129
660.000000	61.868570
650.000000	61.472098
640.000000	61.203447
630.000000	60.951838
620.000000	60.588728
610.000000	60.152295
600.000000	59.799287
590.000000	59.484691
580.000000	59.072927
570.000000	58.666651
560.000000	58.302916
550.000000	57.651306
540.000000	57.041206
530.000000	56.467203
520.000000	55.926508
510.000000	55.216285
500.000000	54.340337
490.000000	53.510914
480.000000	52.735635
470.000000	51.825885
460.000000	50.817517
450.000000	49.493410
440.000000	48.117386
430.000000	46.762057
420.000000	45.234819
410.000000	43.707487
400.000000	42.393641
390.000000	41.382694
380.000000	40.213987
370.000000	38.790944
360.000000	37.464166
350.000000	36.611575
340.000000	35.232432
330.000000	33.631558
320.000000	32.591470
310.000000	30.406198
300.000000	27.883943
290.000000	23.596397
280.000000	20.032715
270.000000	18.953821
260.000000	18.454270
250.000000	16.996260
