PE UV       SUBTECH     SPECTRUM    ASCII       PEDS        4.00        
   -1
3G-H10-C009.Sample.Raw.asc
22/03/04
15:41:53.00
22/03/04
15:41:53.00
Administrator

250.000000
1
Lambda 750
750N8071901
PerkinElmer UV WinLab 6.0.4.0738 / 1.61.00 Lambda 900

0
0
3350/servo 860.8/2
0
0
UV/VIS
1
1
1
CommonBeamDepol,150mm sphere / downward view
0
0
0
0
Program
Program
3350/servo 860.8/2
3350/0.2 860.8/0.2
3350/0.2 860.8/0.2
0
1
 
 
 
0
 
860.8
319.2
860.8
Front
100
on
 
 
0
0
0
 
0
 
 
 
0
 
 
0
0
0
0
0
 
 
 
 
0
0


0
0
#HDR
-1
-1
#GR
nm
%R
1.0
0.0
2500.000000
-10.000000
226
8
65.672676
16.267533
#DATA
2500.000000	27.362367
2490.000000	25.351808
2480.000000	27.957290
2470.000000	24.185355
2460.000000	27.533901
2450.000000	31.027943
2440.000000	29.898912
2430.000000	30.796745
2420.000000	27.392512
2410.000000	30.152491
2400.000000	33.473445
2390.000000	30.880278
2380.000000	32.963471
2370.000000	29.970725
2360.000000	32.045272
2350.000000	30.532984
2340.000000	31.632323
2330.000000	26.515948
2320.000000	27.267917
2310.000000	28.877430
2300.000000	30.252956
2290.000000	30.596633
2280.000000	27.779951
2270.000000	28.913077
2260.000000	29.944321
2250.000000	31.333456
2240.000000	31.682497
2230.000000	33.894761
2220.000000	32.120599
2210.000000	33.753849
2200.000000	34.056509
2190.000000	31.397212
2180.000000	31.967094
2170.000000	33.170081
2160.000000	31.710596
2150.000000	33.365892
2140.000000	32.868834
2130.000000	34.208398
2120.000000	35.789748
2110.000000	35.914737
2100.000000	36.359434
2090.000000	36.256395
2080.000000	36.131076
2070.000000	35.295255
2060.000000	34.444830
2050.000000	33.489102
2040.000000	32.935132
2030.000000	33.490861
2020.000000	34.110027
2010.000000	34.311282
2000.000000	33.153747
1990.000000	32.597850
1980.000000	32.567663
1970.000000	31.263626
1960.000000	30.631494
1950.000000	29.364558
1940.000000	29.475186
1930.000000	30.365370
1920.000000	31.992979
1910.000000	33.981716
1900.000000	36.866139
1890.000000	41.414263
1880.000000	45.099950
1870.000000	47.491639
1860.000000	48.568281
1850.000000	48.674543
1840.000000	48.609651
1830.000000	48.603668
1820.000000	48.332485
1810.000000	48.308671
1800.000000	47.715600
1790.000000	47.279196
1780.000000	46.984849
1770.000000	46.577282
1760.000000	46.047943
1750.000000	45.552474
1740.000000	45.433395
1730.000000	45.108035
1720.000000	45.543302
1710.000000	46.399195
1700.000000	46.837344
1690.000000	47.532348
1680.000000	48.604665
1670.000000	50.137153
1660.000000	51.109005
1650.000000	51.590497
1640.000000	51.414721
1630.000000	51.116006
1620.000000	50.757914
1610.000000	50.082407
1600.000000	49.561810
1590.000000	48.798982
1580.000000	48.354771
1570.000000	48.100901
1560.000000	47.897892
1550.000000	47.562558
1540.000000	47.002730
1530.000000	46.264549
1520.000000	45.744191
1510.000000	45.433392
1500.000000	45.342922
1490.000000	45.437139
1480.000000	45.715656
1470.000000	46.168695
1460.000000	46.599763
1450.000000	47.065739
1440.000000	47.728697
1430.000000	48.514210
1420.000000	49.302811
1410.000000	50.629439
1400.000000	53.298574
1390.000000	56.156538
1380.000000	57.906097
1370.000000	58.649035
1360.000000	58.855742
1350.000000	59.177951
1340.000000	59.787788
1330.000000	60.765979
1320.000000	61.870815
1310.000000	62.614682
1300.000000	62.804822
1290.000000	62.657023
1280.000000	62.461357
1270.000000	62.248348
1260.000000	62.274321
1250.000000	62.221179
1240.000000	62.007594
1230.000000	61.789042
1220.000000	61.575639
1210.000000	61.272402
1200.000000	60.984472
1190.000000	60.660833
1180.000000	60.751133
1170.000000	61.541543
1160.000000	62.486187
1150.000000	63.228807
1140.000000	63.965295
1130.000000	64.499662
1120.000000	64.646218
1110.000000	64.590296
1100.000000	64.630025
1090.000000	64.770206
1080.000000	64.638667
1070.000000	64.590784
1060.000000	64.399447
1050.000000	64.328413
1040.000000	64.293127
1030.000000	64.257217
1020.000000	64.375684
1010.000000	64.668204
1000.000000	65.079345
990.000000	65.173124
980.000000	65.184249
970.000000	65.260954
960.000000	65.348806
950.000000	65.329331
940.000000	65.312191
930.000000	65.412576
920.000000	65.307387
910.000000	65.281068
900.000000	65.190776
890.000000	65.347329
880.000000	65.002824
870.000000	65.085317
860.000000	65.183377
850.000000	64.663119
840.000000	65.414277
830.000000	65.519976
820.000000	65.672676
810.000000	65.449883
800.000000	65.259980
790.000000	65.265550
780.000000	65.230685
770.000000	65.006502
760.000000	64.948565
750.000000	64.811931
740.000000	64.742085
730.000000	64.704957
720.000000	64.384167
710.000000	64.160215
700.000000	63.778633
690.000000	63.539016
680.000000	63.337959
670.000000	63.016181
660.000000	62.689010
650.000000	62.449583
640.000000	62.070161
630.000000	61.768962
620.000000	61.416734
610.000000	61.012858
600.000000	60.587321
590.000000	60.143940
580.000000	59.813293
570.000000	59.419291
560.000000	58.892951
550.000000	58.261810
540.000000	57.692098
530.000000	57.136586
520.000000	56.508476
510.000000	55.811538
500.000000	55.160918
490.000000	54.386692
480.000000	53.561768
470.000000	52.626629
460.000000	51.540709
450.000000	50.356600
440.000000	49.091943
430.000000	47.641173
420.000000	46.130847
410.000000	44.711423
400.000000	43.391312
390.000000	42.225893
380.000000	41.061537
370.000000	39.614811
360.000000	38.066662
350.000000	36.752147
340.000000	35.231253
330.000000	33.690102
320.000000	32.615498
310.000000	30.983455
300.000000	27.770873
290.000000	22.954918
280.000000	19.165179
270.000000	18.090828
260.000000	17.695800
250.000000	16.267533
