PE UV       SUBTECH     SPECTRUM    ASCII       PEDS        4.00        
   -1
3G-H10-C025.Sample.Raw.asc
22/04/19
16:44:43.00
22/04/19
16:44:43.00
Administrator

250.000000
1
Lambda 750
750N8071901
PerkinElmer UV WinLab 6.0.4.0738 / 1.61.00 Lambda 900

0
0
3350/servo 860.8/2
0
0
UV/VIS
1
1
1
CommonBeamDepol,150mm sphere / downward view
0
0
0
0
Program
Program
3350/servo 860.8/2
3350/0.2 860.8/0.2
3350/0.2 860.8/0.2
0
1
 
 
 
0
 
860.8
319.2
860.8
Front
100
on
 
 
0
0
0
 
0
 
 
 
0
 
 
0
0
0
0
0
 
 
 
 
0
0


0
0
#HDR
-1
-1
#GR
nm
%R
1.0
0.0
2500.000000
-10.000000
226
8
65.819783
16.702662
#DATA
2500.000000	23.081112
2490.000000	19.983786
2480.000000	21.065788
2470.000000	33.153203
2460.000000	24.309032
2450.000000	34.562395
2440.000000	27.192129
2430.000000	26.082360
2420.000000	29.340253
2410.000000	30.756923
2400.000000	32.327145
2390.000000	29.511849
2380.000000	30.937328
2370.000000	29.716632
2360.000000	33.750456
2350.000000	28.018638
2340.000000	33.924316
2330.000000	29.570409
2320.000000	32.491084
2310.000000	30.256517
2300.000000	28.695400
2290.000000	27.515699
2280.000000	28.625729
2270.000000	30.490664
2260.000000	28.821343
2250.000000	31.129955
2240.000000	30.739144
2230.000000	30.958054
2220.000000	32.625291
2210.000000	31.653066
2200.000000	32.385675
2190.000000	32.515975
2180.000000	32.249435
2170.000000	29.561188
2160.000000	32.716166
2150.000000	32.602762
2140.000000	34.482629
2130.000000	34.362947
2120.000000	34.806528
2110.000000	34.886000
2100.000000	34.828964
2090.000000	35.030910
2080.000000	34.014718
2070.000000	35.110090
2060.000000	33.980039
2050.000000	33.090849
2040.000000	32.365087
2030.000000	32.795371
2020.000000	33.188159
2010.000000	33.221229
2000.000000	32.902649
1990.000000	32.555873
1980.000000	31.440499
1970.000000	30.276529
1960.000000	29.823361
1950.000000	28.825024
1940.000000	28.118511
1930.000000	29.120732
1920.000000	30.615589
1910.000000	33.371895
1900.000000	36.813668
1890.000000	40.084410
1880.000000	44.115032
1870.000000	46.903086
1860.000000	48.002477
1850.000000	48.066716
1840.000000	48.137789
1830.000000	47.996887
1820.000000	47.504764
1810.000000	47.602707
1800.000000	47.537363
1790.000000	46.909515
1780.000000	46.566893
1770.000000	46.164549
1760.000000	45.635356
1750.000000	45.243251
1740.000000	44.805918
1730.000000	44.569834
1720.000000	44.859723
1710.000000	45.943376
1700.000000	46.180823
1690.000000	46.889503
1680.000000	48.150459
1670.000000	49.505160
1660.000000	50.609599
1650.000000	51.008451
1640.000000	50.837587
1630.000000	50.448346
1620.000000	50.113185
1610.000000	49.592242
1600.000000	48.925818
1590.000000	48.437903
1580.000000	47.976983
1570.000000	47.614232
1560.000000	47.336641
1550.000000	47.040430
1540.000000	46.447108
1530.000000	45.702578
1520.000000	45.195256
1510.000000	44.889195
1500.000000	44.611585
1490.000000	44.760891
1480.000000	45.138822
1470.000000	45.408639
1460.000000	45.824246
1450.000000	46.365564
1440.000000	47.187578
1430.000000	48.039551
1420.000000	48.850805
1410.000000	50.222228
1400.000000	52.859436
1390.000000	55.771193
1380.000000	57.622711
1370.000000	58.262732
1360.000000	58.561171
1350.000000	58.722460
1340.000000	59.041597
1330.000000	59.602807
1320.000000	60.678314
1310.000000	61.745689
1300.000000	62.247176
1290.000000	62.485787
1280.000000	62.032675
1270.000000	61.733049
1260.000000	61.817451
1250.000000	61.752359
1240.000000	61.580800
1230.000000	61.151154
1220.000000	60.854016
1210.000000	60.508110
1200.000000	60.171823
1190.000000	60.063120
1180.000000	60.213804
1170.000000	61.102542
1160.000000	62.340118
1150.000000	63.017742
1140.000000	63.379602
1130.000000	63.675796
1120.000000	63.991275
1110.000000	64.292177
1100.000000	64.439448
1090.000000	64.373537
1080.000000	64.204836
1070.000000	64.083929
1060.000000	64.021923
1050.000000	63.985163
1040.000000	63.909703
1030.000000	63.813463
1020.000000	63.956827
1010.000000	64.290468
1000.000000	64.985035
990.000000	65.137322
980.000000	64.889240
970.000000	65.105686
960.000000	65.330589
950.000000	65.488921
940.000000	65.426905
930.000000	65.266172
920.000000	65.135036
910.000000	65.100045
900.000000	65.192517
890.000000	65.579856
880.000000	65.819783
870.000000	64.903197
860.000000	64.858878
850.000000	65.576969
840.000000	65.023703
830.000000	64.998894
820.000000	64.864471
810.000000	64.529435
800.000000	64.392995
790.000000	64.378619
780.000000	64.345199
770.000000	64.388875
760.000000	64.355911
750.000000	64.192200
740.000000	64.015421
730.000000	63.838589
720.000000	63.944134
710.000000	63.769543
700.000000	63.384392
690.000000	62.990842
680.000000	62.798877
670.000000	62.677367
660.000000	62.360491
650.000000	62.061811
640.000000	61.786406
630.000000	61.390615
620.000000	61.093907
610.000000	60.566377
600.000000	60.217439
590.000000	59.865751
580.000000	59.431634
570.000000	59.044618
560.000000	58.641897
550.000000	58.070456
540.000000	57.427949
530.000000	56.874904
520.000000	56.276764
510.000000	55.596093
500.000000	54.786363
490.000000	53.959089
480.000000	53.105682
470.000000	52.273330
460.000000	51.252380
450.000000	49.994513
440.000000	48.595472
430.000000	47.185004
420.000000	45.573695
410.000000	44.069981
400.000000	42.885270
390.000000	41.717441
380.000000	40.452481
370.000000	39.224276
360.000000	38.021512
350.000000	36.785271
340.000000	35.195810
330.000000	33.975401
320.000000	32.744689
310.000000	30.655791
300.000000	27.743674
290.000000	23.203846
280.000000	19.519665
270.000000	18.488013
260.000000	18.000611
250.000000	16.702662
