PE UV       SUBTECH     SPECTRUM    ASCII       PEDS        4.00        
   -1
3G-H10-C015.Sample.Raw.asc
22/04/19
16:16:12.00
22/04/19
16:16:12.00
Administrator

250.000000
1
Lambda 750
750N8071901
PerkinElmer UV WinLab 6.0.4.0738 / 1.61.00 Lambda 900

0
0
3350/servo 860.8/2
0
0
UV/VIS
1
1
1
CommonBeamDepol,150mm sphere / downward view
0
0
0
0
Program
Program
3350/servo 860.8/2
3350/0.2 860.8/0.2
3350/0.2 860.8/0.2
0
1
 
 
 
0
 
860.8
319.2
860.8
Front
100
on
 
 
0
0
0
 
0
 
 
 
0
 
 
0
0
0
0
0
 
 
 
 
0
0


0
0
#HDR
-1
-1
#GR
nm
%R
1.0
0.0
2500.000000
-10.000000
226
8
65.046499
17.572041
#DATA
2500.000000	25.974741
2490.000000	22.730072
2480.000000	22.533889
2470.000000	22.939640
2460.000000	24.149358
2450.000000	30.698180
2440.000000	23.755545
2430.000000	27.003374
2420.000000	30.633500
2410.000000	28.407336
2400.000000	31.239536
2390.000000	32.851967
2380.000000	32.078388
2370.000000	27.930766
2360.000000	29.960529
2350.000000	28.668336
2340.000000	29.286849
2330.000000	28.894916
2320.000000	28.472614
2310.000000	29.780332
2300.000000	28.722478
2290.000000	28.913310
2280.000000	27.150637
2270.000000	29.179331
2260.000000	27.525420
2250.000000	30.564220
2240.000000	31.543031
2230.000000	30.373207
2220.000000	32.506714
2210.000000	32.429459
2200.000000	32.728164
2190.000000	31.659524
2180.000000	31.313797
2170.000000	30.543002
2160.000000	31.407849
2150.000000	31.719788
2140.000000	35.143182
2130.000000	35.037293
2120.000000	34.651164
2110.000000	33.427933
2100.000000	35.386392
2090.000000	34.660622
2080.000000	34.775276
2070.000000	33.639910
2060.000000	33.457144
2050.000000	32.743655
2040.000000	32.771092
2030.000000	32.612132
2020.000000	32.558716
2010.000000	32.726311
2000.000000	32.951851
1990.000000	32.305094
1980.000000	31.218156
1970.000000	29.898381
1960.000000	29.241950
1950.000000	28.465538
1940.000000	28.060867
1930.000000	29.019854
1920.000000	31.064409
1910.000000	32.909159
1900.000000	35.994007
1890.000000	39.794331
1880.000000	43.609851
1870.000000	46.336398
1860.000000	47.916919
1850.000000	48.239588
1840.000000	47.839528
1830.000000	47.735334
1820.000000	47.238742
1810.000000	47.565505
1800.000000	47.110454
1790.000000	46.642094
1780.000000	46.138278
1770.000000	45.937154
1760.000000	45.361222
1750.000000	44.852860
1740.000000	44.430841
1730.000000	44.143825
1720.000000	44.678097
1710.000000	45.486609
1700.000000	45.870587
1690.000000	46.545787
1680.000000	48.026942
1670.000000	49.244110
1660.000000	50.111245
1650.000000	50.801358
1640.000000	50.556034
1630.000000	50.115216
1620.000000	49.742528
1610.000000	49.130823
1600.000000	48.545445
1590.000000	48.161442
1580.000000	47.559428
1570.000000	47.192285
1560.000000	46.949349
1550.000000	46.610649
1540.000000	46.057196
1530.000000	45.362175
1520.000000	44.858419
1510.000000	44.549891
1500.000000	44.358187
1490.000000	44.461643
1480.000000	44.712273
1470.000000	45.048859
1460.000000	45.456242
1450.000000	46.061034
1440.000000	46.812589
1430.000000	47.583842
1420.000000	48.396172
1410.000000	49.930453
1400.000000	52.443072
1390.000000	55.358530
1380.000000	57.150525
1370.000000	57.810672
1360.000000	58.126789
1350.000000	58.265004
1340.000000	58.329305
1330.000000	58.784791
1320.000000	59.776349
1310.000000	61.060851
1300.000000	61.650880
1290.000000	61.932301
1280.000000	61.775606
1270.000000	61.411970
1260.000000	61.338799
1250.000000	61.196096
1240.000000	61.153363
1230.000000	60.994013
1220.000000	60.564421
1210.000000	60.002971
1200.000000	59.717340
1190.000000	59.598813
1180.000000	59.978191
1170.000000	60.701770
1160.000000	61.580557
1150.000000	62.247614
1140.000000	62.711330
1130.000000	63.107096
1120.000000	63.350335
1110.000000	63.713367
1100.000000	63.852697
1090.000000	63.877125
1080.000000	63.802909
1070.000000	63.590080
1060.000000	63.431921
1050.000000	63.476634
1040.000000	63.390800
1030.000000	63.340626
1020.000000	63.530516
1010.000000	63.958365
1000.000000	64.727061
990.000000	64.878165
980.000000	64.611018
970.000000	64.725887
960.000000	64.658225
950.000000	64.842485
940.000000	65.029527
930.000000	64.784726
920.000000	64.513990
910.000000	64.536880
900.000000	65.046499
890.000000	64.856370
880.000000	64.678637
870.000000	64.634966
860.000000	64.428581
850.000000	64.894962
840.000000	64.315827
830.000000	64.533997
820.000000	64.534098
810.000000	64.365375
800.000000	64.095872
790.000000	64.057706
780.000000	63.949420
770.000000	63.908644
760.000000	63.939582
750.000000	63.771725
740.000000	63.620309
730.000000	63.390691
720.000000	63.321795
710.000000	63.175700
700.000000	62.799480
690.000000	62.449557
680.000000	62.290408
670.000000	62.128219
660.000000	61.815800
650.000000	61.529734
640.000000	61.324289
630.000000	60.926348
620.000000	60.637303
610.000000	60.180183
600.000000	59.796863
590.000000	59.471969
580.000000	59.047521
570.000000	58.664836
560.000000	58.240568
550.000000	57.670083
540.000000	57.050313
530.000000	56.538826
520.000000	55.950024
510.000000	55.281769
500.000000	54.406992
490.000000	53.664221
480.000000	52.974534
470.000000	52.057940
460.000000	51.100669
450.000000	49.896975
440.000000	48.517813
430.000000	47.070924
420.000000	45.569451
410.000000	44.132313
400.000000	42.823666
390.000000	41.663255
380.000000	40.409444
370.000000	38.993957
360.000000	37.796442
350.000000	36.892432
340.000000	35.635271
330.000000	33.754155
320.000000	32.366115
310.000000	30.928749
300.000000	28.722543
290.000000	24.285946
280.000000	20.449173
270.000000	19.568209
260.000000	19.140634
250.000000	17.572041
