PE UV       SUBTECH     SPECTRUM    ASCII       PEDS        4.00        
   -1
3G-N10-C025.Sample.Raw.asc
22/04/20
11:56:47.00
22/04/20
11:56:47.00
Administrator

250.000000
1
Lambda 750
750N8071901
PerkinElmer UV WinLab 6.0.4.0738 / 1.61.00 Lambda 900

0
0
3350/servo 860.8/2
0
0
UV/VIS
1
1
1
CommonBeamDepol,150mm sphere / downward view
0
0
0
0
Program
Program
3350/servo 860.8/2
3350/0.2 860.8/0.2
3350/0.2 860.8/0.2
0
1
 
 
 
0
 
860.8
319.2
860.8
Front
100
on
 
 
0
0
0
 
0
 
 
 
0
 
 
0
0
0
0
0
 
 
 
 
0
0


0
0
#HDR
-1
-1
#GR
nm
%R
1.0
0.0
2500.000000
-10.000000
226
8
62.961563
17.405504
#DATA
2500.000000	29.109718
2490.000000	29.961614
2480.000000	23.096631
2470.000000	26.097207
2460.000000	26.612628
2450.000000	30.158592
2440.000000	30.588647
2430.000000	27.682714
2420.000000	29.030111
2410.000000	30.803112
2400.000000	31.143048
2390.000000	33.125616
2380.000000	30.764380
2370.000000	32.659382
2360.000000	30.549726
2350.000000	33.202742
2340.000000	32.675054
2330.000000	30.473718
2320.000000	30.782627
2310.000000	31.110744
2300.000000	29.263017
2290.000000	28.476553
2280.000000	28.376701
2270.000000	30.460866
2260.000000	30.129000
2250.000000	29.256090
2240.000000	31.028588
2230.000000	33.824237
2220.000000	35.557798
2210.000000	34.345584
2200.000000	32.285747
2190.000000	33.330373
2180.000000	32.120956
2170.000000	31.344638
2160.000000	32.051013
2150.000000	33.925970
2140.000000	34.537397
2130.000000	35.600460
2120.000000	36.214528
2110.000000	35.520804
2100.000000	37.024464
2090.000000	35.508813
2080.000000	35.123905
2070.000000	35.116148
2060.000000	34.301915
2050.000000	33.567974
2040.000000	33.337135
2030.000000	33.175361
2020.000000	33.556159
2010.000000	33.642172
2000.000000	33.328652
1990.000000	32.926193
1980.000000	32.043486
1970.000000	30.888569
1960.000000	30.610904
1950.000000	29.576627
1940.000000	29.404082
1930.000000	29.721201
1920.000000	31.763220
1910.000000	33.315005
1900.000000	37.247704
1890.000000	41.616465
1880.000000	44.748334
1870.000000	47.011680
1860.000000	48.623009
1850.000000	49.117844
1840.000000	48.648820
1830.000000	48.628537
1820.000000	48.116536
1810.000000	48.064351
1800.000000	47.691653
1790.000000	47.308994
1780.000000	47.276621
1770.000000	46.647838
1760.000000	46.417528
1750.000000	45.893483
1740.000000	45.586843
1730.000000	45.396948
1720.000000	45.765046
1710.000000	46.522450
1700.000000	46.988965
1690.000000	47.398376
1680.000000	48.352806
1670.000000	49.525211
1660.000000	50.580928
1650.000000	51.002219
1640.000000	50.865991
1630.000000	50.670443
1620.000000	50.320988
1610.000000	49.676711
1600.000000	49.024480
1590.000000	48.620327
1580.000000	48.347531
1570.000000	47.872080
1560.000000	47.659583
1550.000000	47.293022
1540.000000	46.666966
1530.000000	46.204271
1520.000000	45.685145
1510.000000	45.304791
1500.000000	45.190314
1490.000000	45.131643
1480.000000	45.469045
1470.000000	45.768301
1460.000000	46.214230
1450.000000	46.740165
1440.000000	47.467573
1430.000000	48.047157
1420.000000	48.833004
1410.000000	50.141072
1400.000000	52.459175
1390.000000	54.969205
1380.000000	56.441160
1370.000000	57.109583
1360.000000	57.174490
1350.000000	57.058710
1340.000000	57.141016
1330.000000	57.578531
1320.000000	58.867774
1310.000000	59.820202
1300.000000	60.230968
1290.000000	60.398219
1280.000000	60.081061
1270.000000	59.754284
1260.000000	59.601835
1250.000000	59.651136
1240.000000	59.655465
1230.000000	59.384808
1220.000000	59.116273
1210.000000	58.827028
1200.000000	58.551361
1190.000000	58.602581
1180.000000	58.681233
1170.000000	59.324827
1160.000000	59.957999
1150.000000	60.542616
1140.000000	60.949649
1130.000000	61.468746
1120.000000	61.564945
1110.000000	61.515235
1100.000000	61.324026
1090.000000	61.379518
1080.000000	61.443637
1070.000000	61.374299
1060.000000	61.393186
1050.000000	61.432790
1040.000000	61.289792
1030.000000	61.443180
1020.000000	61.572371
1010.000000	61.774199
1000.000000	62.282506
990.000000	62.402351
980.000000	62.331894
970.000000	62.380639
960.000000	62.551885
950.000000	62.651817
940.000000	62.711471
930.000000	62.604671
920.000000	62.433202
910.000000	62.416386
900.000000	62.404256
890.000000	62.487475
880.000000	62.629279
870.000000	62.961563
860.000000	62.387438
850.000000	61.747638
840.000000	62.406350
830.000000	62.341643
820.000000	62.376722
810.000000	62.376898
800.000000	62.423125
790.000000	62.369410
780.000000	62.393314
770.000000	62.404937
760.000000	62.336150
750.000000	62.431088
740.000000	62.329373
730.000000	62.302483
720.000000	62.297523
710.000000	62.234398
700.000000	62.217095
690.000000	62.166102
680.000000	62.098871
670.000000	61.913789
660.000000	61.757534
650.000000	61.655149
640.000000	61.553208
630.000000	61.447755
620.000000	61.330120
610.000000	61.050901
600.000000	60.806561
590.000000	60.607755
580.000000	60.443005
570.000000	60.184050
560.000000	59.846162
550.000000	59.637697
540.000000	59.262693
530.000000	58.877270
520.000000	58.491516
510.000000	58.036179
500.000000	57.493055
490.000000	56.800855
480.000000	56.107845
470.000000	55.380792
460.000000	54.505668
450.000000	53.487289
440.000000	52.292593
430.000000	50.924092
420.000000	49.309611
410.000000	47.704048
400.000000	46.195289
390.000000	44.871189
380.000000	43.319070
370.000000	41.732919
360.000000	39.852888
350.000000	38.398536
340.000000	36.726139
330.000000	34.938585
320.000000	33.576092
310.000000	31.128620
300.000000	28.644981
290.000000	24.155255
280.000000	20.492136
270.000000	19.416332
260.000000	18.914801
250.000000	17.405504
