PE UV       SUBTECH     SPECTRUM    ASCII       PEDS        4.00        
   -1
3G-N10-C015.Sample.Raw.asc
22/04/20
11:27:10.00
22/04/20
11:27:10.00
Administrator

250.000000
1
Lambda 750
750N8071901
PerkinElmer UV WinLab 6.0.4.0738 / 1.61.00 Lambda 900

0
0
3350/servo 860.8/2
0
0
UV/VIS
1
1
1
CommonBeamDepol,150mm sphere / downward view
0
0
0
0
Program
Program
3350/servo 860.8/2
3350/0.2 860.8/0.2
3350/0.2 860.8/0.2
0
1
 
 
 
0
 
860.8
319.2
860.8
Front
100
on
 
 
0
0
0
 
0
 
 
 
0
 
 
0
0
0
0
0
 
 
 
 
0
0


0
0
#HDR
-1
-1
#GR
nm
%R
1.0
0.0
2500.000000
-10.000000
226
8
65.514554
18.574344
#DATA
2500.000000	28.064839
2490.000000	27.475644
2480.000000	27.823028
2470.000000	23.582342
2460.000000	29.782338
2450.000000	32.004174
2440.000000	27.520997
2430.000000	29.120844
2420.000000	29.727510
2410.000000	35.796408
2400.000000	33.057114
2390.000000	30.543350
2380.000000	32.695971
2370.000000	33.251772
2360.000000	31.142192
2350.000000	32.255475
2340.000000	32.653125
2330.000000	32.369709
2320.000000	32.502934
2310.000000	31.151359
2300.000000	31.299036
2290.000000	31.407992
2280.000000	31.303730
2270.000000	32.755227
2260.000000	31.256239
2250.000000	32.286696
2240.000000	32.825175
2230.000000	34.402199
2220.000000	37.328636
2210.000000	34.666109
2200.000000	34.350264
2190.000000	33.898800
2180.000000	32.667945
2170.000000	33.292577
2160.000000	34.729624
2150.000000	35.076682
2140.000000	36.113706
2130.000000	35.439007
2120.000000	37.144329
2110.000000	37.891423
2100.000000	36.005402
2090.000000	37.204436
2080.000000	37.637252
2070.000000	36.005886
2060.000000	35.575346
2050.000000	35.397412
2040.000000	34.127195
2030.000000	34.706084
2020.000000	35.783569
2010.000000	35.233665
2000.000000	34.439331
1990.000000	33.816665
1980.000000	33.198409
1970.000000	32.091178
1960.000000	31.719094
1950.000000	30.748160
1940.000000	30.431234
1930.000000	31.789583
1920.000000	32.881341
1910.000000	35.387763
1900.000000	39.538225
1890.000000	42.981696
1880.000000	46.297248
1870.000000	48.443157
1860.000000	50.140861
1850.000000	50.685272
1840.000000	50.313326
1830.000000	50.318597
1820.000000	49.969699
1810.000000	49.750032
1800.000000	49.458966
1790.000000	49.033667
1780.000000	48.727972
1770.000000	48.289017
1760.000000	47.869585
1750.000000	47.694405
1740.000000	47.247532
1730.000000	46.975082
1720.000000	47.288767
1710.000000	48.104349
1700.000000	48.559158
1690.000000	49.071055
1680.000000	50.225128
1670.000000	51.504677
1660.000000	52.572865
1650.000000	52.875470
1640.000000	52.656369
1630.000000	52.414621
1620.000000	52.103255
1610.000000	51.497660
1600.000000	50.972945
1590.000000	50.551676
1580.000000	50.040949
1570.000000	49.702722
1560.000000	49.460498
1550.000000	49.057380
1540.000000	48.502141
1530.000000	48.062329
1520.000000	47.516099
1510.000000	47.155988
1500.000000	46.886713
1490.000000	46.935000
1480.000000	47.271780
1470.000000	47.636343
1460.000000	48.089596
1450.000000	48.671752
1440.000000	49.415099
1430.000000	49.996137
1420.000000	50.685860
1410.000000	52.010201
1400.000000	54.300175
1390.000000	57.036743
1380.000000	58.580101
1370.000000	59.094876
1360.000000	59.200026
1350.000000	59.207348
1340.000000	59.306425
1330.000000	59.749628
1320.000000	60.969411
1310.000000	61.948744
1300.000000	62.418128
1290.000000	62.494449
1280.000000	61.877195
1270.000000	61.621280
1260.000000	61.799551
1250.000000	61.810028
1240.000000	61.701794
1230.000000	61.450208
1220.000000	61.265967
1210.000000	60.949007
1200.000000	60.675919
1190.000000	60.644632
1180.000000	60.832358
1170.000000	61.351767
1160.000000	61.984363
1150.000000	62.573069
1140.000000	62.975953
1130.000000	63.240150
1120.000000	63.436019
1110.000000	63.585894
1100.000000	63.682864
1090.000000	63.636014
1080.000000	63.629458
1070.000000	63.574707
1060.000000	63.595364
1050.000000	63.678511
1040.000000	63.399152
1030.000000	63.508025
1020.000000	63.730576
1010.000000	64.017798
1000.000000	64.598273
990.000000	64.683530
980.000000	64.554435
970.000000	64.645701
960.000000	64.756387
950.000000	64.705955
940.000000	64.603166
930.000000	64.647849
920.000000	64.636777
910.000000	64.867060
900.000000	65.218090
890.000000	65.067206
880.000000	65.259029
870.000000	65.514554
860.000000	64.759800
850.000000	64.068873
840.000000	64.392282
830.000000	64.198727
820.000000	63.918421
810.000000	64.096236
800.000000	64.197059
790.000000	64.081312
780.000000	64.010386
770.000000	64.050320
760.000000	64.030337
750.000000	64.081968
740.000000	63.960896
730.000000	63.935129
720.000000	63.946999
710.000000	63.915080
700.000000	63.924567
690.000000	63.736237
680.000000	63.522124
670.000000	63.407127
660.000000	63.299156
650.000000	63.173914
640.000000	62.955614
630.000000	62.879144
620.000000	62.640105
610.000000	62.280200
600.000000	62.022667
590.000000	61.810744
580.000000	61.575427
570.000000	61.307652
560.000000	60.950467
550.000000	60.645310
540.000000	60.302657
530.000000	59.852301
520.000000	59.436261
510.000000	58.908361
500.000000	58.266912
490.000000	57.676320
480.000000	57.036433
470.000000	56.301709
460.000000	55.417342
450.000000	54.405513
440.000000	53.223416
430.000000	51.901503
420.000000	50.369830
410.000000	48.721096
400.000000	47.434541
390.000000	46.276235
380.000000	44.824192
370.000000	43.221516
360.000000	41.650657
350.000000	40.498932
340.000000	38.804090
330.000000	37.075566
320.000000	35.768739
310.000000	33.163617
300.000000	30.110529
290.000000	25.348962
280.000000	21.617833
270.000000	20.649333
260.000000	20.183288
250.000000	18.574344
