PE UV       SUBTECH     SPECTRUM    ASCII       PEDS        4.00        
   -1
3G-N10-C027.Sample.Raw.asc
22/04/20
12:02:21.00
22/04/20
12:02:21.00
Administrator

250.000000
1
Lambda 750
750N8071901
PerkinElmer UV WinLab 6.0.4.0738 / 1.61.00 Lambda 900

0
0
3350/servo 860.8/2
0
0
UV/VIS
1
1
1
CommonBeamDepol,150mm sphere / downward view
0
0
0
0
Program
Program
3350/servo 860.8/2
3350/0.2 860.8/0.2
3350/0.2 860.8/0.2
0
1
 
 
 
0
 
860.8
319.2
860.8
Front
100
on
 
 
0
0
0
 
0
 
 
 
0
 
 
0
0
0
0
0
 
 
 
 
0
0


0
0
#HDR
-1
-1
#GR
nm
%R
1.0
0.0
2500.000000
-10.000000
226
8
63.330796
16.821085
#DATA
2500.000000	22.159500
2490.000000	31.025728
2480.000000	21.432870
2470.000000	26.721659
2460.000000	25.727575
2450.000000	26.468670
2440.000000	25.989936
2430.000000	24.937194
2420.000000	29.343038
2410.000000	32.472941
2400.000000	35.150904
2390.000000	29.978698
2380.000000	32.139444
2370.000000	30.014230
2360.000000	27.083227
2350.000000	28.786199
2340.000000	30.268533
2330.000000	32.519376
2320.000000	32.416169
2310.000000	31.264953
2300.000000	28.413222
2290.000000	28.863798
2280.000000	30.271339
2270.000000	32.405746
2260.000000	31.303286
2250.000000	32.433479
2240.000000	32.614528
2230.000000	34.786466
2220.000000	35.398580
2210.000000	33.042580
2200.000000	34.024254
2190.000000	33.908316
2180.000000	32.989704
2170.000000	30.935358
2160.000000	32.201911
2150.000000	33.318491
2140.000000	34.955937
2130.000000	34.542750
2120.000000	37.357382
2110.000000	36.159824
2100.000000	36.741252
2090.000000	36.266849
2080.000000	36.609751
2070.000000	35.154968
2060.000000	34.851906
2050.000000	34.618160
2040.000000	33.625409
2030.000000	33.706933
2020.000000	34.551561
2010.000000	34.588413
2000.000000	33.697602
1990.000000	33.137382
1980.000000	32.450840
1970.000000	31.544007
1960.000000	30.569257
1950.000000	29.657693
1940.000000	29.355761
1930.000000	30.723186
1920.000000	32.528722
1910.000000	33.536858
1900.000000	38.073659
1890.000000	41.754399
1880.000000	45.407842
1870.000000	48.216730
1860.000000	49.189010
1850.000000	49.592532
1840.000000	49.222087
1830.000000	49.140966
1820.000000	48.902455
1810.000000	48.764261
1800.000000	48.222040
1790.000000	47.980777
1780.000000	48.009392
1770.000000	47.237788
1760.000000	46.827248
1750.000000	46.544839
1740.000000	46.140621
1730.000000	46.068508
1720.000000	46.455482
1710.000000	47.108932
1700.000000	47.748384
1690.000000	48.049184
1680.000000	48.950793
1670.000000	50.388698
1660.000000	51.365358
1650.000000	51.775827
1640.000000	51.668774
1630.000000	51.372995
1620.000000	51.021324
1610.000000	50.385571
1600.000000	49.667531
1590.000000	49.193606
1580.000000	48.899536
1570.000000	48.550286
1560.000000	48.259244
1550.000000	47.933438
1540.000000	47.392306
1530.000000	46.758992
1520.000000	46.363157
1510.000000	45.972457
1500.000000	45.827913
1490.000000	45.740066
1480.000000	45.978416
1470.000000	46.395053
1460.000000	46.812136
1450.000000	47.367304
1440.000000	48.192593
1430.000000	48.779875
1420.000000	49.429741
1410.000000	50.729251
1400.000000	53.049016
1390.000000	55.712647
1380.000000	57.273042
1370.000000	57.792949
1360.000000	57.952706
1350.000000	57.891187
1340.000000	57.765504
1330.000000	57.957571
1320.000000	59.119996
1310.000000	60.368541
1300.000000	61.077548
1290.000000	61.274587
1280.000000	60.996750
1270.000000	60.650938
1260.000000	60.604405
1250.000000	60.410529
1240.000000	60.066558
1230.000000	60.014455
1220.000000	59.912768
1210.000000	59.584785
1200.000000	59.318509
1190.000000	59.486298
1180.000000	59.795812
1170.000000	60.072003
1160.000000	60.767640
1150.000000	61.333634
1140.000000	61.618206
1130.000000	61.979827
1120.000000	62.102565
1110.000000	62.243492
1100.000000	62.332942
1090.000000	62.323621
1080.000000	62.100532
1070.000000	61.997068
1060.000000	62.032467
1050.000000	62.043123
1040.000000	61.922663
1030.000000	62.074825
1020.000000	62.285484
1010.000000	62.753110
1000.000000	63.307221
990.000000	63.330796
980.000000	63.173511
970.000000	63.171830
960.000000	63.257894
950.000000	63.267689
940.000000	63.113777
930.000000	63.158856
920.000000	63.043926
910.000000	63.082291
900.000000	63.208294
890.000000	63.140264
880.000000	63.202346
870.000000	63.072082
860.000000	62.805752
850.000000	62.268932
840.000000	62.575902
830.000000	62.447895
820.000000	62.335338
810.000000	62.440642
800.000000	62.396104
790.000000	62.358202
780.000000	62.201087
770.000000	62.243671
760.000000	62.252545
750.000000	62.288916
740.000000	62.268010
730.000000	62.146160
720.000000	62.085058
710.000000	62.122757
700.000000	62.161702
690.000000	62.217342
680.000000	62.027464
670.000000	61.911960
660.000000	61.731932
650.000000	61.555118
640.000000	61.468954
630.000000	61.310356
620.000000	61.108637
610.000000	60.811617
600.000000	60.535233
590.000000	60.354879
580.000000	60.206072
570.000000	59.904819
560.000000	59.609395
550.000000	59.335474
540.000000	59.039452
530.000000	58.641960
520.000000	58.234819
510.000000	57.752767
500.000000	57.230922
490.000000	56.547970
480.000000	55.866115
470.000000	55.166986
460.000000	54.293622
450.000000	53.246554
440.000000	52.110820
430.000000	50.701067
420.000000	49.135036
410.000000	47.476214
400.000000	45.957532
390.000000	44.602782
380.000000	43.217048
370.000000	41.608919
360.000000	40.047353
350.000000	39.159489
340.000000	37.450141
330.000000	35.265599
320.000000	33.831882
310.000000	31.367000
300.000000	28.474860
290.000000	23.651868
280.000000	19.844461
270.000000	18.916479
260.000000	18.420251
250.000000	16.821085
