PE UV       SUBTECH     SPECTRUM    ASCII       PEDS        4.00        
   -1
3G-N10-C022.Sample.Raw.asc
22/04/20
11:48:11.00
22/04/20
11:48:11.00
Administrator

250.000000
1
Lambda 750
750N8071901
PerkinElmer UV WinLab 6.0.4.0738 / 1.61.00 Lambda 900

0
0
3350/servo 860.8/2
0
0
UV/VIS
1
1
1
CommonBeamDepol,150mm sphere / downward view
0
0
0
0
Program
Program
3350/servo 860.8/2
3350/0.2 860.8/0.2
3350/0.2 860.8/0.2
0
1
 
 
 
0
 
860.8
319.2
860.8
Front
100
on
 
 
0
0
0
 
0
 
 
 
0
 
 
0
0
0
0
0
 
 
 
 
0
0


0
0
#HDR
-1
-1
#GR
nm
%R
1.0
0.0
2500.000000
-10.000000
226
8
65.621583
19.355544
#DATA
2500.000000	25.558712
2490.000000	25.042516
2480.000000	26.966334
2470.000000	27.184667
2460.000000	29.867791
2450.000000	30.340603
2440.000000	26.794173
2430.000000	31.272911
2420.000000	26.899963
2410.000000	31.457312
2400.000000	31.352940
2390.000000	31.979143
2380.000000	29.854172
2370.000000	31.469450
2360.000000	29.113349
2350.000000	35.064786
2340.000000	33.734525
2330.000000	32.089005
2320.000000	29.635340
2310.000000	32.430717
2300.000000	30.435035
2290.000000	30.468939
2280.000000	29.082233
2270.000000	32.395156
2260.000000	31.647244
2250.000000	31.625859
2240.000000	32.450619
2230.000000	36.271674
2220.000000	36.766356
2210.000000	34.537519
2200.000000	34.513903
2190.000000	33.898165
2180.000000	33.639530
2170.000000	31.287364
2160.000000	32.289776
2150.000000	34.032200
2140.000000	34.957830
2130.000000	36.951837
2120.000000	36.568132
2110.000000	37.761475
2100.000000	38.134804
2090.000000	36.770098
2080.000000	36.986879
2070.000000	36.928182
2060.000000	35.840250
2050.000000	34.904287
2040.000000	34.328037
2030.000000	33.619499
2020.000000	34.798344
2010.000000	35.472930
2000.000000	34.589975
1990.000000	34.432204
1980.000000	33.075106
1970.000000	31.916135
1960.000000	31.516066
1950.000000	30.034257
1940.000000	30.048582
1930.000000	30.843554
1920.000000	32.385111
1910.000000	34.616073
1900.000000	38.429357
1890.000000	42.530682
1880.000000	45.917725
1870.000000	48.956135
1860.000000	50.046315
1850.000000	50.250725
1840.000000	50.359086
1830.000000	50.288679
1820.000000	49.925044
1810.000000	49.606461
1800.000000	49.498326
1790.000000	49.167377
1780.000000	48.695719
1770.000000	48.240766
1760.000000	48.040946
1750.000000	47.632371
1740.000000	47.045983
1730.000000	47.078746
1720.000000	47.382069
1710.000000	48.052431
1700.000000	48.587404
1690.000000	49.003531
1680.000000	50.112725
1670.000000	51.502750
1660.000000	52.313103
1650.000000	52.818880
1640.000000	52.705139
1630.000000	52.464070
1620.000000	52.103255
1610.000000	51.437946
1600.000000	50.945910
1590.000000	50.388527
1580.000000	50.053201
1570.000000	49.607490
1560.000000	49.289350
1550.000000	49.099817
1540.000000	48.604202
1530.000000	47.885127
1520.000000	47.340008
1510.000000	46.903201
1500.000000	46.665808
1490.000000	46.727466
1480.000000	47.008091
1470.000000	47.455067
1460.000000	47.941727
1450.000000	48.447269
1440.000000	49.231274
1430.000000	49.922092
1420.000000	50.765942
1410.000000	52.187752
1400.000000	54.503014
1390.000000	57.090578
1380.000000	58.712024
1370.000000	59.366939
1360.000000	59.501456
1350.000000	59.481629
1340.000000	59.458519
1330.000000	60.033907
1320.000000	61.475145
1310.000000	62.498380
1300.000000	62.914084
1290.000000	62.904553
1280.000000	62.369304
1270.000000	62.225787
1260.000000	62.312872
1250.000000	62.330848
1240.000000	62.266232
1230.000000	61.976325
1220.000000	61.671668
1210.000000	61.445557
1200.000000	61.071156
1190.000000	60.953087
1180.000000	61.260892
1170.000000	61.832002
1160.000000	62.447015
1150.000000	63.044713
1140.000000	63.237702
1130.000000	63.728702
1120.000000	64.147708
1110.000000	64.192347
1100.000000	64.284112
1090.000000	64.268832
1080.000000	64.061004
1070.000000	64.002422
1060.000000	64.052720
1050.000000	64.055762
1040.000000	63.888361
1030.000000	64.043659
1020.000000	64.053175
1010.000000	64.224611
1000.000000	64.830225
990.000000	64.934984
980.000000	64.760329
970.000000	65.002852
960.000000	65.152938
950.000000	65.156488
940.000000	65.284885
930.000000	65.017509
920.000000	64.826416
910.000000	65.313402
900.000000	65.207377
890.000000	65.024517
880.000000	65.382713
870.000000	65.621583
860.000000	65.433591
850.000000	64.980126
840.000000	64.743706
830.000000	64.611478
820.000000	64.636520
810.000000	64.793913
800.000000	64.740400
790.000000	64.576832
780.000000	64.492432
770.000000	64.660272
760.000000	64.509868
750.000000	64.621863
740.000000	64.557076
730.000000	64.591808
720.000000	64.520230
710.000000	64.578859
700.000000	64.518073
690.000000	64.443834
680.000000	64.386939
670.000000	64.209872
660.000000	64.144641
650.000000	64.016249
640.000000	63.935527
630.000000	63.828722
620.000000	63.645017
610.000000	63.322577
600.000000	63.080601
590.000000	62.969965
580.000000	62.733972
570.000000	62.417293
560.000000	62.201082
550.000000	61.965485
540.000000	61.603679
530.000000	61.230985
520.000000	60.804276
510.000000	60.342352
500.000000	59.807727
490.000000	59.111611
480.000000	58.441061
470.000000	57.777282
460.000000	56.901664
450.000000	55.786217
440.000000	54.614770
430.000000	53.371276
420.000000	51.824818
410.000000	50.099639
400.000000	48.691427
390.000000	47.437109
380.000000	45.942232
370.000000	44.202838
360.000000	42.489028
350.000000	41.535636
340.000000	39.966442
330.000000	37.819607
320.000000	35.940755
310.000000	33.913270
300.000000	30.854561
290.000000	26.394006
280.000000	22.564212
270.000000	21.550684
260.000000	21.169577
250.000000	19.355544
