PE UV       SUBTECH     SPECTRUM    ASCII       PEDS        4.00        
   -1
3G-N10-C013.Sample.Raw.asc
22/04/20
11:20:49.00
22/04/20
11:20:49.00
Administrator

250.000000
1
Lambda 750
750N8071901
PerkinElmer UV WinLab 6.0.4.0738 / 1.61.00 Lambda 900

0
0
3350/servo 860.8/2
0
0
UV/VIS
1
1
1
CommonBeamDepol,150mm sphere / downward view
0
0
0
0
Program
Program
3350/servo 860.8/2
3350/0.2 860.8/0.2
3350/0.2 860.8/0.2
0
1
 
 
 
0
 
860.8
319.2
860.8
Front
100
on
 
 
0
0
0
 
0
 
 
 
0
 
 
0
0
0
0
0
 
 
 
 
0
0


0
0
#HDR
-1
-1
#GR
nm
%R
1.0
0.0
2500.000000
-10.000000
226
8
65.565293
19.288584
#DATA
2500.000000	29.987564
2490.000000	23.607298
2480.000000	24.787687
2470.000000	26.806341
2460.000000	31.008594
2450.000000	29.598271
2440.000000	28.191297
2430.000000	26.309954
2420.000000	32.202314
2410.000000	35.955100
2400.000000	33.075728
2390.000000	32.008393
2380.000000	30.867753
2370.000000	33.817119
2360.000000	31.906127
2350.000000	31.036833
2340.000000	31.723347
2330.000000	34.719669
2320.000000	33.726374
2310.000000	29.796483
2300.000000	31.696166
2290.000000	28.467411
2280.000000	28.111887
2270.000000	32.995689
2260.000000	30.798477
2250.000000	32.810119
2240.000000	33.500016
2230.000000	34.763973
2220.000000	33.452225
2210.000000	34.033928
2200.000000	35.366349
2190.000000	33.135610
2180.000000	33.430071
2170.000000	31.847228
2160.000000	31.276781
2150.000000	33.751678
2140.000000	36.154740
2130.000000	37.574768
2120.000000	38.837940
2110.000000	36.215336
2100.000000	36.793768
2090.000000	36.820676
2080.000000	38.124559
2070.000000	36.752238
2060.000000	36.166334
2050.000000	35.172689
2040.000000	33.437239
2030.000000	34.107353
2020.000000	35.351062
2010.000000	35.457658
2000.000000	35.221912
1990.000000	33.947370
1980.000000	32.955030
1970.000000	31.934288
1960.000000	31.648815
1950.000000	31.185523
1940.000000	30.600358
1930.000000	31.125931
1920.000000	31.986972
1910.000000	34.828336
1900.000000	39.276831
1890.000000	42.784739
1880.000000	46.581087
1870.000000	48.738663
1860.000000	49.938992
1850.000000	50.641307
1840.000000	50.541489
1830.000000	50.258124
1820.000000	50.094731
1810.000000	49.530829
1800.000000	49.136991
1790.000000	48.936129
1780.000000	48.893748
1770.000000	48.346275
1760.000000	47.940449
1750.000000	47.437223
1740.000000	46.884357
1730.000000	47.088404
1720.000000	47.498536
1710.000000	48.205621
1700.000000	48.571355
1690.000000	48.958514
1680.000000	50.019590
1670.000000	51.557360
1660.000000	52.522070
1650.000000	52.901193
1640.000000	52.821289
1630.000000	52.457648
1620.000000	51.974347
1610.000000	51.509859
1600.000000	50.902139
1590.000000	50.388527
1580.000000	50.022893
1570.000000	49.688566
1560.000000	49.440552
1550.000000	49.065739
1540.000000	48.521398
1530.000000	47.978864
1520.000000	47.443478
1510.000000	46.971383
1500.000000	46.762414
1490.000000	46.862170
1480.000000	47.201677
1470.000000	47.554704
1460.000000	48.031734
1450.000000	48.583631
1440.000000	49.382962
1430.000000	49.975533
1420.000000	50.862169
1410.000000	52.211641
1400.000000	54.474681
1390.000000	57.019438
1380.000000	58.617245
1370.000000	59.305982
1360.000000	59.454097
1350.000000	59.465570
1340.000000	59.499765
1330.000000	60.082254
1320.000000	61.433216
1310.000000	62.378471
1300.000000	62.731604
1290.000000	62.611995
1280.000000	62.061899
1270.000000	62.029502
1260.000000	62.174295
1250.000000	62.169843
1240.000000	62.210767
1230.000000	61.900793
1220.000000	61.524553
1210.000000	61.283273
1200.000000	60.970727
1190.000000	60.825541
1180.000000	61.072311
1170.000000	61.658135
1160.000000	62.343629
1150.000000	62.804052
1140.000000	62.990136
1130.000000	63.596748
1120.000000	63.892707
1110.000000	63.912840
1100.000000	64.048228
1090.000000	64.160587
1080.000000	64.060365
1070.000000	63.855176
1060.000000	63.807821
1050.000000	63.863961
1040.000000	63.672552
1030.000000	63.830164
1020.000000	64.046887
1010.000000	64.338044
1000.000000	64.795839
990.000000	64.770884
980.000000	64.724873
970.000000	64.978050
960.000000	65.052256
950.000000	64.922924
940.000000	65.053162
930.000000	64.998021
920.000000	64.950621
910.000000	65.158807
900.000000	65.190118
890.000000	65.283616
880.000000	65.565293
870.000000	65.450569
860.000000	65.252340
850.000000	64.984176
840.000000	64.835816
830.000000	64.564773
820.000000	64.508871
810.000000	64.728415
800.000000	64.629970
790.000000	64.822822
780.000000	64.789349
770.000000	64.789998
760.000000	64.580335
750.000000	64.691450
740.000000	64.589562
730.000000	64.545334
720.000000	64.501465
710.000000	64.473892
700.000000	64.427982
690.000000	64.417605
680.000000	64.296002
670.000000	64.233643
660.000000	64.253755
650.000000	64.142508
640.000000	63.927590
630.000000	63.869636
620.000000	63.727386
610.000000	63.402338
600.000000	63.193756
590.000000	63.013124
580.000000	62.803230
570.000000	62.511989
560.000000	62.253292
550.000000	61.916229
540.000000	61.487789
530.000000	61.090290
520.000000	60.724719
510.000000	60.220710
500.000000	59.639661
490.000000	59.009090
480.000000	58.348326
470.000000	57.684323
460.000000	56.819064
450.000000	55.780092
440.000000	54.592201
430.000000	53.256107
420.000000	51.674574
410.000000	50.021872
400.000000	48.640957
390.000000	47.348044
380.000000	45.780197
370.000000	44.065192
360.000000	42.543666
350.000000	41.782052
340.000000	39.828840
330.000000	37.780867
320.000000	36.550072
310.000000	34.610892
300.000000	31.518035
290.000000	26.592222
280.000000	22.577262
270.000000	21.634784
260.000000	21.096449
250.000000	19.288584
