PE UV       SUBTECH     SPECTRUM    ASCII       PEDS        4.00        
   -1
3G-N10-C007.Sample.Raw.asc
22/03/09
16:26:00.00
22/03/09
16:26:00.00
Administrator

250.000000
1
Lambda 750
750N8071901
PerkinElmer UV WinLab 6.0.4.0738 / 1.61.00 Lambda 900

0
0
3350/servo 860.8/2
0
0
UV/VIS
1
1
1
CommonBeamDepol,150mm sphere / downward view
0
0
0
0
Program
Program
3350/servo 860.8/2
3350/0.2 860.8/0.2
3350/0.2 860.8/0.2
0
1
 
 
 
0
 
860.8
319.2
860.8
Front
100
on
 
 
0
0
0
 
0
 
 
 
0
 
 
0
0
0
0
0
 
 
 
 
0
0


0
0
#HDR
-1
-1
#GR
nm
%R
1.0
0.0
2500.000000
-10.000000
226
8
64.889090
18.620979
#DATA
2500.000000	23.708235
2490.000000	26.282007
2480.000000	30.374027
2470.000000	33.193551
2460.000000	21.014251
2450.000000	31.538419
2440.000000	32.529078
2430.000000	30.413430
2420.000000	28.932575
2410.000000	30.053149
2400.000000	27.551935
2390.000000	34.298514
2380.000000	33.252893
2370.000000	35.489148
2360.000000	30.488923
2350.000000	33.386618
2340.000000	33.183918
2330.000000	33.975278
2320.000000	29.320505
2310.000000	31.078986
2300.000000	31.199761
2290.000000	32.039081
2280.000000	32.234373
2270.000000	29.479896
2260.000000	29.356219
2250.000000	31.334176
2240.000000	33.675086
2230.000000	33.609172
2220.000000	34.278269
2210.000000	35.061964
2200.000000	34.796342
2190.000000	33.674340
2180.000000	35.467578
2170.000000	32.793371
2160.000000	32.577268
2150.000000	35.601391
2140.000000	37.083815
2130.000000	37.192555
2120.000000	38.388038
2110.000000	36.733014
2100.000000	37.459105
2090.000000	37.631871
2080.000000	37.839453
2070.000000	37.167555
2060.000000	36.892225
2050.000000	34.755443
2040.000000	33.667233
2030.000000	34.256230
2020.000000	35.154060
2010.000000	35.022623
2000.000000	35.272347
1990.000000	33.718516
1980.000000	32.822405
1970.000000	32.883192
1960.000000	32.292647
1950.000000	30.793687
1940.000000	30.713483
1930.000000	31.588673
1920.000000	32.262551
1910.000000	35.127722
1900.000000	38.403635
1890.000000	43.234940
1880.000000	46.833322
1870.000000	48.087514
1860.000000	49.593443
1850.000000	50.365403
1840.000000	50.943519
1830.000000	50.554576
1820.000000	50.530264
1810.000000	49.744088
1800.000000	49.475808
1790.000000	49.100133
1780.000000	48.723637
1770.000000	48.416967
1760.000000	48.224596
1750.000000	47.464503
1740.000000	46.821684
1730.000000	47.032324
1720.000000	47.644447
1710.000000	48.289929
1700.000000	48.779622
1690.000000	49.065854
1680.000000	49.999343
1670.000000	51.757113
1660.000000	52.636154
1650.000000	52.834691
1640.000000	52.817387
1630.000000	52.608342
1620.000000	52.138987
1610.000000	51.544820
1600.000000	51.020019
1590.000000	50.590239
1580.000000	50.114011
1570.000000	49.812325
1560.000000	49.444613
1550.000000	49.178550
1540.000000	48.583294
1530.000000	48.040714
1520.000000	47.537096
1510.000000	47.200053
1500.000000	47.018910
1490.000000	47.078239
1480.000000	47.369325
1470.000000	47.688811
1460.000000	48.180982
1450.000000	48.656077
1440.000000	49.318921
1430.000000	49.617455
1420.000000	49.958519
1410.000000	51.267441
1400.000000	53.669157
1390.000000	56.508007
1380.000000	58.360968
1370.000000	58.854143
1360.000000	58.694343
1350.000000	58.667042
1340.000000	59.247401
1330.000000	60.345635
1320.000000	61.305322
1310.000000	61.718537
1300.000000	61.920370
1290.000000	61.724820
1280.000000	61.688346
1270.000000	61.500108
1260.000000	61.531969
1250.000000	61.490773
1240.000000	61.169717
1230.000000	60.969680
1220.000000	61.096679
1210.000000	60.887967
1200.000000	60.496837
1190.000000	60.266540
1180.000000	60.473792
1170.000000	61.099837
1160.000000	61.908596
1150.000000	62.207824
1140.000000	62.724033
1130.000000	63.126302
1120.000000	63.314306
1110.000000	63.327792
1100.000000	63.439512
1090.000000	63.465050
1080.000000	63.535192
1070.000000	63.558608
1060.000000	63.470953
1050.000000	63.397309
1040.000000	63.245534
1030.000000	63.111541
1020.000000	63.073782
1010.000000	63.524700
1000.000000	64.203326
990.000000	64.595610
980.000000	64.465126
970.000000	64.573275
960.000000	64.669448
950.000000	64.547923
940.000000	64.688107
930.000000	64.571611
920.000000	64.351457
910.000000	64.342484
900.000000	64.628281
890.000000	64.818678
880.000000	64.688319
870.000000	64.558465
860.000000	64.889090
850.000000	64.647046
840.000000	64.397365
830.000000	64.416498
820.000000	64.479915
810.000000	64.435519
800.000000	64.373633
790.000000	64.315663
780.000000	64.399153
770.000000	64.548876
760.000000	64.326636
750.000000	64.290252
740.000000	64.376797
730.000000	64.311225
720.000000	64.164580
710.000000	64.046628
700.000000	63.921898
690.000000	63.830319
680.000000	63.764830
670.000000	63.729265
660.000000	63.637643
650.000000	63.586957
640.000000	63.440715
630.000000	63.279481
620.000000	63.084903
610.000000	62.783273
600.000000	62.609659
590.000000	62.427963
580.000000	62.102599
570.000000	61.848461
560.000000	61.585227
550.000000	61.104551
540.000000	60.693910
530.000000	60.300410
520.000000	59.869547
510.000000	59.337679
500.000000	58.813125
490.000000	58.282733
480.000000	57.477698
470.000000	56.702936
460.000000	55.904538
450.000000	54.792027
440.000000	53.580136
430.000000	52.291505
420.000000	50.793700
410.000000	49.362651
400.000000	47.863211
390.000000	46.465049
380.000000	45.079682
370.000000	43.492905
360.000000	41.760640
350.000000	40.144680
340.000000	38.471830
330.000000	36.807361
320.000000	35.338264
310.000000	33.654385
300.000000	31.009306
290.000000	26.138078
280.000000	21.967228
270.000000	20.959649
260.000000	20.566245
250.000000	18.620979
