PE UV       SUBTECH     SPECTRUM    ASCII       PEDS        4.00        
   -1
3S-N10-C026.Sample.Cycle1.Raw.asc
22/03/29
16:38:45.00
22/03/29
16:38:45.00
Administrator

250.000000
1
Lambda 750
750N8071901
PerkinElmer UV WinLab 6.0.4.0738 / 1.61.00 Lambda 900

0
0
3350/servo 860.8/2
0
0
UV/VIS
1
1
1
CommonBeamDepol,150mm sphere / downward view
0
0
0
0
Program
Program
3350/servo 860.8/2
3350/0.2 860.8/0.2
3350/0.2 860.8/0.2
0
1
 
 
 
0
 
860.8
319.2
860.8
Front
100
on
 
 
0
0
0
 
0
 
 
 
0
 
 
0
0
0
0
0
 
 
 
 
0
0


0
0
#HDR
-1
-1
#GR
nm
%R
1.0
0.0
2500.000000
-10.000000
226
8
52.765152
14.748131
#DATA
2500.000000	21.160922
2490.000000	21.605115
2480.000000	21.856774
2470.000000	21.609577
2460.000000	22.645060
2450.000000	22.641492
2440.000000	23.455093
2430.000000	26.055767
2420.000000	26.685669
2410.000000	25.607957
2400.000000	26.595848
2390.000000	26.481654
2380.000000	25.306852
2370.000000	24.952872
2360.000000	26.839527
2350.000000	26.396486
2340.000000	26.338166
2330.000000	27.040405
2320.000000	26.064682
2310.000000	25.505427
2300.000000	25.950048
2290.000000	24.847621
2280.000000	24.530405
2270.000000	25.389626
2260.000000	25.431206
2250.000000	26.485857
2240.000000	27.781838
2230.000000	28.584425
2220.000000	29.261020
2210.000000	28.679075
2200.000000	28.861470
2190.000000	27.711799
2180.000000	28.137438
2170.000000	27.317852
2160.000000	27.673954
2150.000000	28.897652
2140.000000	29.833118
2130.000000	29.969435
2120.000000	30.515657
2110.000000	30.967400
2100.000000	30.933040
2090.000000	31.061326
2080.000000	31.088997
2070.000000	30.541101
2060.000000	29.663630
2050.000000	28.584161
2040.000000	28.260215
2030.000000	28.446835
2020.000000	28.828457
2010.000000	28.910901
2000.000000	28.304901
1990.000000	27.921570
1980.000000	27.073442
1970.000000	26.206494
1960.000000	25.407426
1950.000000	24.898347
1940.000000	24.676579
1930.000000	25.287475
1920.000000	26.429178
1910.000000	28.259859
1900.000000	31.479394
1890.000000	34.770541
1880.000000	37.544438
1870.000000	39.602942
1860.000000	40.392225
1850.000000	40.871601
1840.000000	40.929854
1830.000000	40.879691
1820.000000	40.568675
1810.000000	40.316567
1800.000000	39.980485
1790.000000	39.773083
1780.000000	39.643884
1770.000000	39.357805
1760.000000	39.121174
1750.000000	38.864299
1740.000000	38.634017
1730.000000	38.399148
1720.000000	38.722296
1710.000000	39.334211
1700.000000	39.669949
1690.000000	40.002178
1680.000000	40.798245
1670.000000	41.850469
1660.000000	42.610230
1650.000000	42.834435
1640.000000	42.760766
1630.000000	42.570010
1620.000000	42.173702
1610.000000	41.817084
1600.000000	41.444226
1590.000000	41.081693
1580.000000	40.804464
1570.000000	40.491558
1560.000000	40.244661
1550.000000	39.915182
1540.000000	39.508503
1530.000000	38.920750
1520.000000	38.529996
1510.000000	38.383726
1500.000000	38.305113
1490.000000	38.285184
1480.000000	38.474748
1470.000000	38.714143
1460.000000	38.926496
1450.000000	39.326650
1440.000000	39.929187
1430.000000	40.707066
1420.000000	41.632457
1410.000000	42.790669
1400.000000	44.319307
1390.000000	45.868721
1380.000000	46.862050
1370.000000	47.386723
1360.000000	47.781316
1350.000000	47.894865
1340.000000	47.852807
1330.000000	47.804884
1320.000000	48.025407
1310.000000	48.414854
1300.000000	48.682638
1290.000000	48.814471
1280.000000	48.767069
1270.000000	48.669338
1260.000000	48.662038
1250.000000	48.678496
1240.000000	48.616404
1230.000000	48.461204
1220.000000	48.287905
1210.000000	48.009477
1200.000000	47.819692
1190.000000	47.903568
1180.000000	48.160246
1170.000000	48.558271
1160.000000	49.070092
1150.000000	49.471571
1140.000000	49.772852
1130.000000	50.042304
1120.000000	50.260211
1110.000000	50.365074
1100.000000	50.387208
1090.000000	50.379595
1080.000000	50.399624
1070.000000	50.418206
1060.000000	50.514522
1050.000000	50.592325
1040.000000	50.674970
1030.000000	50.750832
1020.000000	50.854056
1010.000000	51.174983
1000.000000	51.509407
990.000000	51.620094
980.000000	51.652613
970.000000	51.746050
960.000000	51.867688
950.000000	51.986627
940.000000	52.007015
930.000000	52.023610
920.000000	52.078666
910.000000	52.096839
900.000000	52.191682
890.000000	52.492349
880.000000	52.615578
870.000000	52.686224
860.000000	52.765152
850.000000	52.019768
840.000000	50.918425
830.000000	51.001987
820.000000	51.065214
810.000000	51.042275
800.000000	51.125819
790.000000	51.171314
780.000000	51.196609
770.000000	51.226748
760.000000	51.316246
750.000000	51.336750
740.000000	51.259655
730.000000	51.246532
720.000000	51.265001
710.000000	51.233348
700.000000	51.193373
690.000000	51.195197
680.000000	51.119910
670.000000	51.063624
660.000000	51.068162
650.000000	51.055145
640.000000	50.913331
630.000000	50.912107
620.000000	50.873855
610.000000	50.782765
600.000000	50.727199
590.000000	50.703484
580.000000	50.666230
570.000000	50.576466
560.000000	50.498609
550.000000	50.382097
540.000000	50.161321
530.000000	49.863164
520.000000	49.418354
510.000000	48.913342
500.000000	48.468974
490.000000	48.038488
480.000000	47.664249
470.000000	47.286763
460.000000	46.725205
450.000000	45.958645
440.000000	45.113978
430.000000	44.059332
420.000000	42.709528
410.000000	41.294884
400.000000	40.113079
390.000000	39.172863
380.000000	38.096705
370.000000	37.207879
360.000000	36.441735
350.000000	34.949506
340.000000	33.326729
330.000000	31.728701
320.000000	30.245984
310.000000	28.912885
300.000000	26.036962
290.000000	21.320260
280.000000	17.636316
270.000000	16.648167
260.000000	16.249988
250.000000	14.748131
