PE UV       SUBTECH     SPECTRUM    ASCII       PEDS        4.00        
   -1
3S-N10-C018.Sample.Cycle1.Raw.asc
22/03/29
16:15:08.00
22/03/29
16:15:08.00
Administrator

250.000000
1
Lambda 750
750N8071901
PerkinElmer UV WinLab 6.0.4.0738 / 1.61.00 Lambda 900

0
0
3350/servo 860.8/2
0
0
UV/VIS
1
1
1
CommonBeamDepol,150mm sphere / downward view
0
0
0
0
Program
Program
3350/servo 860.8/2
3350/0.2 860.8/0.2
3350/0.2 860.8/0.2
0
1
 
 
 
0
 
860.8
319.2
860.8
Front
100
on
 
 
0
0
0
 
0
 
 
 
0
 
 
0
0
0
0
0
 
 
 
 
0
0


0
0
#HDR
-1
-1
#GR
nm
%R
1.0
0.0
2500.000000
-10.000000
226
8
52.028101
14.325153
#DATA
2500.000000	21.994698
2490.000000	22.338837
2480.000000	23.296966
2470.000000	23.212312
2460.000000	22.841540
2450.000000	24.433194
2440.000000	24.591259
2430.000000	24.424316
2420.000000	25.633166
2410.000000	26.417944
2400.000000	27.566280
2390.000000	25.436233
2380.000000	25.198955
2370.000000	25.882995
2360.000000	25.696796
2350.000000	26.304902
2340.000000	25.336087
2330.000000	25.919281
2320.000000	26.041626
2310.000000	25.526210
2300.000000	24.902168
2290.000000	24.679041
2280.000000	25.007396
2270.000000	25.283489
2260.000000	25.579858
2250.000000	26.539830
2240.000000	27.379945
2230.000000	28.356300
2220.000000	28.986538
2210.000000	28.820087
2200.000000	28.217557
2190.000000	27.652061
2180.000000	27.679541
2170.000000	27.453102
2160.000000	27.924943
2150.000000	29.072414
2140.000000	29.551618
2130.000000	29.759259
2120.000000	30.626287
2110.000000	30.590619
2100.000000	30.823562
2090.000000	30.702069
2080.000000	31.001232
2070.000000	30.355156
2060.000000	29.506389
2050.000000	28.587856
2040.000000	28.237215
2030.000000	28.304958
2020.000000	28.851958
2010.000000	28.702307
2000.000000	28.271796
1990.000000	27.696312
1980.000000	26.896235
1970.000000	26.214636
1960.000000	25.470709
1950.000000	24.690945
1940.000000	24.526498
1930.000000	25.155550
1920.000000	26.456557
1910.000000	28.335288
1900.000000	31.468559
1890.000000	34.376209
1880.000000	37.280180
1870.000000	39.086578
1860.000000	40.027901
1850.000000	40.637527
1840.000000	40.604822
1830.000000	40.547338
1820.000000	40.130170
1810.000000	39.914629
1800.000000	39.660243
1790.000000	39.440771
1780.000000	39.310475
1770.000000	39.077399
1760.000000	38.772301
1750.000000	38.487901
1740.000000	38.163997
1730.000000	38.017154
1720.000000	38.351520
1710.000000	38.911815
1700.000000	39.286202
1690.000000	39.583560
1680.000000	40.382700
1670.000000	41.464617
1660.000000	42.178364
1650.000000	42.401605
1640.000000	42.292800
1630.000000	42.073714
1620.000000	41.690297
1610.000000	41.349806
1600.000000	41.006491
1590.000000	40.689210
1580.000000	40.398540
1570.000000	40.101591
1560.000000	39.852666
1550.000000	39.526761
1540.000000	38.993597
1530.000000	38.431820
1520.000000	38.071385
1510.000000	37.981370
1500.000000	37.889974
1490.000000	37.911662
1480.000000	38.130143
1470.000000	38.282221
1460.000000	38.475832
1450.000000	38.914070
1440.000000	39.542768
1430.000000	40.287973
1420.000000	41.180502
1410.000000	42.315168
1400.000000	43.785051
1390.000000	45.313108
1380.000000	46.310810
1370.000000	46.855915
1360.000000	47.173376
1350.000000	47.268132
1340.000000	47.253863
1330.000000	47.215503
1320.000000	47.457480
1310.000000	47.865838
1300.000000	48.191165
1290.000000	48.330652
1280.000000	48.258229
1270.000000	48.155026
1260.000000	48.127768
1250.000000	48.144402
1240.000000	48.081299
1230.000000	47.918975
1220.000000	47.718309
1210.000000	47.448917
1200.000000	47.280279
1190.000000	47.383056
1180.000000	47.612282
1170.000000	48.026970
1160.000000	48.515606
1150.000000	48.903578
1140.000000	49.201288
1130.000000	49.440519
1120.000000	49.672528
1110.000000	49.766837
1100.000000	49.784005
1090.000000	49.744373
1080.000000	49.747665
1070.000000	49.772420
1060.000000	49.834120
1050.000000	49.899030
1040.000000	49.954043
1030.000000	50.053871
1020.000000	50.168748
1010.000000	50.501516
1000.000000	50.835103
990.000000	50.965668
980.000000	50.985331
970.000000	51.108378
960.000000	51.212813
950.000000	51.289758
940.000000	51.360143
930.000000	51.394237
920.000000	51.408325
910.000000	51.499443
900.000000	51.731136
890.000000	51.973662
880.000000	52.028101
870.000000	51.848298
860.000000	51.923566
850.000000	51.306398
840.000000	50.222327
830.000000	50.377398
820.000000	50.548411
810.000000	50.484655
800.000000	50.506758
790.000000	50.540702
780.000000	50.518906
770.000000	50.535596
760.000000	50.508853
750.000000	50.550166
740.000000	50.502548
730.000000	50.513390
720.000000	50.497448
710.000000	50.417955
700.000000	50.433028
690.000000	50.415576
680.000000	50.389417
670.000000	50.254604
660.000000	50.169471
650.000000	50.169025
640.000000	50.026163
630.000000	49.930302
620.000000	49.871809
610.000000	49.744896
600.000000	49.704229
590.000000	49.671865
580.000000	49.643650
570.000000	49.545269
560.000000	49.423405
550.000000	49.289066
540.000000	49.047071
530.000000	48.724094
520.000000	48.285928
510.000000	47.759393
500.000000	47.278671
490.000000	46.821348
480.000000	46.446948
470.000000	46.017137
460.000000	45.420366
450.000000	44.672906
440.000000	43.786266
430.000000	42.713812
420.000000	41.380751
410.000000	39.980382
400.000000	38.788725
390.000000	37.797891
380.000000	36.745829
370.000000	35.890107
360.000000	35.117962
350.000000	33.784750
340.000000	32.225043
330.000000	30.293325
320.000000	28.874678
310.000000	27.900138
300.000000	25.483928
290.000000	20.822830
280.000000	17.257954
270.000000	16.249473
260.000000	15.785117
250.000000	14.325153
