PE UV       SUBTECH     SPECTRUM    ASCII       PEDS        4.00        
   -1
3S-N10-C027.Sample.Cycle1.Raw.asc
22/03/29
16:41:39.00
22/03/29
16:41:39.00
Administrator

250.000000
1
Lambda 750
750N8071901
PerkinElmer UV WinLab 6.0.4.0738 / 1.61.00 Lambda 900

0
0
3350/servo 860.8/2
0
0
UV/VIS
1
1
1
CommonBeamDepol,150mm sphere / downward view
0
0
0
0
Program
Program
3350/servo 860.8/2
3350/0.2 860.8/0.2
3350/0.2 860.8/0.2
0
1
 
 
 
0
 
860.8
319.2
860.8
Front
100
on
 
 
0
0
0
 
0
 
 
 
0
 
 
0
0
0
0
0
 
 
 
 
0
0


0
0
#HDR
-1
-1
#GR
nm
%R
1.0
0.0
2500.000000
-10.000000
226
8
52.585706
15.066672
#DATA
2500.000000	20.885593
2490.000000	20.667656
2480.000000	20.325570
2470.000000	20.878607
2460.000000	21.568569
2450.000000	23.523091
2440.000000	22.421269
2430.000000	24.805802
2420.000000	25.826053
2410.000000	24.541337
2400.000000	27.156875
2390.000000	25.755673
2380.000000	24.743088
2370.000000	25.091436
2360.000000	25.119245
2350.000000	25.572230
2340.000000	25.188190
2330.000000	26.190227
2320.000000	26.022720
2310.000000	26.518564
2300.000000	24.838660
2290.000000	24.287688
2280.000000	25.107380
2270.000000	24.396045
2260.000000	24.957120
2250.000000	26.293979
2240.000000	27.619052
2230.000000	28.510307
2220.000000	29.133220
2210.000000	28.561028
2200.000000	27.932471
2190.000000	27.024004
2180.000000	27.516545
2170.000000	27.163183
2160.000000	27.713790
2150.000000	29.297728
2140.000000	29.297648
2130.000000	29.431598
2120.000000	30.756157
2110.000000	30.987134
2100.000000	30.724895
2090.000000	30.711027
2080.000000	30.572919
2070.000000	29.890180
2060.000000	29.312017
2050.000000	28.412830
2040.000000	27.949263
2030.000000	28.032682
2020.000000	28.500366
2010.000000	28.630697
2000.000000	28.068535
1990.000000	27.576607
1980.000000	26.837788
1970.000000	25.940374
1960.000000	25.045711
1950.000000	24.462709
1940.000000	24.595226
1930.000000	24.794628
1920.000000	26.226849
1910.000000	28.228854
1900.000000	31.292893
1890.000000	34.576370
1880.000000	37.374426
1870.000000	39.490428
1860.000000	40.259177
1850.000000	40.831053
1840.000000	40.879176
1830.000000	40.808949
1820.000000	40.474019
1810.000000	40.213198
1800.000000	39.947883
1790.000000	39.744116
1780.000000	39.577016
1770.000000	39.296989
1760.000000	39.070771
1750.000000	38.731630
1740.000000	38.431718
1730.000000	38.266250
1720.000000	38.598704
1710.000000	39.169188
1700.000000	39.567185
1690.000000	39.837928
1680.000000	40.652318
1670.000000	41.780104
1660.000000	42.518068
1650.000000	42.757045
1640.000000	42.623292
1630.000000	42.438420
1620.000000	42.069851
1610.000000	41.643503
1600.000000	41.291054
1590.000000	40.966871
1580.000000	40.643766
1570.000000	40.332227
1560.000000	40.073714
1550.000000	39.723172
1540.000000	39.273488
1530.000000	38.666580
1520.000000	38.354781
1510.000000	38.208346
1500.000000	38.116077
1490.000000	38.125898
1480.000000	38.312758
1470.000000	38.479896
1460.000000	38.731901
1450.000000	39.182421
1440.000000	39.781045
1430.000000	40.557803
1420.000000	41.507429
1410.000000	42.699039
1400.000000	44.231342
1390.000000	45.751011
1380.000000	46.761093
1370.000000	47.290694
1360.000000	47.658440
1350.000000	47.763999
1340.000000	47.720704
1330.000000	47.645684
1320.000000	47.833277
1310.000000	48.227653
1300.000000	48.592236
1290.000000	48.751264
1280.000000	48.705273
1270.000000	48.599496
1260.000000	48.592082
1250.000000	48.587192
1240.000000	48.527029
1230.000000	48.386816
1220.000000	48.223349
1210.000000	47.949165
1200.000000	47.736810
1190.000000	47.819784
1180.000000	48.114791
1170.000000	48.501590
1160.000000	48.995236
1150.000000	49.386986
1140.000000	49.705809
1130.000000	49.958376
1120.000000	50.154677
1110.000000	50.242214
1100.000000	50.260551
1090.000000	50.240471
1080.000000	50.236296
1070.000000	50.271744
1060.000000	50.363721
1050.000000	50.399606
1040.000000	50.453388
1030.000000	50.568567
1020.000000	50.724215
1010.000000	51.100825
1000.000000	51.438463
990.000000	51.507077
980.000000	51.542364
970.000000	51.688766
960.000000	51.750169
950.000000	51.879892
940.000000	51.970578
930.000000	51.904729
920.000000	51.991883
910.000000	52.076276
900.000000	52.124752
890.000000	52.453025
880.000000	52.585706
870.000000	52.582483
860.000000	52.436641
850.000000	51.698027
840.000000	50.793938
830.000000	50.935960
820.000000	50.974907
810.000000	51.022954
800.000000	51.132844
790.000000	50.973430
780.000000	51.023224
770.000000	51.175000
760.000000	51.190479
750.000000	51.175546
740.000000	51.155584
730.000000	51.206983
720.000000	51.198461
710.000000	51.123489
700.000000	51.142126
690.000000	51.048978
680.000000	51.055670
670.000000	50.990604
660.000000	50.908357
650.000000	50.916568
640.000000	50.868327
630.000000	50.817740
620.000000	50.723258
610.000000	50.657152
600.000000	50.633888
590.000000	50.635788
580.000000	50.594420
570.000000	50.503209
560.000000	50.414592
550.000000	50.314174
540.000000	50.114705
530.000000	49.828739
520.000000	49.392706
510.000000	48.882637
500.000000	48.429848
490.000000	47.981570
480.000000	47.582880
470.000000	47.182437
460.000000	46.596077
450.000000	45.842033
440.000000	44.972868
430.000000	43.918564
420.000000	42.585242
410.000000	41.189137
400.000000	39.997835
390.000000	38.958307
380.000000	37.992775
370.000000	37.048877
360.000000	36.112622
350.000000	34.763949
340.000000	33.392496
330.000000	31.625144
320.000000	29.971056
310.000000	28.905557
300.000000	25.936959
290.000000	21.152661
280.000000	17.689249
270.000000	16.818176
260.000000	16.463573
250.000000	15.066672
