PE UV       SUBTECH     SPECTRUM    ASCII       PEDS        4.00        
   -1
3S-N10-C016.Sample.Cycle1.Raw.asc
22/03/29
16:09:12.00
22/03/29
16:09:12.00
Administrator

250.000000
1
Lambda 750
750N8071901
PerkinElmer UV WinLab 6.0.4.0738 / 1.61.00 Lambda 900

0
0
3350/servo 860.8/2
0
0
UV/VIS
1
1
1
CommonBeamDepol,150mm sphere / downward view
0
0
0
0
Program
Program
3350/servo 860.8/2
3350/0.2 860.8/0.2
3350/0.2 860.8/0.2
0
1
 
 
 
0
 
860.8
319.2
860.8
Front
100
on
 
 
0
0
0
 
0
 
 
 
0
 
 
0
0
0
0
0
 
 
 
 
0
0


0
0
#HDR
-1
-1
#GR
nm
%R
1.0
0.0
2500.000000
-10.000000
226
8
51.996746
14.088386
#DATA
2500.000000	22.935980
2490.000000	23.563750
2480.000000	22.871194
2470.000000	21.698708
2460.000000	23.803879
2450.000000	24.641547
2440.000000	25.325985
2430.000000	26.677064
2420.000000	26.329325
2410.000000	26.434027
2400.000000	28.528404
2390.000000	25.857026
2380.000000	26.340000
2370.000000	25.806808
2360.000000	26.006076
2350.000000	26.303307
2340.000000	26.687531
2330.000000	26.698649
2320.000000	26.935057
2310.000000	26.421041
2300.000000	25.462545
2290.000000	25.463594
2280.000000	25.077798
2270.000000	26.045851
2260.000000	25.889284
2250.000000	27.027645
2240.000000	28.059913
2230.000000	28.713264
2220.000000	29.631523
2210.000000	28.753026
2200.000000	28.848146
2190.000000	27.644450
2180.000000	28.213335
2170.000000	27.997105
2160.000000	28.238334
2150.000000	29.802798
2140.000000	30.219236
2130.000000	30.740158
2120.000000	31.292360
2110.000000	31.215681
2100.000000	31.347489
2090.000000	31.109564
2080.000000	31.398918
2070.000000	31.039175
2060.000000	30.297404
2050.000000	29.315206
2040.000000	28.708012
2030.000000	28.819205
2020.000000	29.374968
2010.000000	29.429728
2000.000000	28.960753
1990.000000	28.486224
1980.000000	27.594815
1970.000000	26.757575
1960.000000	26.042122
1950.000000	25.528045
1940.000000	25.360123
1930.000000	25.581031
1920.000000	27.038252
1910.000000	28.905641
1900.000000	31.756263
1890.000000	34.847933
1880.000000	37.617663
1870.000000	39.507294
1860.000000	40.295148
1850.000000	40.756868
1840.000000	40.696504
1830.000000	40.822270
1820.000000	40.376599
1810.000000	40.156668
1800.000000	39.895858
1790.000000	39.740176
1780.000000	39.639704
1770.000000	39.363609
1760.000000	39.103057
1750.000000	38.841994
1740.000000	38.592258
1730.000000	38.457132
1720.000000	38.636501
1710.000000	39.190481
1700.000000	39.604911
1690.000000	39.834453
1680.000000	40.680114
1670.000000	41.747236
1660.000000	42.377277
1650.000000	42.636094
1640.000000	42.468461
1630.000000	42.296885
1620.000000	41.941945
1610.000000	41.582172
1600.000000	41.246330
1590.000000	40.952489
1580.000000	40.683476
1570.000000	40.395402
1560.000000	40.118016
1550.000000	39.827168
1540.000000	39.379198
1530.000000	38.806374
1520.000000	38.491393
1510.000000	38.358738
1500.000000	38.288665
1490.000000	38.322745
1480.000000	38.477761
1470.000000	38.692384
1460.000000	38.886282
1450.000000	39.297065
1440.000000	39.902609
1430.000000	40.632781
1420.000000	41.440747
1410.000000	42.538225
1400.000000	43.975988
1390.000000	45.446483
1380.000000	46.427865
1370.000000	46.918322
1360.000000	47.274853
1350.000000	47.361739
1340.000000	47.310840
1330.000000	47.256047
1320.000000	47.427517
1310.000000	47.808396
1300.000000	48.080572
1290.000000	48.241243
1280.000000	48.193446
1270.000000	48.084497
1260.000000	48.026720
1250.000000	48.050810
1240.000000	47.996507
1230.000000	47.879149
1220.000000	47.673599
1210.000000	47.437537
1200.000000	47.258420
1190.000000	47.354976
1180.000000	47.598121
1170.000000	47.974159
1160.000000	48.457586
1150.000000	48.843095
1140.000000	49.118565
1130.000000	49.385626
1120.000000	49.583299
1110.000000	49.674522
1100.000000	49.701678
1090.000000	49.692795
1080.000000	49.662048
1070.000000	49.684317
1060.000000	49.796982
1050.000000	49.858103
1040.000000	49.945953
1030.000000	50.057912
1020.000000	50.176148
1010.000000	50.491210
1000.000000	50.823466
990.000000	50.972369
980.000000	50.988227
970.000000	51.106601
960.000000	51.200198
950.000000	51.348198
940.000000	51.412165
930.000000	51.415435
920.000000	51.435730
910.000000	51.526282
900.000000	51.544120
890.000000	51.842440
880.000000	51.996746
870.000000	51.909322
860.000000	51.790662
850.000000	51.196187
840.000000	50.371300
830.000000	50.331262
820.000000	50.351172
810.000000	50.358455
800.000000	50.472871
790.000000	50.447886
780.000000	50.412832
770.000000	50.436082
760.000000	50.451438
750.000000	50.516150
740.000000	50.513781
730.000000	50.484260
720.000000	50.447330
710.000000	50.380979
700.000000	50.400007
690.000000	50.350303
680.000000	50.334415
670.000000	50.276510
660.000000	50.196535
650.000000	50.248428
640.000000	50.156223
630.000000	50.091889
620.000000	49.981902
610.000000	49.918125
600.000000	49.909168
590.000000	49.873015
580.000000	49.845707
570.000000	49.741124
560.000000	49.626124
550.000000	49.538982
540.000000	49.339068
530.000000	49.031325
520.000000	48.565013
510.000000	48.073631
500.000000	47.639283
490.000000	47.224537
480.000000	46.856169
470.000000	46.446106
460.000000	45.888455
450.000000	45.156934
440.000000	44.336379
430.000000	43.270475
420.000000	41.943984
410.000000	40.576568
400.000000	39.447719
390.000000	38.533842
380.000000	37.462860
370.000000	36.514623
360.000000	35.710071
350.000000	34.372726
340.000000	32.803255
330.000000	31.203104
320.000000	29.850849
310.000000	28.202271
300.000000	24.993661
290.000000	20.417509
280.000000	16.929971
270.000000	16.046867
260.000000	15.621527
250.000000	14.088386
