PE UV       SUBTECH     SPECTRUM    ASCII       PEDS        4.00        
   -1
3S-N10-C024.Sample.Cycle1.Raw.asc
22/03/29
16:33:06.00
22/03/29
16:33:06.00
Administrator

250.000000
1
Lambda 750
750N8071901
PerkinElmer UV WinLab 6.0.4.0738 / 1.61.00 Lambda 900

0
0
3350/servo 860.8/2
0
0
UV/VIS
1
1
1
CommonBeamDepol,150mm sphere / downward view
0
0
0
0
Program
Program
3350/servo 860.8/2
3350/0.2 860.8/0.2
3350/0.2 860.8/0.2
0
1
 
 
 
0
 
860.8
319.2
860.8
Front
100
on
 
 
0
0
0
 
0
 
 
 
0
 
 
0
0
0
0
0
 
 
 
 
0
0


0
0
#HDR
-1
-1
#GR
nm
%R
1.0
0.0
2500.000000
-10.000000
226
8
52.943744
14.646546
#DATA
2500.000000	22.571620
2490.000000	22.480863
2480.000000	22.660110
2470.000000	22.541849
2460.000000	23.961617
2450.000000	21.928658
2440.000000	24.658731
2430.000000	23.908066
2420.000000	24.534252
2410.000000	26.452908
2400.000000	26.925864
2390.000000	26.820098
2380.000000	26.287311
2370.000000	25.778037
2360.000000	26.827843
2350.000000	26.491487
2340.000000	26.243841
2330.000000	27.444547
2320.000000	26.880183
2310.000000	25.938225
2300.000000	25.238897
2290.000000	25.250275
2280.000000	24.464818
2270.000000	26.127794
2260.000000	25.780882
2250.000000	26.751834
2240.000000	27.814350
2230.000000	28.376619
2220.000000	29.684255
2210.000000	29.025176
2200.000000	28.527223
2190.000000	27.561877
2180.000000	28.433710
2170.000000	27.363860
2160.000000	28.444191
2150.000000	29.244431
2140.000000	29.392169
2130.000000	30.093409
2120.000000	30.678739
2110.000000	31.210403
2100.000000	31.693400
2090.000000	31.321352
2080.000000	31.294240
2070.000000	30.804963
2060.000000	30.223827
2050.000000	29.124248
2040.000000	28.674663
2030.000000	28.809563
2020.000000	29.423583
2010.000000	29.342410
2000.000000	28.680633
1990.000000	28.258878
1980.000000	27.365914
1970.000000	26.799913
1960.000000	25.921394
1950.000000	25.264695
1940.000000	25.134535
1930.000000	25.542202
1920.000000	26.956346
1910.000000	28.857051
1900.000000	31.862538
1890.000000	35.144834
1880.000000	37.848888
1870.000000	39.847147
1860.000000	40.801743
1850.000000	41.205432
1840.000000	41.291052
1830.000000	41.235243
1820.000000	40.903312
1810.000000	40.644670
1800.000000	40.336566
1790.000000	40.141545
1780.000000	40.003993
1770.000000	39.727811
1760.000000	39.506514
1750.000000	39.155427
1740.000000	38.871812
1730.000000	38.728726
1720.000000	39.012378
1710.000000	39.687635
1700.000000	40.101607
1690.000000	40.418942
1680.000000	41.066242
1670.000000	42.204147
1660.000000	42.897137
1650.000000	43.152570
1640.000000	43.106764
1630.000000	42.826484
1620.000000	42.497745
1610.000000	42.081851
1600.000000	41.748486
1590.000000	41.443324
1580.000000	41.156049
1570.000000	40.862712
1560.000000	40.587018
1550.000000	40.274188
1540.000000	39.808287
1530.000000	39.209810
1520.000000	38.879039
1510.000000	38.774051
1500.000000	38.654228
1490.000000	38.690007
1480.000000	38.896755
1470.000000	39.052782
1460.000000	39.287951
1450.000000	39.722820
1440.000000	40.341029
1430.000000	41.068304
1420.000000	41.986937
1410.000000	43.136361
1400.000000	44.590130
1390.000000	46.139157
1380.000000	47.119157
1370.000000	47.639576
1360.000000	47.976216
1350.000000	48.105770
1340.000000	48.047631
1330.000000	48.019974
1320.000000	48.265112
1310.000000	48.658811
1300.000000	48.979999
1290.000000	49.171417
1280.000000	49.117398
1270.000000	48.983055
1260.000000	48.936832
1250.000000	49.014879
1240.000000	48.952821
1230.000000	48.791028
1220.000000	48.618895
1210.000000	48.369756
1200.000000	48.158276
1190.000000	48.272264
1180.000000	48.548320
1170.000000	48.920894
1160.000000	49.391135
1150.000000	49.796041
1140.000000	50.078746
1130.000000	50.336505
1120.000000	50.556205
1110.000000	50.645187
1100.000000	50.652961
1090.000000	50.645855
1080.000000	50.657832
1070.000000	50.684768
1060.000000	50.723392
1050.000000	50.747265
1040.000000	50.787109
1030.000000	50.885285
1020.000000	51.049826
1010.000000	51.376395
1000.000000	51.709483
990.000000	51.811284
980.000000	51.861973
970.000000	51.973632
960.000000	52.026815
950.000000	52.148054
940.000000	52.229810
930.000000	52.326059
920.000000	52.321181
910.000000	52.263287
900.000000	52.404738
890.000000	52.760348
880.000000	52.943744
870.000000	52.813112
860.000000	52.669119
850.000000	52.000538
840.000000	51.046410
830.000000	51.153725
820.000000	51.321153
810.000000	51.299812
800.000000	51.358276
790.000000	51.404912
780.000000	51.433347
770.000000	51.450707
760.000000	51.444748
750.000000	51.439220
740.000000	51.380893
730.000000	51.345616
720.000000	51.416848
710.000000	51.438745
700.000000	51.465477
690.000000	51.350005
680.000000	51.290072
670.000000	51.217181
660.000000	51.183076
650.000000	51.212873
640.000000	51.106053
630.000000	51.054735
620.000000	51.000323
610.000000	50.917427
600.000000	50.872013
590.000000	50.899460
580.000000	50.869366
570.000000	50.779215
560.000000	50.689048
550.000000	50.587378
540.000000	50.360734
530.000000	50.080759
520.000000	49.658098
510.000000	49.171831
500.000000	48.735466
490.000000	48.323079
480.000000	47.965769
470.000000	47.639269
460.000000	47.107424
450.000000	46.363145
440.000000	45.526830
430.000000	44.495307
420.000000	43.240143
410.000000	41.883623
400.000000	40.728989
390.000000	39.754021
380.000000	38.732855
370.000000	37.736492
360.000000	36.804951
350.000000	35.440453
340.000000	34.100606
330.000000	32.591809
320.000000	30.788192
310.000000	28.926789
300.000000	25.615315
290.000000	21.015361
280.000000	17.525343
270.000000	16.518111
260.000000	16.046730
250.000000	14.646546
