PE UV       SUBTECH     SPECTRUM    ASCII       PEDS        4.00        
   -1
3S-N10-C022.Sample.Cycle1.Raw.asc
22/03/29
16:26:46.00
22/03/29
16:26:46.00
Administrator

250.000000
1
Lambda 750
750N8071901
PerkinElmer UV WinLab 6.0.4.0738 / 1.61.00 Lambda 900

0
0
3350/servo 860.8/2
0
0
UV/VIS
1
1
1
CommonBeamDepol,150mm sphere / downward view
0
0
0
0
Program
Program
3350/servo 860.8/2
3350/0.2 860.8/0.2
3350/0.2 860.8/0.2
0
1
 
 
 
0
 
860.8
319.2
860.8
Front
100
on
 
 
0
0
0
 
0
 
 
 
0
 
 
0
0
0
0
0
 
 
 
 
0
0


0
0
#HDR
-1
-1
#GR
nm
%R
1.0
0.0
2500.000000
-10.000000
226
8
52.796488
14.760492
#DATA
2500.000000	21.934825
2490.000000	22.484947
2480.000000	21.585316
2470.000000	21.059895
2460.000000	22.356566
2450.000000	22.418887
2440.000000	23.382866
2430.000000	24.185426
2420.000000	25.195774
2410.000000	25.768323
2400.000000	26.249215
2390.000000	25.805445
2380.000000	24.742400
2370.000000	24.013773
2360.000000	24.792324
2350.000000	26.506751
2340.000000	24.496557
2330.000000	25.980301
2320.000000	25.245031
2310.000000	25.457236
2300.000000	24.265033
2290.000000	23.695699
2280.000000	24.054560
2270.000000	24.847528
2260.000000	24.394985
2250.000000	25.903818
2240.000000	27.446581
2230.000000	28.248702
2220.000000	28.629621
2210.000000	27.988250
2200.000000	27.815082
2190.000000	26.851478
2180.000000	27.143919
2170.000000	26.841821
2160.000000	27.545926
2150.000000	28.485910
2140.000000	28.705739
2130.000000	29.711755
2120.000000	30.101766
2110.000000	30.496309
2100.000000	30.606218
2090.000000	30.460649
2080.000000	30.370191
2070.000000	29.864437
2060.000000	29.277176
2050.000000	28.110807
2040.000000	27.765729
2030.000000	27.941312
2020.000000	28.577551
2010.000000	28.563245
2000.000000	27.977090
1990.000000	27.354597
1980.000000	26.645445
1970.000000	25.852908
1960.000000	25.069763
1950.000000	24.548151
1940.000000	24.490263
1930.000000	24.797902
1920.000000	26.047027
1910.000000	27.889882
1900.000000	31.009569
1890.000000	34.477787
1880.000000	37.219659
1870.000000	39.523697
1860.000000	40.459094
1850.000000	40.825523
1840.000000	40.776898
1830.000000	40.629106
1820.000000	40.485304
1810.000000	40.136364
1800.000000	39.849845
1790.000000	39.649335
1780.000000	39.462087
1770.000000	39.209710
1760.000000	38.906322
1750.000000	38.715831
1740.000000	38.339153
1730.000000	38.132657
1720.000000	38.495518
1710.000000	39.164559
1700.000000	39.494046
1690.000000	39.815920
1680.000000	40.592094
1670.000000	41.754411
1660.000000	42.468282
1650.000000	42.799679
1640.000000	42.680689
1630.000000	42.489529
1620.000000	42.026368
1610.000000	41.662019
1600.000000	41.282480
1590.000000	40.984268
1580.000000	40.666524
1570.000000	40.320846
1560.000000	40.061188
1550.000000	39.722477
1540.000000	39.237171
1530.000000	38.646247
1520.000000	38.276650
1510.000000	38.149809
1500.000000	38.071829
1490.000000	38.084860
1480.000000	38.298390
1470.000000	38.459758
1460.000000	38.682675
1450.000000	39.142434
1440.000000	39.803231
1430.000000	40.591127
1420.000000	41.568322
1410.000000	42.758506
1400.000000	44.288139
1390.000000	45.850293
1380.000000	46.855841
1370.000000	47.377281
1360.000000	47.762217
1350.000000	47.863816
1340.000000	47.843158
1330.000000	47.801448
1320.000000	48.006880
1310.000000	48.412337
1300.000000	48.686079
1290.000000	48.811943
1280.000000	48.733299
1270.000000	48.618502
1260.000000	48.623860
1250.000000	48.713278
1240.000000	48.713113
1230.000000	48.517739
1220.000000	48.213312
1210.000000	47.903646
1200.000000	47.729979
1190.000000	47.806315
1180.000000	48.109538
1170.000000	48.580807
1160.000000	49.091480
1150.000000	49.495900
1140.000000	49.803987
1130.000000	50.086310
1120.000000	50.271308
1110.000000	50.361228
1100.000000	50.395350
1090.000000	50.389096
1080.000000	50.411597
1070.000000	50.433979
1060.000000	50.468381
1050.000000	50.514518
1040.000000	50.573168
1030.000000	50.691124
1020.000000	50.853832
1010.000000	51.260790
1000.000000	51.619740
990.000000	51.704075
980.000000	51.755066
970.000000	51.887484
960.000000	51.970379
950.000000	52.096450
940.000000	52.181519
930.000000	52.087640
920.000000	52.138479
910.000000	52.260906
900.000000	52.368153
890.000000	52.598566
880.000000	52.756039
870.000000	52.796488
860.000000	52.768901
850.000000	52.107853
840.000000	51.168222
830.000000	51.226724
820.000000	51.378416
810.000000	51.223969
800.000000	51.246077
790.000000	51.218656
780.000000	51.229536
770.000000	51.280800
760.000000	51.212562
750.000000	51.296819
740.000000	51.323241
730.000000	51.307343
720.000000	51.328341
710.000000	51.263056
700.000000	51.239903
690.000000	51.150322
680.000000	51.145693
670.000000	51.110228
660.000000	51.039810
650.000000	51.042019
640.000000	50.931634
630.000000	50.870525
620.000000	50.847786
610.000000	50.748722
600.000000	50.718579
590.000000	50.680631
580.000000	50.642509
570.000000	50.542423
560.000000	50.469311
550.000000	50.346518
540.000000	50.093771
530.000000	49.784787
520.000000	49.328586
510.000000	48.822751
500.000000	48.340510
490.000000	47.884614
480.000000	47.523958
470.000000	47.121742
460.000000	46.480077
450.000000	45.657896
440.000000	44.773177
430.000000	43.724180
420.000000	42.387833
410.000000	40.962322
400.000000	39.698158
390.000000	38.697082
380.000000	37.589838
370.000000	36.637687
360.000000	35.699610
350.000000	34.202719
340.000000	32.820207
330.000000	31.155832
320.000000	29.502188
310.000000	28.352586
300.000000	25.957527
290.000000	21.127729
280.000000	17.457432
270.000000	16.507579
260.000000	16.121312
250.000000	14.760492
