PE UV       SUBTECH     SPECTRUM    ASCII       PEDS        4.00        
   -1
mskat_side1_2.Sample.asc
23/09/08
10:28:29.00
23/09/08
10:28:29.00
Administrator

250.000000
1
Lambda 750
750N8071901
PerkinElmer UV WinLab 6.0.4.0738 / 1.61.00 Lambda 900

0
0
3350/servo 860.8/2
0
0
UV/VIS
1
1
1
CommonBeamDepol,150mm sphere / downward view
0
0
0
0
Program
Program
3350/servo 860.8/2
3350/0.2 860.8/0.2
3350/0.2 860.8/0.2
0
1
 
 
 
0
 
860.8
319.2
860.8
Front
100
on
 
 
0
0
0
 
0
 
 
 
0
 
 
0
0
0
0
0
 
 
 
 
0
0


0
0
#HDR
-1
-1
#GR
nm
%R
1.0
0.0
2500.000000
-10.000000
226
8
54.302023
3.960216
#DATA
2500.000000	6.286723
2490.000000	10.465629
2480.000000	7.573679
2470.000000	12.039812
2460.000000	9.589362
2450.000000	13.333414
2440.000000	12.357833
2430.000000	12.744179
2420.000000	11.950229
2410.000000	13.771260
2400.000000	13.096435
2390.000000	14.378860
2380.000000	13.659886
2370.000000	13.292026
2360.000000	12.024011
2350.000000	14.512142
2340.000000	13.736129
2330.000000	12.873965
2320.000000	12.688780
2310.000000	13.235182
2300.000000	12.746861
2290.000000	12.406232
2280.000000	12.755898
2270.000000	13.990223
2260.000000	16.360032
2250.000000	16.872890
2240.000000	16.802968
2230.000000	17.477922
2220.000000	16.195377
2210.000000	15.971011
2200.000000	14.340295
2190.000000	15.933398
2180.000000	15.921939
2170.000000	17.183450
2160.000000	18.414797
2150.000000	18.851160
2140.000000	19.573167
2130.000000	19.680267
2120.000000	19.477425
2110.000000	19.336957
2100.000000	19.134526
2090.000000	18.519958
2080.000000	17.154748
2070.000000	15.812062
2060.000000	15.215464
2050.000000	15.721689
2040.000000	16.542704
2030.000000	16.447061
2020.000000	15.804212
2010.000000	14.689300
2000.000000	13.672737
1990.000000	12.693289
1980.000000	11.807227
1970.000000	11.063739
1960.000000	10.771258
1950.000000	10.823946
1940.000000	12.984595
1930.000000	15.074950
1920.000000	19.231421
1910.000000	24.896494
1900.000000	29.518456
1890.000000	33.549165
1880.000000	35.542858
1870.000000	36.394701
1860.000000	36.676815
1850.000000	36.305328
1840.000000	36.225195
1830.000000	35.814214
1820.000000	35.441082
1810.000000	35.055318
1800.000000	34.849106
1790.000000	34.395356
1780.000000	34.135076
1770.000000	33.842842
1760.000000	33.279603
1750.000000	33.103274
1740.000000	33.335619
1730.000000	34.397606
1720.000000	35.044506
1710.000000	35.411320
1700.000000	36.256444
1690.000000	37.892336
1680.000000	39.258746
1670.000000	39.847741
1660.000000	39.951221
1650.000000	39.664592
1640.000000	39.226095
1630.000000	38.714949
1620.000000	37.943538
1610.000000	37.196049
1600.000000	36.652791
1590.000000	36.079962
1580.000000	35.555887
1570.000000	35.275204
1560.000000	34.781220
1550.000000	33.848184
1540.000000	33.033512
1530.000000	32.555592
1520.000000	32.265395
1510.000000	32.080622
1500.000000	32.083066
1490.000000	32.189231
1480.000000	32.371600
1470.000000	32.810054
1460.000000	33.528591
1450.000000	34.656328
1440.000000	36.135071
1430.000000	38.324967
1420.000000	40.967388
1410.000000	43.545147
1400.000000	45.565510
1390.000000	46.711426
1380.000000	47.313223
1370.000000	48.037004
1360.000000	48.743238
1350.000000	49.304086
1340.000000	49.514328
1330.000000	49.801320
1320.000000	50.400531
1310.000000	50.905279
1300.000000	50.990968
1290.000000	50.960978
1280.000000	51.043256
1270.000000	50.868388
1260.000000	50.895000
1250.000000	50.864342
1240.000000	50.800270
1230.000000	50.630427
1220.000000	50.130025
1210.000000	49.828881
1200.000000	49.846102
1190.000000	50.247704
1180.000000	50.784299
1170.000000	51.521840
1160.000000	52.124470
1150.000000	52.584195
1140.000000	52.954000
1130.000000	53.106367
1120.000000	53.104915
1110.000000	53.194745
1100.000000	53.296844
1090.000000	53.254411
1080.000000	53.227469
1070.000000	53.174923
1060.000000	53.143192
1050.000000	53.044576
1040.000000	53.001387
1030.000000	52.923531
1020.000000	53.078064
1010.000000	53.352190
1000.000000	53.451829
990.000000	53.459820
980.000000	53.630023
970.000000	53.718634
960.000000	53.854347
950.000000	53.889930
940.000000	53.926566
930.000000	54.041804
920.000000	54.172118
910.000000	54.153922
900.000000	54.302023
890.000000	54.200058
880.000000	54.178139
870.000000	54.238548
860.000000	54.250997
850.000000	52.532819
840.000000	52.554142
830.000000	52.395182
820.000000	52.681844
810.000000	52.340604
800.000000	52.293984
790.000000	52.542496
780.000000	52.281520
770.000000	52.110107
760.000000	51.967692
750.000000	51.980491
740.000000	51.765854
730.000000	51.494642
720.000000	51.179828
710.000000	51.021795
700.000000	50.694692
690.000000	50.288289
680.000000	50.061937
670.000000	49.544117
660.000000	49.191783
650.000000	48.710737
640.000000	48.180107
630.000000	47.672602
620.000000	46.983808
610.000000	46.447194
600.000000	45.799184
590.000000	45.105314
580.000000	44.348148
570.000000	43.593378
560.000000	42.661813
550.000000	41.764422
540.000000	40.843654
530.000000	39.744526
520.000000	38.614799
510.000000	37.503725
500.000000	36.339108
490.000000	35.114414
480.000000	33.839033
470.000000	32.582569
460.000000	31.278492
450.000000	29.577561
440.000000	27.807390
430.000000	25.911817
420.000000	23.792733
410.000000	21.590399
400.000000	19.258005
390.000000	17.124609
380.000000	15.058083
370.000000	12.904257
360.000000	11.477243
350.000000	9.749436
340.000000	8.777465
330.000000	7.631208
320.000000	7.576995
310.000000	9.133608
300.000000	4.237542
290.000000	3.960216
280.000000	3.989230
270.000000	4.244402
260.000000	4.923317
250.000000	5.605189
