PE UV       SUBTECH     SPECTRUM    ASCII       PEDS        4.00        
   -1
msmeh7_side1_1.Sample.asc
23/09/08
10:42:01.00
23/09/08
10:42:01.00
Administrator

250.000000
1
Lambda 750
750N8071901
PerkinElmer UV WinLab 6.0.4.0738 / 1.61.00 Lambda 900

0
0
3350/servo 860.8/2
0
0
UV/VIS
1
1
1
CommonBeamDepol,150mm sphere / downward view
0
0
0
0
Program
Program
3350/servo 860.8/2
3350/0.2 860.8/0.2
3350/0.2 860.8/0.2
0
1
 
 
 
0
 
860.8
319.2
860.8
Front
100
on
 
 
0
0
0
 
0
 
 
 
0
 
 
0
0
0
0
0
 
 
 
 
0
0


0
0
#HDR
-1
-1
#GR
nm
%R
1.0
0.0
2500.000000
-10.000000
226
8
61.719315
8.126498
#DATA
2500.000000	28.583439
2490.000000	30.504048
2480.000000	28.764305
2470.000000	31.088869
2460.000000	31.435028
2450.000000	32.449721
2440.000000	32.170568
2430.000000	34.005494
2420.000000	33.888179
2410.000000	34.672733
2400.000000	35.033171
2390.000000	35.345752
2380.000000	34.485307
2370.000000	35.286657
2360.000000	33.943285
2350.000000	36.053117
2340.000000	34.050900
2330.000000	33.692796
2320.000000	33.940693
2310.000000	33.269749
2300.000000	33.656226
2290.000000	33.143380
2280.000000	34.626147
2270.000000	34.663498
2260.000000	37.466954
2250.000000	38.368001
2240.000000	38.063504
2230.000000	37.908790
2220.000000	37.564049
2210.000000	36.522768
2200.000000	36.075590
2190.000000	37.254600
2180.000000	37.547831
2170.000000	39.017337
2160.000000	40.227649
2150.000000	40.950764
2140.000000	40.934075
2130.000000	41.377204
2120.000000	40.976785
2110.000000	41.333756
2100.000000	40.634785
2090.000000	40.349925
2080.000000	38.903001
2070.000000	37.638773
2060.000000	37.058553
2050.000000	37.647209
2040.000000	38.106818
2030.000000	37.829224
2020.000000	36.768170
2010.000000	35.668587
2000.000000	34.696289
1990.000000	33.804051
1980.000000	32.540649
1970.000000	31.827347
1960.000000	31.599523
1950.000000	31.797918
1940.000000	33.943486
1930.000000	36.120344
1920.000000	40.107690
1910.000000	44.311330
1900.000000	47.697934
1890.000000	50.222012
1880.000000	51.430154
1870.000000	51.993791
1860.000000	52.036194
1850.000000	51.997560
1840.000000	51.667072
1830.000000	51.435816
1820.000000	51.267046
1810.000000	51.155581
1800.000000	51.100525
1790.000000	50.793145
1780.000000	50.747713
1770.000000	50.565344
1760.000000	50.223233
1750.000000	50.187127
1740.000000	50.285315
1730.000000	50.973288
1720.000000	51.313385
1710.000000	51.536695
1700.000000	52.160498
1690.000000	52.932955
1680.000000	53.597960
1670.000000	53.924223
1660.000000	54.098966
1650.000000	53.847864
1640.000000	53.638384
1630.000000	53.431664
1620.000000	53.058005
1610.000000	52.680039
1600.000000	52.468499
1590.000000	52.167019
1580.000000	51.920164
1570.000000	51.740061
1560.000000	51.533666
1550.000000	50.987778
1540.000000	50.466885
1530.000000	50.258003
1520.000000	50.094732
1510.000000	50.047693
1500.000000	50.053545
1490.000000	50.125219
1480.000000	50.221115
1470.000000	50.462274
1460.000000	50.902237
1450.000000	51.540130
1440.000000	52.358931
1430.000000	53.543077
1420.000000	54.796163
1410.000000	56.142615
1400.000000	57.134925
1390.000000	57.593194
1380.000000	57.954342
1370.000000	58.146905
1360.000000	58.415585
1350.000000	58.674680
1340.000000	58.605761
1330.000000	58.652926
1320.000000	59.139887
1310.000000	59.539672
1300.000000	59.538686
1290.000000	59.594718
1280.000000	59.521570
1270.000000	59.385300
1260.000000	59.501678
1250.000000	59.558169
1240.000000	59.597109
1230.000000	59.393851
1220.000000	59.101381
1210.000000	59.053239
1200.000000	59.210552
1190.000000	59.419473
1180.000000	59.579205
1170.000000	59.887779
1160.000000	60.183403
1150.000000	60.353687
1140.000000	60.528299
1130.000000	60.569242
1120.000000	60.523557
1110.000000	60.617836
1100.000000	60.741446
1090.000000	60.694622
1080.000000	60.645541
1070.000000	60.684886
1060.000000	60.758963
1050.000000	60.674765
1040.000000	60.679644
1030.000000	60.624098
1020.000000	60.755719
1010.000000	61.032622
1000.000000	61.089280
990.000000	61.097638
980.000000	61.152417
970.000000	61.326994
960.000000	61.342153
950.000000	61.362701
940.000000	61.274048
930.000000	61.420956
920.000000	61.614525
910.000000	61.582789
900.000000	61.693811
890.000000	61.719315
880.000000	61.250450
870.000000	61.444231
860.000000	61.569562
850.000000	61.077733
840.000000	61.091446
830.000000	60.848040
820.000000	60.624802
810.000000	60.623075
800.000000	60.440984
790.000000	60.711521
780.000000	60.318651
770.000000	60.337564
760.000000	59.920875
750.000000	59.910705
740.000000	59.767358
730.000000	59.604019
720.000000	59.398210
710.000000	59.199085
700.000000	58.875923
690.000000	58.566193
680.000000	58.434165
670.000000	57.997010
660.000000	57.716032
650.000000	57.330868
640.000000	56.822451
630.000000	56.343786
620.000000	55.877920
610.000000	55.371946
600.000000	54.820598
590.000000	54.242723
580.000000	53.563002
570.000000	52.855926
560.000000	51.981961
550.000000	51.165852
540.000000	50.270986
530.000000	49.311916
520.000000	48.249086
510.000000	47.063453
500.000000	45.874309
490.000000	44.708011
480.000000	43.305116
470.000000	41.952362
460.000000	40.416601
450.000000	38.481736
440.000000	36.556359
430.000000	34.816802
420.000000	32.736048
410.000000	30.682596
400.000000	28.286269
390.000000	25.952688
380.000000	23.485211
370.000000	20.956379
360.000000	18.672213
350.000000	16.113089
340.000000	14.249709
330.000000	12.401739
320.000000	11.093664
310.000000	9.751134
300.000000	9.571738
290.000000	8.654094
280.000000	8.126498
270.000000	8.352107
260.000000	9.312965
250.000000	10.296804
