PE UV       SUBTECH     SPECTRUM    ASCII       PEDS        4.00        
   -1
S-11753-007.Sample.Raw.asc
22/12/23
12:24:17.00
22/12/23
12:24:17.00
Administrator

250.000000
1
Lambda 750
750N8071901
PerkinElmer UV WinLab 6.0.4.0738 / 1.61.00 Lambda 900

0
0
3350/servo 860.8/2
0
0
UV/VIS
1
1
1
CommonBeamDepol,150mm sphere / downward view
0
0
0
0
Program
Program
3350/servo 860.8/2
3350/0.2 860.8/0.2
3350/0.2 860.8/0.2
0
1
 
 
 
0
 
860.8
319.2
860.8
Front
100
on
 
 
0
0
0
 
0
 
 
 
0
 
 
0
0
0
0
0
 
 
 
 
0
0


0
0
#HDR
-1
-1
#GR
nm
%R
1.0
0.0
2500.000000
-10.000000
226
8
66.745974
22.823437
#DATA
2500.000000	34.625174
2490.000000	31.361572
2480.000000	32.891525
2470.000000	30.644179
2460.000000	34.353707
2450.000000	33.625855
2440.000000	36.817224
2430.000000	37.189496
2420.000000	36.150610
2410.000000	36.822097
2400.000000	36.349685
2390.000000	36.188357
2380.000000	35.667698
2370.000000	36.225975
2360.000000	36.949496
2350.000000	37.388436
2340.000000	35.753255
2330.000000	35.519014
2320.000000	36.320402
2310.000000	36.739361
2300.000000	36.532391
2290.000000	36.183719
2280.000000	37.387830
2270.000000	37.782720
2260.000000	38.702474
2250.000000	39.332551
2240.000000	39.726170
2230.000000	38.799931
2220.000000	39.595111
2210.000000	38.607981
2200.000000	38.392024
2190.000000	38.030187
2180.000000	39.794588
2170.000000	40.207406
2160.000000	40.643714
2150.000000	41.125838
2140.000000	41.671121
2130.000000	42.182970
2120.000000	42.263863
2110.000000	42.358679
2100.000000	42.054849
2090.000000	40.970397
2080.000000	40.142589
2070.000000	39.084456
2060.000000	39.019186
2050.000000	39.191498
2040.000000	39.726622
2030.000000	39.749061
2020.000000	39.156926
2010.000000	38.388289
2000.000000	37.586957
1990.000000	36.772752
1980.000000	35.771928
1970.000000	35.245862
1960.000000	34.970931
1950.000000	35.676997
1940.000000	37.481891
1930.000000	39.690963
1920.000000	42.569853
1910.000000	45.969643
1900.000000	48.263511
1890.000000	50.353263
1880.000000	51.335555
1870.000000	51.948392
1860.000000	51.817611
1850.000000	51.657923
1840.000000	51.462529
1830.000000	51.532939
1820.000000	51.542682
1810.000000	51.362757
1800.000000	51.330811
1790.000000	51.177639
1780.000000	50.987405
1770.000000	50.943523
1760.000000	50.736280
1750.000000	50.563550
1740.000000	50.653467
1730.000000	51.129275
1720.000000	51.481830
1710.000000	51.811258
1700.000000	52.189411
1690.000000	52.818245
1680.000000	53.454937
1670.000000	53.769101
1660.000000	53.885684
1650.000000	53.748633
1640.000000	53.592955
1630.000000	53.434522
1620.000000	53.048609
1610.000000	52.952316
1600.000000	52.736412
1590.000000	52.500407
1580.000000	52.360501
1570.000000	52.217423
1560.000000	51.992935
1550.000000	51.621674
1540.000000	51.256661
1530.000000	51.033366
1520.000000	51.009691
1510.000000	50.987552
1500.000000	51.063419
1490.000000	51.176127
1480.000000	51.320158
1470.000000	51.572794
1460.000000	52.060812
1450.000000	52.627497
1440.000000	53.149810
1430.000000	53.745997
1420.000000	54.835391
1410.000000	56.112826
1400.000000	57.140027
1390.000000	57.663601
1380.000000	57.831548
1370.000000	57.845513
1360.000000	57.882968
1350.000000	57.538239
1340.000000	57.349640
1330.000000	57.924265
1320.000000	58.751432
1310.000000	59.408863
1300.000000	59.543392
1290.000000	59.808944
1280.000000	59.558958
1270.000000	59.327970
1260.000000	59.348031
1250.000000	59.474628
1240.000000	59.635957
1230.000000	59.480024
1220.000000	59.370349
1210.000000	59.275568
1200.000000	59.437354
1190.000000	59.697069
1180.000000	59.889047
1170.000000	60.145386
1160.000000	60.412774
1150.000000	60.547486
1140.000000	60.763439
1130.000000	60.834755
1120.000000	60.906258
1110.000000	61.059358
1100.000000	61.128358
1090.000000	61.211699
1080.000000	61.106255
1070.000000	61.191654
1060.000000	61.243502
1050.000000	61.351993
1040.000000	61.432266
1030.000000	61.603604
1020.000000	62.070471
1010.000000	62.401814
1000.000000	62.413365
990.000000	62.543784
980.000000	62.576517
970.000000	62.709627
960.000000	62.882322
950.000000	63.041908
940.000000	63.134097
930.000000	63.167051
920.000000	63.462682
910.000000	63.479086
900.000000	63.714896
890.000000	63.660905
880.000000	63.902771
870.000000	64.242522
860.000000	63.821586
850.000000	64.918400
840.000000	64.691826
830.000000	64.751017
820.000000	65.004613
810.000000	65.225010
800.000000	65.201854
790.000000	65.308412
780.000000	65.349926
770.000000	65.438537
760.000000	65.759022
750.000000	65.781612
740.000000	65.774362
730.000000	65.845161
720.000000	66.133203
710.000000	66.118669
700.000000	66.217806
690.000000	66.303917
680.000000	66.472715
670.000000	66.453143
660.000000	66.644811
650.000000	66.594292
640.000000	66.639966
630.000000	66.699018
620.000000	66.632131
610.000000	66.745974
600.000000	66.701162
590.000000	66.743857
580.000000	66.689461
570.000000	66.701034
560.000000	66.578063
550.000000	66.472167
540.000000	66.397906
530.000000	66.206497
520.000000	65.914457
510.000000	65.698460
500.000000	65.403511
490.000000	65.072170
480.000000	64.698349
470.000000	64.173309
460.000000	63.547234
450.000000	62.725054
440.000000	61.817240
430.000000	60.563296
420.000000	58.959637
410.000000	56.932305
400.000000	54.572323
390.000000	52.011380
380.000000	49.192516
370.000000	45.939609
360.000000	42.168697
350.000000	38.648722
340.000000	35.112963
330.000000	31.822604
320.000000	29.089325
310.000000	27.165056
300.000000	28.526669
290.000000	25.359604
280.000000	23.005687
270.000000	23.103733
260.000000	23.131237
250.000000	22.823437
