PE UV       SUBTECH     SPECTRUM    ASCII       PEDS        4.00        
   -1
S-11768-006.Sample.Raw.asc
23/01/26
16:51:11.00
23/01/26
16:51:11.00
Administrator

250.000000
1
Lambda 750
750N8071901
PerkinElmer UV WinLab 6.0.4.0738 / 1.61.00 Lambda 900

0
0
3350/servo 860.8/2
0
0
UV/VIS
1
1
1
CommonBeamDepol,150mm sphere / downward view
0
0
0
0
Program
Program
3350/servo 860.8/2
3350/0.2 860.8/0.2
3350/0.2 860.8/0.2
0
1
 
 
 
0
 
860.8
319.2
860.8
Front
100
on
 
 
0
0
0
 
0
 
 
 
0
 
 
0
0
0
0
0
 
 
 
 
0
0


0
0
#HDR
-1
-1
#GR
nm
%R
1.0
0.0
2500.000000
-10.000000
226
8
43.046168
10.494168
#DATA
2500.000000	13.282741
2490.000000	14.664727
2480.000000	14.318628
2470.000000	13.336870
2460.000000	14.123635
2450.000000	12.295485
2440.000000	13.105912
2430.000000	14.055696
2420.000000	14.355772
2410.000000	16.307412
2400.000000	14.875362
2390.000000	15.386525
2380.000000	14.209885
2370.000000	15.178706
2360.000000	14.983624
2350.000000	15.005730
2340.000000	14.502476
2330.000000	14.674460
2320.000000	13.729861
2310.000000	14.029504
2300.000000	13.869001
2290.000000	14.502590
2280.000000	14.956970
2270.000000	15.415988
2260.000000	16.515803
2250.000000	16.220612
2240.000000	16.633281
2230.000000	16.306125
2220.000000	16.075831
2210.000000	15.060608
2200.000000	15.160503
2190.000000	14.798701
2180.000000	15.834796
2170.000000	16.495645
2160.000000	16.939526
2150.000000	17.639202
2140.000000	18.899285
2130.000000	17.781322
2120.000000	18.932874
2110.000000	19.283168
2100.000000	17.804840
2090.000000	17.451319
2080.000000	17.027867
2070.000000	15.732232
2060.000000	16.471124
2050.000000	16.779625
2040.000000	16.843848
2030.000000	16.601740
2020.000000	16.104415
2010.000000	15.370458
2000.000000	14.857003
1990.000000	14.238594
1980.000000	13.185644
1970.000000	12.669698
1960.000000	12.982958
1950.000000	13.472783
1940.000000	15.056449
1930.000000	17.888576
1920.000000	20.290962
1910.000000	23.624777
1900.000000	24.393480
1890.000000	25.855306
1880.000000	27.725163
1870.000000	27.038148
1860.000000	27.113679
1850.000000	27.555570
1840.000000	27.305073
1830.000000	26.967466
1820.000000	26.681356
1810.000000	26.328742
1800.000000	25.546639
1790.000000	25.304813
1780.000000	25.258782
1770.000000	24.929261
1760.000000	24.910055
1750.000000	24.816782
1740.000000	25.170246
1730.000000	25.787495
1720.000000	26.035286
1710.000000	26.319034
1700.000000	27.048167
1690.000000	27.972330
1680.000000	28.424112
1670.000000	28.463531
1660.000000	28.474807
1650.000000	28.478837
1640.000000	28.174743
1630.000000	27.825661
1620.000000	27.246148
1610.000000	26.715996
1600.000000	26.368426
1590.000000	26.192085
1580.000000	26.172448
1570.000000	26.285401
1560.000000	26.087766
1550.000000	25.646166
1540.000000	25.334384
1530.000000	24.946821
1520.000000	24.512495
1510.000000	24.367581
1500.000000	24.598114
1490.000000	24.951884
1480.000000	25.369413
1470.000000	25.624357
1460.000000	26.026018
1450.000000	26.340142
1440.000000	26.600575
1430.000000	27.027298
1420.000000	28.421098
1410.000000	30.050909
1400.000000	31.794516
1390.000000	32.055854
1380.000000	31.794390
1370.000000	32.708440
1360.000000	32.159749
1350.000000	32.095069
1340.000000	32.624725
1330.000000	32.861300
1320.000000	32.811995
1310.000000	32.480957
1300.000000	32.504112
1290.000000	32.715404
1280.000000	32.899980
1270.000000	32.509754
1260.000000	32.082707
1250.000000	31.895645
1240.000000	32.469169
1230.000000	32.950637
1220.000000	32.874629
1210.000000	32.069444
1200.000000	31.715406
1190.000000	32.112460
1180.000000	32.496781
1170.000000	32.778692
1160.000000	33.093160
1150.000000	33.072541
1140.000000	33.283729
1130.000000	33.472155
1120.000000	33.513352
1110.000000	33.600011
1100.000000	33.583984
1090.000000	33.580628
1080.000000	33.590839
1070.000000	33.486698
1060.000000	33.591458
1050.000000	33.659879
1040.000000	33.541356
1030.000000	33.624589
1020.000000	33.945148
1010.000000	34.095334
1000.000000	34.045385
990.000000	33.806436
980.000000	33.708507
970.000000	33.655839
960.000000	33.458606
950.000000	33.480160
940.000000	33.245912
930.000000	33.056815
920.000000	32.840317
910.000000	32.872189
900.000000	33.002851
890.000000	33.024156
880.000000	32.968905
870.000000	33.740599
860.000000	33.770727
850.000000	43.046168
840.000000	42.919951
830.000000	42.427311
820.000000	42.323681
810.000000	42.418554
800.000000	42.524179
790.000000	42.434967
780.000000	42.468199
770.000000	42.396776
760.000000	42.313370
750.000000	42.321826
740.000000	42.158701
730.000000	42.109919
720.000000	41.933438
710.000000	42.036717
700.000000	41.924092
690.000000	41.916266
680.000000	41.870881
670.000000	41.651259
660.000000	41.684108
650.000000	41.530732
640.000000	41.457933
630.000000	41.365776
620.000000	41.194262
610.000000	40.985256
600.000000	40.761992
590.000000	40.579459
580.000000	40.283289
570.000000	40.111933
560.000000	39.709072
550.000000	39.472977
540.000000	39.203544
530.000000	38.953861
520.000000	38.376872
510.000000	37.223423
500.000000	36.376558
490.000000	36.547304
480.000000	36.414932
470.000000	34.525909
460.000000	33.326726
450.000000	32.514695
440.000000	31.195713
430.000000	29.630097
420.000000	27.878670
410.000000	25.988716
400.000000	23.992930
390.000000	22.167899
380.000000	20.255811
370.000000	18.315417
360.000000	15.730416
350.000000	14.169782
340.000000	12.836324
330.000000	11.835520
320.000000	10.999672
310.000000	10.494168
300.000000	17.477497
290.000000	14.045693
280.000000	13.318798
270.000000	13.396902
260.000000	13.975538
250.000000	14.228703
