PE UV       SUBTECH     SPECTRUM    ASCII       PEDS        4.00        
   -1
TTAgneau 42.Sample.asc
18/02/28
15:33:33.00
18/02/28
15:33:33.00
Administrator

200.000000
1
Lambda 750
750N8071901
PerkinElmer UV WinLab 6.0.4.0738 / 1.61.00 Lambda 900

0
0
3350/servo 860.8/2
0
0
UV/VIS
1
1
1
CommonBeamDepol,150mm sphere / downward view
0
0
0
0
Program
Program
3350/servo 860.8/2
3350/0.2 860.8/0.2
3350/0.2 860.8/0.2
0
1
 
 
 
0
 
860.8
319.2
860.8
Front
100
on
 
 
0
0
0
 
0
 
 
 
0
 
 
0
0
0
0
0
 
 
 
 
0
0


0
0
#HDR
-1
-1
#GR
nm
%T
1.0
0.0
2350.000000
-1.000000
2151
8
30.502913
0.064196
#DATA
2350.000000	8.932374
2349.000000	9.475448
2348.000000	9.484063
2347.000000	9.474650
2346.000000	8.965787
2345.000000	9.399468
2344.000000	9.104160
2343.000000	8.773967
2342.000000	9.235523
2341.000000	9.329084
2340.000000	8.999493
2339.000000	9.427184
2338.000000	9.534470
2337.000000	9.540172
2336.000000	9.524653
2335.000000	9.946694
2334.000000	9.874607
2333.000000	10.191674
2332.000000	10.145594
2331.000000	9.850533
2330.000000	9.960913
2329.000000	9.836865
2328.000000	9.553215
2327.000000	9.723094
2326.000000	9.730648
2325.000000	9.581021
2324.000000	9.749567
2323.000000	9.588390
2322.000000	9.562364
2321.000000	9.757554
2320.000000	9.490568
2319.000000	9.271752
2318.000000	9.549376
2317.000000	9.701915
2316.000000	9.482787
2315.000000	9.288621
2314.000000	9.371497
2313.000000	9.227618
2312.000000	9.117503
2311.000000	9.169590
2310.000000	9.196222
2309.000000	9.187719
2308.000000	9.153245
2307.000000	9.162175
2306.000000	8.916410
2305.000000	8.857388
2304.000000	8.645847
2303.000000	8.818571
2302.000000	9.026805
2301.000000	8.723182
2300.000000	8.582339
2299.000000	8.486327
2298.000000	8.457681
2297.000000	8.520616
2296.000000	8.541814
2295.000000	8.453694
2294.000000	8.392491
2293.000000	8.386283
2292.000000	8.166295
2291.000000	8.200722
2290.000000	8.361394
2289.000000	8.286824
2288.000000	8.495799
2287.000000	8.454652
2286.000000	8.157492
2285.000000	8.036068
2284.000000	8.049979
2283.000000	7.871910
2282.000000	8.086931
2281.000000	8.241414
2280.000000	8.098239
2279.000000	8.187344
2278.000000	7.913098
2277.000000	7.931923
2276.000000	8.202757
2275.000000	8.253284
2274.000000	8.304383
2273.000000	8.322983
2272.000000	8.275679
2271.000000	8.278909
2270.000000	8.281048
2269.000000	8.406140
2268.000000	8.407021
2267.000000	8.326983
2266.000000	8.385433
2265.000000	8.561245
2264.000000	8.713476
2263.000000	8.797427
2262.000000	8.762395
2261.000000	8.813417
2260.000000	8.828884
2259.000000	8.947693
2258.000000	9.014215
2257.000000	9.030596
2256.000000	9.250620
2255.000000	9.473217
2254.000000	9.633818
2253.000000	9.711750
2252.000000	9.832071
2251.000000	9.889693
2250.000000	9.987351
2249.000000	10.168444
2248.000000	10.157274
2247.000000	10.252456
2246.000000	10.374435
2245.000000	10.422523
2244.000000	10.654561
2243.000000	10.835640
2242.000000	11.058516
2241.000000	11.101208
2240.000000	10.989696
2239.000000	11.058852
2238.000000	11.179492
2237.000000	11.288704
2236.000000	11.362739
2235.000000	11.337062
2234.000000	11.417460
2233.000000	11.437123
2232.000000	11.487901
2231.000000	11.586914
2230.000000	11.623892
2229.000000	11.583012
2228.000000	11.618968
2227.000000	11.622346
2226.000000	11.603449
2225.000000	11.616681
2224.000000	11.668885
2223.000000	11.652221
2222.000000	11.633262
2221.000000	11.538251
2220.000000	11.484473
2219.000000	11.603163
2218.000000	11.728637
2217.000000	11.709236
2216.000000	11.540479
2215.000000	11.466256
2214.000000	11.540593
2213.000000	11.599175
2212.000000	11.431987
2211.000000	11.339100
2210.000000	11.298040
2209.000000	11.187358
2208.000000	11.186249
2207.000000	11.109708
2206.000000	10.992152
2205.000000	10.932100
2204.000000	11.014472
2203.000000	10.942207
2202.000000	10.887859
2201.000000	10.986072
2200.000000	10.954538
2199.000000	10.935340
2198.000000	10.915279
2197.000000	10.699237
2196.000000	10.600774
2195.000000	10.552733
2194.000000	10.518575
2193.000000	10.495486
2192.000000	10.506482
2191.000000	10.469766
2190.000000	10.475148
2189.000000	10.482456
2188.000000	10.371401
2187.000000	10.267867
2186.000000	10.197884
2185.000000	10.290147
2184.000000	10.213079
2183.000000	10.150911
2182.000000	10.110341
2181.000000	10.189841
2180.000000	10.069414
2179.000000	10.042423
2178.000000	9.991937
2177.000000	10.028243
2176.000000	9.950394
2175.000000	10.041957
2174.000000	10.068029
2173.000000	9.987176
2172.000000	9.979741
2171.000000	9.995931
2170.000000	10.070901
2169.000000	10.117027
2168.000000	10.186534
2167.000000	10.307566
2166.000000	10.270262
2165.000000	10.192390
2164.000000	10.210572
2163.000000	10.263641
2162.000000	10.471274
2161.000000	10.593172
2160.000000	10.543111
2159.000000	10.678910
2158.000000	10.822940
2157.000000	10.770349
2156.000000	10.983350
2155.000000	10.954294
2154.000000	11.118205
2153.000000	11.087716
2152.000000	11.181866
2151.000000	11.238421
2150.000000	11.605286
2149.000000	11.613906
2148.000000	11.695928
2147.000000	11.655448
2146.000000	11.630495
2145.000000	11.880785
2144.000000	11.969601
2143.000000	11.989897
2142.000000	12.100264
2141.000000	12.076872
2140.000000	12.358732
2139.000000	12.550793
2138.000000	12.475998
2137.000000	12.575035
2136.000000	12.466410
2135.000000	12.632161
2134.000000	12.725795
2133.000000	12.644624
2132.000000	12.761369
2131.000000	12.722465
2130.000000	12.772683
2129.000000	12.755183
2128.000000	12.935155
2127.000000	12.904219
2126.000000	12.803374
2125.000000	13.072823
2124.000000	13.041802
2123.000000	13.030715
2122.000000	13.045916
2121.000000	13.066442
2120.000000	13.106756
2119.000000	13.107184
2118.000000	13.406079
2117.000000	13.395033
2116.000000	13.334111
2115.000000	13.422903
2114.000000	13.440454
2113.000000	13.308522
2112.000000	13.430101
2111.000000	13.414333
2110.000000	13.495803
2109.000000	13.418562
2108.000000	13.442440
2107.000000	13.519949
2106.000000	13.417727
2105.000000	13.406802
2104.000000	13.583322
2103.000000	13.560426
2102.000000	13.614314
2101.000000	13.587195
2100.000000	13.690852
2099.000000	13.609014
2098.000000	13.636327
2097.000000	13.588527
2096.000000	13.552786
2095.000000	13.555781
2094.000000	13.576059
2093.000000	13.535738
2092.000000	13.571772
2091.000000	13.606361
2090.000000	13.685136
2089.000000	13.547270
2088.000000	13.492698
2087.000000	13.485892
2086.000000	13.538762
2085.000000	13.487230
2084.000000	13.435913
2083.000000	13.422631
2082.000000	13.455757
2081.000000	13.412091
2080.000000	13.282277
2079.000000	13.297719
2078.000000	13.248005
2077.000000	13.249321
2076.000000	13.067559
2075.000000	13.004697
2074.000000	12.983876
2073.000000	13.006885
2072.000000	12.897750
2071.000000	12.866820
2070.000000	12.840568
2069.000000	12.700829
2068.000000	12.594624
2067.000000	12.507671
2066.000000	12.460054
2065.000000	12.356552
2064.000000	12.246415
2063.000000	12.158114
2062.000000	12.086139
2061.000000	12.031895
2060.000000	11.914752
2059.000000	11.834481
2058.000000	11.710617
2057.000000	11.595266
2056.000000	11.506271
2055.000000	11.532625
2054.000000	11.382580
2053.000000	11.176137
2052.000000	11.115060
2051.000000	11.037913
2050.000000	11.016978
2049.000000	11.030561
2048.000000	10.961691
2047.000000	10.928629
2046.000000	10.887733
2045.000000	10.851713
2044.000000	10.861820
2043.000000	10.841139
2042.000000	10.794047
2041.000000	10.815698
2040.000000	10.825361
2039.000000	10.808993
2038.000000	10.847981
2037.000000	10.909082
2036.000000	10.924783
2035.000000	10.969520
2034.000000	11.036241
2033.000000	11.095207
2032.000000	11.179666
2031.000000	11.273319
2030.000000	11.325227
2029.000000	11.445751
2028.000000	11.594821
2027.000000	11.648855
2026.000000	11.717749
2025.000000	11.808638
2024.000000	11.845028
2023.000000	11.903003
2022.000000	11.975533
2021.000000	12.037504
2020.000000	12.152343
2019.000000	12.191844
2018.000000	12.211200
2017.000000	12.271492
2016.000000	12.278654
2015.000000	12.298859
2014.000000	12.299594
2013.000000	12.323623
2012.000000	12.347141
2011.000000	12.387195
2010.000000	12.412746
2009.000000	12.373499
2008.000000	12.330819
2007.000000	12.256592
2006.000000	12.234086
2005.000000	12.262588
2004.000000	12.212631
2003.000000	12.170837
2002.000000	12.117200
2001.000000	12.076797
2000.000000	12.064752
1999.000000	12.061951
1998.000000	12.005482
1997.000000	11.961424
1996.000000	11.966582
1995.000000	11.886185
1994.000000	11.772598
1993.000000	11.698768
1992.000000	11.669278
1991.000000	11.611911
1990.000000	11.557568
1989.000000	11.490506
1988.000000	11.441322
1987.000000	11.425845
1986.000000	11.413201
1985.000000	11.374303
1984.000000	11.266254
1983.000000	11.226487
1982.000000	11.183525
1981.000000	11.110334
1980.000000	11.074034
1979.000000	11.031685
1978.000000	10.952118
1977.000000	10.922501
1976.000000	10.853195
1975.000000	10.802359
1974.000000	10.779115
1973.000000	10.744993
1972.000000	10.672075
1971.000000	10.620605
1970.000000	10.572631
1969.000000	10.525340
1968.000000	10.516381
1967.000000	10.420067
1966.000000	10.401979
1965.000000	10.313731
1964.000000	10.232349
1963.000000	10.200245
1962.000000	10.133857
1961.000000	10.096900
1960.000000	10.058830
1959.000000	10.009677
1958.000000	9.977452
1957.000000	9.957704
1956.000000	9.912207
1955.000000	9.879356
1954.000000	9.775216
1953.000000	9.761475
1952.000000	9.746016
1951.000000	9.726740
1950.000000	9.653851
1949.000000	9.663337
1948.000000	9.624987
1947.000000	9.634831
1946.000000	9.551844
1945.000000	9.609180
1944.000000	9.538047
1943.000000	9.568072
1942.000000	9.602294
1941.000000	9.657058
1940.000000	9.659715
1939.000000	9.718469
1938.000000	9.733747
1937.000000	9.836163
1936.000000	9.827343
1935.000000	9.890299
1934.000000	9.941705
1933.000000	9.900897
1932.000000	10.026747
1931.000000	10.156685
1930.000000	10.277679
1929.000000	10.286369
1928.000000	10.444369
1927.000000	10.629903
1926.000000	10.666986
1925.000000	10.768008
1924.000000	10.906192
1923.000000	11.077177
1922.000000	11.240815
1921.000000	11.377049
1920.000000	11.492284
1919.000000	11.707352
1918.000000	11.817484
1917.000000	12.090999
1916.000000	12.230637
1915.000000	12.414513
1914.000000	12.652532
1913.000000	12.934824
1912.000000	13.076818
1911.000000	13.323654
1910.000000	13.487048
1909.000000	13.742423
1908.000000	13.969662
1907.000000	14.213297
1906.000000	14.409572
1905.000000	14.775949
1904.000000	15.038584
1903.000000	15.272536
1902.000000	15.565690
1901.000000	15.906434
1900.000000	16.165162
1899.000000	16.541844
1898.000000	16.847338
1897.000000	17.114634
1896.000000	17.407944
1895.000000	17.705482
1894.000000	17.933142
1893.000000	18.248317
1892.000000	18.529335
1891.000000	18.834932
1890.000000	19.091539
1889.000000	19.341656
1888.000000	19.580592
1887.000000	19.877017
1886.000000	20.126729
1885.000000	20.385874
1884.000000	20.605056
1883.000000	20.895939
1882.000000	21.078531
1881.000000	21.309748
1880.000000	21.487608
1879.000000	21.653126
1878.000000	21.827800
1877.000000	22.000459
1876.000000	22.149018
1875.000000	22.314769
1874.000000	22.460637
1873.000000	22.545439
1872.000000	22.675375
1871.000000	22.786406
1870.000000	22.862624
1869.000000	23.015327
1868.000000	23.117257
1867.000000	23.153099
1866.000000	23.202580
1865.000000	23.224314
1864.000000	23.263019
1863.000000	23.342841
1862.000000	23.362281
1861.000000	23.434786
1860.000000	23.468867
1859.000000	23.445449
1858.000000	23.472457
1857.000000	23.514920
1856.000000	23.514138
1855.000000	23.539604
1854.000000	23.557571
1853.000000	23.581403
1852.000000	23.561771
1851.000000	23.559269
1850.000000	23.561666
1849.000000	23.566610
1848.000000	23.558236
1847.000000	23.554959
1846.000000	23.555313
1845.000000	23.518412
1844.000000	23.524171
1843.000000	23.499439
1842.000000	23.458092
1841.000000	23.440812
1840.000000	23.436056
1839.000000	23.388582
1838.000000	23.369622
1837.000000	23.331598
1836.000000	23.316475
1835.000000	23.297070
1834.000000	23.263270
1833.000000	23.254870
1832.000000	23.210862
1831.000000	23.167544
1830.000000	23.157570
1829.000000	23.124165
1828.000000	23.081009
1827.000000	23.046457
1826.000000	23.033305
1825.000000	23.004923
1824.000000	22.992530
1823.000000	22.980743
1822.000000	22.937063
1821.000000	22.914700
1820.000000	22.880729
1819.000000	22.839529
1818.000000	22.822940
1817.000000	22.813208
1816.000000	22.810634
1815.000000	22.790374
1814.000000	22.749947
1813.000000	22.712969
1812.000000	22.680104
1811.000000	22.646637
1810.000000	22.629154
1809.000000	22.618849
1808.000000	22.600878
1807.000000	22.579926
1806.000000	22.571271
1805.000000	22.546287
1804.000000	22.520570
1803.000000	22.515577
1802.000000	22.487361
1801.000000	22.458265
1800.000000	22.452565
1799.000000	22.441598
1798.000000	22.426770
1797.000000	22.411623
1796.000000	22.391273
1795.000000	22.385832
1794.000000	22.389672
1793.000000	22.385414
1792.000000	22.375129
1791.000000	22.347318
1790.000000	22.316193
1789.000000	22.321230
1788.000000	22.314689
1787.000000	22.287743
1786.000000	22.285335
1785.000000	22.249387
1784.000000	22.213168
1783.000000	22.222605
1782.000000	22.199769
1781.000000	22.167357
1780.000000	22.132097
1779.000000	22.108865
1778.000000	22.075463
1777.000000	22.041938
1776.000000	22.020122
1775.000000	21.973162
1774.000000	21.915463
1773.000000	21.885208
1772.000000	21.815757
1771.000000	21.764473
1770.000000	21.720808
1769.000000	21.674917
1768.000000	21.660998
1767.000000	21.626105
1766.000000	21.540179
1765.000000	21.504475
1764.000000	21.483979
1763.000000	21.435897
1762.000000	21.392665
1761.000000	21.337191
1760.000000	21.269780
1759.000000	21.232947
1758.000000	21.179199
1757.000000	21.142692
1756.000000	21.107236
1755.000000	21.063368
1754.000000	21.017453
1753.000000	20.973779
1752.000000	20.940063
1751.000000	20.894379
1750.000000	20.847859
1749.000000	20.798368
1748.000000	20.789252
1747.000000	20.705349
1746.000000	20.661543
1745.000000	20.618212
1744.000000	20.588873
1743.000000	20.553341
1742.000000	20.495380
1741.000000	20.467130
1740.000000	20.420634
1739.000000	20.364555
1738.000000	20.335092
1737.000000	20.311433
1736.000000	20.308317
1735.000000	20.280877
1734.000000	20.289691
1733.000000	20.264518
1732.000000	20.267442
1731.000000	20.251264
1730.000000	20.256660
1729.000000	20.264201
1728.000000	20.314080
1727.000000	20.322039
1726.000000	20.369603
1725.000000	20.436847
1724.000000	20.459312
1723.000000	20.483790
1722.000000	20.555651
1721.000000	20.594996
1720.000000	20.653785
1719.000000	20.752513
1718.000000	20.808407
1717.000000	20.849745
1716.000000	20.920216
1715.000000	20.983293
1714.000000	21.040591
1713.000000	21.112592
1712.000000	21.165919
1711.000000	21.194782
1710.000000	21.203424
1709.000000	21.242992
1708.000000	21.285679
1707.000000	21.309937
1706.000000	21.348800
1705.000000	21.378224
1704.000000	21.411003
1703.000000	21.395098
1702.000000	21.393281
1701.000000	21.415608
1700.000000	21.410499
1699.000000	21.420552
1698.000000	21.483303
1697.000000	21.480639
1696.000000	21.512551
1695.000000	21.543163
1694.000000	21.558027
1693.000000	21.580549
1692.000000	21.620329
1691.000000	21.665548
1690.000000	21.730441
1689.000000	21.767310
1688.000000	21.855467
1687.000000	21.938226
1686.000000	22.027984
1685.000000	22.096319
1684.000000	22.199060
1683.000000	22.302078
1682.000000	22.421508
1681.000000	22.535435
1680.000000	22.656457
1679.000000	22.763834
1678.000000	22.901137
1677.000000	23.021845
1676.000000	23.133336
1675.000000	23.261881
1674.000000	23.379370
1673.000000	23.507910
1672.000000	23.595112
1671.000000	23.726329
1670.000000	23.835505
1669.000000	23.966042
1668.000000	24.072934
1667.000000	24.145618
1666.000000	24.200769
1665.000000	24.257844
1664.000000	24.320545
1663.000000	24.399058
1662.000000	24.481247
1661.000000	24.515471
1660.000000	24.577781
1659.000000	24.620200
1658.000000	24.662185
1657.000000	24.712789
1656.000000	24.731578
1655.000000	24.753463
1654.000000	24.769902
1653.000000	24.787181
1652.000000	24.801585
1651.000000	24.789126
1650.000000	24.794137
1649.000000	24.809374
1648.000000	24.801196
1647.000000	24.799124
1646.000000	24.793056
1645.000000	24.765198
1644.000000	24.761114
1643.000000	24.750223
1642.000000	24.741533
1641.000000	24.726612
1640.000000	24.712747
1639.000000	24.687507
1638.000000	24.667890
1637.000000	24.651985
1636.000000	24.608555
1635.000000	24.598227
1634.000000	24.575493
1633.000000	24.527034
1632.000000	24.522118
1631.000000	24.507518
1630.000000	24.476725
1629.000000	24.447192
1628.000000	24.428947
1627.000000	24.410090
1626.000000	24.381000
1625.000000	24.359282
1624.000000	24.318868
1623.000000	24.287685
1622.000000	24.267081
1621.000000	24.221624
1620.000000	24.192355
1619.000000	24.168116
1618.000000	24.125285
1617.000000	24.099817
1616.000000	24.064228
1615.000000	24.032718
1614.000000	24.001385
1613.000000	23.967422
1612.000000	23.926006
1611.000000	23.880727
1610.000000	23.849093
1609.000000	23.809702
1608.000000	23.778232
1607.000000	23.749957
1606.000000	23.709722
1605.000000	23.669278
1604.000000	23.631389
1603.000000	23.581671
1602.000000	23.544240
1601.000000	23.507269
1600.000000	23.457358
1599.000000	23.420163
1598.000000	23.388869
1597.000000	23.356902
1596.000000	23.328731
1595.000000	23.287797
1594.000000	23.246484
1593.000000	23.220895
1592.000000	23.190678
1591.000000	23.148143
1590.000000	23.113617
1589.000000	23.076090
1588.000000	23.036629
1587.000000	23.020380
1586.000000	22.994649
1585.000000	22.958529
1584.000000	22.926075
1583.000000	22.897607
1582.000000	22.870988
1581.000000	22.840357
1580.000000	22.801793
1579.000000	22.768065
1578.000000	22.751079
1577.000000	22.726969
1576.000000	22.695584
1575.000000	22.670296
1574.000000	22.635565
1573.000000	22.605343
1572.000000	22.587115
1571.000000	22.557188
1570.000000	22.519264
1569.000000	22.499021
1568.000000	22.468755
1567.000000	22.441022
1566.000000	22.429774
1565.000000	22.413025
1564.000000	22.380053
1563.000000	22.364693
1562.000000	22.359901
1561.000000	22.330692
1560.000000	22.316580
1559.000000	22.293803
1558.000000	22.279531
1557.000000	22.272599
1556.000000	22.255661
1555.000000	22.238883
1554.000000	22.222762
1553.000000	22.203501
1552.000000	22.196224
1551.000000	22.174317
1550.000000	22.142741
1549.000000	22.120324
1548.000000	22.096486
1547.000000	22.052051
1546.000000	22.027569
1545.000000	21.986876
1544.000000	21.938029
1543.000000	21.889546
1542.000000	21.843440
1541.000000	21.785219
1540.000000	21.725085
1539.000000	21.673475
1538.000000	21.621996
1537.000000	21.563652
1536.000000	21.497955
1535.000000	21.439006
1534.000000	21.373362
1533.000000	21.324158
1532.000000	21.256600
1531.000000	21.212014
1530.000000	21.158524
1529.000000	21.151612
1528.000000	21.164384
1527.000000	21.163473
1526.000000	21.112891
1525.000000	21.032013
1524.000000	20.950573
1523.000000	20.885558
1522.000000	20.821416
1521.000000	20.761355
1520.000000	20.701720
1519.000000	20.693581
1518.000000	20.699746
1517.000000	20.677421
1516.000000	20.636244
1515.000000	20.578102
1514.000000	20.547697
1513.000000	20.503908
1512.000000	20.469782
1511.000000	20.476646
1510.000000	20.474747
1509.000000	20.446367
1508.000000	20.401439
1507.000000	20.381137
1506.000000	20.354293
1505.000000	20.332328
1504.000000	20.362789
1503.000000	20.366123
1502.000000	20.356862
1501.000000	20.329222
1500.000000	20.319269
1499.000000	20.315149
1498.000000	20.339575
1497.000000	20.315768
1496.000000	20.320443
1495.000000	20.325818
1494.000000	20.349546
1493.000000	20.375647
1492.000000	20.401378
1491.000000	20.431052
1490.000000	20.464006
1489.000000	20.518475
1488.000000	20.554481
1487.000000	20.587509
1486.000000	20.639069
1485.000000	20.684921
1484.000000	20.744662
1483.000000	20.818523
1482.000000	20.860775
1481.000000	20.929548
1480.000000	20.981283
1479.000000	21.049261
1478.000000	21.101264
1477.000000	21.161932
1476.000000	21.227942
1475.000000	21.289282
1474.000000	21.339199
1473.000000	21.391847
1472.000000	21.448842
1471.000000	21.482661
1470.000000	21.535013
1469.000000	21.575627
1468.000000	21.614519
1467.000000	21.704192
1466.000000	21.757879
1465.000000	21.785690
1464.000000	21.798586
1463.000000	21.850178
1462.000000	21.919485
1461.000000	21.958751
1460.000000	21.986486
1459.000000	22.003029
1458.000000	22.040170
1457.000000	22.097937
1456.000000	22.147828
1455.000000	22.174432
1454.000000	22.196150
1453.000000	22.237844
1452.000000	22.282938
1451.000000	22.351015
1450.000000	22.379479
1449.000000	22.398144
1448.000000	22.432356
1447.000000	22.512370
1446.000000	22.577843
1445.000000	22.603667
1444.000000	22.636147
1443.000000	22.677787
1442.000000	22.751813
1441.000000	22.805926
1440.000000	22.849866
1439.000000	22.880458
1438.000000	22.941598
1437.000000	22.988398
1436.000000	23.032237
1435.000000	23.091572
1434.000000	23.148332
1433.000000	23.211286
1432.000000	23.307307
1431.000000	23.379498
1430.000000	23.438910
1429.000000	23.501544
1428.000000	23.568157
1427.000000	23.645527
1426.000000	23.724511
1425.000000	23.807377
1424.000000	23.903261
1423.000000	23.983793
1422.000000	24.056232
1421.000000	24.132744
1420.000000	24.218057
1419.000000	24.323740
1418.000000	24.416068
1417.000000	24.516850
1416.000000	24.625082
1415.000000	24.734061
1414.000000	24.820083
1413.000000	24.928526
1412.000000	25.034106
1411.000000	25.141979
1410.000000	25.262964
1409.000000	25.379617
1408.000000	25.477931
1407.000000	25.552271
1406.000000	25.653659
1405.000000	25.763263
1404.000000	25.873522
1403.000000	25.980286
1402.000000	26.073588
1401.000000	26.165237
1400.000000	26.259096
1399.000000	26.345821
1398.000000	26.426498
1397.000000	26.509487
1396.000000	26.601125
1395.000000	26.685171
1394.000000	26.762661
1393.000000	26.838049
1392.000000	26.919128
1391.000000	27.002695
1390.000000	27.092997
1389.000000	27.195365
1388.000000	27.263293
1387.000000	27.310119
1386.000000	27.381113
1385.000000	27.459523
1384.000000	27.520779
1383.000000	27.570774
1382.000000	27.614992
1381.000000	27.682831
1380.000000	27.730622
1379.000000	27.754734
1378.000000	27.805262
1377.000000	27.842350
1376.000000	27.880228
1375.000000	27.926335
1374.000000	27.957813
1373.000000	27.974083
1372.000000	27.988050
1371.000000	28.027014
1370.000000	28.076666
1369.000000	28.111715
1368.000000	28.133727
1367.000000	28.159199
1366.000000	28.192536
1365.000000	28.224579
1364.000000	28.251060
1363.000000	28.276650
1362.000000	28.305677
1361.000000	28.334844
1360.000000	28.361284
1359.000000	28.402160
1358.000000	28.437481
1357.000000	28.442798
1356.000000	28.479927
1355.000000	28.528814
1354.000000	28.576647
1353.000000	28.598051
1352.000000	28.618502
1351.000000	28.669231
1350.000000	28.722147
1349.000000	28.749703
1348.000000	28.769214
1347.000000	28.790750
1346.000000	28.819020
1345.000000	28.831958
1344.000000	28.878715
1343.000000	28.948221
1342.000000	28.968393
1341.000000	28.992545
1340.000000	29.018967
1339.000000	29.040729
1338.000000	29.053472
1337.000000	29.069821
1336.000000	29.089661
1335.000000	29.110964
1334.000000	29.132380
1333.000000	29.153640
1332.000000	29.188618
1331.000000	29.230025
1330.000000	29.243679
1329.000000	29.253234
1328.000000	29.251256
1327.000000	29.274971
1326.000000	29.293977
1325.000000	29.280485
1324.000000	29.303492
1323.000000	29.321460
1322.000000	29.320146
1321.000000	29.334236
1320.000000	29.343518
1319.000000	29.337420
1318.000000	29.361970
1317.000000	29.380698
1316.000000	29.384251
1315.000000	29.377055
1314.000000	29.392700
1313.000000	29.398457
1312.000000	29.401084
1311.000000	29.403150
1310.000000	29.405293
1309.000000	29.437322
1308.000000	29.438630
1307.000000	29.431837
1306.000000	29.427235
1305.000000	29.452334
1304.000000	29.472715
1303.000000	29.468227
1302.000000	29.454596
1301.000000	29.441413
1300.000000	29.451339
1299.000000	29.437921
1298.000000	29.441652
1297.000000	29.441370
1296.000000	29.449244
1295.000000	29.450888
1294.000000	29.438179
1293.000000	29.433274
1292.000000	29.445058
1291.000000	29.435791
1290.000000	29.429630
1289.000000	29.432689
1288.000000	29.426747
1287.000000	29.443407
1286.000000	29.429212
1285.000000	29.429526
1284.000000	29.424795
1283.000000	29.374878
1282.000000	29.362384
1281.000000	29.367946
1280.000000	29.368111
1279.000000	29.386736
1278.000000	29.384490
1277.000000	29.384934
1276.000000	29.368272
1275.000000	29.371921
1274.000000	29.376143
1273.000000	29.358548
1272.000000	29.369942
1271.000000	29.346829
1270.000000	29.367010
1269.000000	29.369842
1268.000000	29.361690
1267.000000	29.357437
1266.000000	29.367115
1265.000000	29.385015
1264.000000	29.436808
1263.000000	29.406601
1262.000000	29.402825
1261.000000	29.397911
1260.000000	29.388683
1259.000000	29.426989
1258.000000	29.451645
1257.000000	29.434973
1256.000000	29.436204
1255.000000	29.425876
1254.000000	29.423857
1253.000000	29.397515
1252.000000	29.429313
1251.000000	29.434117
1250.000000	29.423022
1249.000000	29.432270
1248.000000	29.431481
1247.000000	29.427040
1246.000000	29.409536
1245.000000	29.430305
1244.000000	29.426009
1243.000000	29.424331
1242.000000	29.418444
1241.000000	29.398544
1240.000000	29.396939
1239.000000	29.354061
1238.000000	29.335640
1237.000000	29.334131
1236.000000	29.332293
1235.000000	29.273623
1234.000000	29.282659
1233.000000	29.278206
1232.000000	29.248483
1231.000000	29.215502
1230.000000	29.202429
1229.000000	29.208943
1228.000000	29.184265
1227.000000	29.141605
1226.000000	29.140729
1225.000000	29.136208
1224.000000	29.129354
1223.000000	29.131233
1222.000000	29.119046
1221.000000	29.102728
1220.000000	29.092079
1219.000000	29.068149
1218.000000	29.046191
1217.000000	29.030361
1216.000000	29.014100
1215.000000	28.994584
1214.000000	29.014571
1213.000000	28.995480
1212.000000	28.955645
1211.000000	28.933562
1210.000000	28.929034
1209.000000	28.892416
1208.000000	28.855609
1207.000000	28.832130
1206.000000	28.821427
1205.000000	28.812742
1204.000000	28.784288
1203.000000	28.781771
1202.000000	28.760020
1201.000000	28.713368
1200.000000	28.699994
1199.000000	28.690106
1198.000000	28.665494
1197.000000	28.633022
1196.000000	28.611095
1195.000000	28.589071
1194.000000	28.565643
1193.000000	28.572548
1192.000000	28.592689
1191.000000	28.588167
1190.000000	28.533083
1189.000000	28.460430
1188.000000	28.464731
1187.000000	28.463861
1186.000000	28.450644
1185.000000	28.439395
1184.000000	28.447209
1183.000000	28.459950
1182.000000	28.475600
1181.000000	28.479666
1180.000000	28.500236
1179.000000	28.524803
1178.000000	28.555088
1177.000000	28.574326
1176.000000	28.595651
1175.000000	28.625981
1174.000000	28.655337
1173.000000	28.693940
1172.000000	28.723645
1171.000000	28.758792
1170.000000	28.798801
1169.000000	28.839998
1168.000000	28.877476
1167.000000	28.921825
1166.000000	28.963807
1165.000000	28.992395
1164.000000	29.039888
1163.000000	29.092667
1162.000000	29.129451
1161.000000	29.163291
1160.000000	29.213483
1159.000000	29.261855
1158.000000	29.295723
1157.000000	29.324097
1156.000000	29.365027
1155.000000	29.405375
1154.000000	29.427647
1153.000000	29.465043
1152.000000	29.475271
1151.000000	29.483495
1150.000000	29.516428
1149.000000	29.544606
1148.000000	29.568325
1147.000000	29.602083
1146.000000	29.625673
1145.000000	29.651493
1144.000000	29.685214
1143.000000	29.711589
1142.000000	29.737761
1141.000000	29.765190
1140.000000	29.791800
1139.000000	29.800289
1138.000000	29.824274
1137.000000	29.861638
1136.000000	29.886890
1135.000000	29.910069
1134.000000	29.931137
1133.000000	29.942882
1132.000000	29.953341
1131.000000	29.956357
1130.000000	29.950110
1129.000000	29.971706
1128.000000	29.997932
1127.000000	30.021767
1126.000000	30.031194
1125.000000	30.037638
1124.000000	30.046351
1123.000000	30.061844
1122.000000	30.072251
1121.000000	30.077962
1120.000000	30.086584
1119.000000	30.084918
1118.000000	30.092624
1117.000000	30.100929
1116.000000	30.096494
1115.000000	30.092962
1114.000000	30.108123
1113.000000	30.107909
1112.000000	30.077198
1111.000000	30.068638
1110.000000	30.083057
1109.000000	30.100397
1108.000000	30.105147
1107.000000	30.099296
1106.000000	30.104511
1105.000000	30.111225
1104.000000	30.113143
1103.000000	30.123221
1102.000000	30.113097
1101.000000	30.090557
1100.000000	30.081149
1099.000000	30.084447
1098.000000	30.099593
1097.000000	30.109273
1096.000000	30.116245
1095.000000	30.115359
1094.000000	30.132568
1093.000000	30.091126
1092.000000	30.093152
1091.000000	30.079630
1090.000000	30.088863
1089.000000	30.101956
1088.000000	30.090147
1087.000000	30.104875
1086.000000	30.065391
1085.000000	30.056378
1084.000000	30.062300
1083.000000	30.076639
1082.000000	30.090566
1081.000000	30.084047
1080.000000	30.090320
1079.000000	30.054161
1078.000000	30.043140
1077.000000	30.053299
1076.000000	30.056509
1075.000000	30.051002
1074.000000	30.054357
1073.000000	30.069956
1072.000000	30.030407
1071.000000	30.020581
1070.000000	30.039241
1069.000000	30.034149
1068.000000	30.040795
1067.000000	30.023336
1066.000000	30.022599
1065.000000	30.033399
1064.000000	29.989388
1063.000000	29.969149
1062.000000	29.978171
1061.000000	29.994474
1060.000000	29.977812
1059.000000	30.001048
1058.000000	29.962223
1057.000000	29.968586
1056.000000	29.944309
1055.000000	29.961528
1054.000000	29.958422
1053.000000	29.967337
1052.000000	29.925867
1051.000000	29.936646
1050.000000	29.929948
1049.000000	29.943007
1048.000000	29.925684
1047.000000	29.904092
1046.000000	29.908835
1045.000000	29.910920
1044.000000	29.901057
1043.000000	29.923273
1042.000000	29.881483
1041.000000	29.876796
1040.000000	29.902211
1039.000000	29.895416
1038.000000	29.870781
1037.000000	29.863290
1036.000000	29.890566
1035.000000	29.893040
1034.000000	29.900261
1033.000000	29.882294
1032.000000	29.884168
1031.000000	29.885857
1030.000000	29.848426
1029.000000	29.849953
1028.000000	29.859564
1027.000000	29.851978
1026.000000	29.886058
1025.000000	29.856507
1024.000000	29.867652
1023.000000	29.880788
1022.000000	29.850053
1021.000000	29.849037
1020.000000	29.861352
1019.000000	29.865163
1018.000000	29.853181
1017.000000	29.870909
1016.000000	29.875109
1015.000000	29.852182
1014.000000	29.858555
1013.000000	29.886901
1012.000000	29.864589
1011.000000	29.883304
1010.000000	29.878002
1009.000000	29.870059
1008.000000	29.890572
1007.000000	29.902688
1006.000000	29.913111
1005.000000	29.910527
1004.000000	29.881716
1003.000000	29.886710
1002.000000	29.913852
1001.000000	29.929894
1000.000000	29.914941
999.000000	29.930341
998.000000	29.941448
997.000000	29.930600
996.000000	29.905769
995.000000	29.926995
994.000000	29.944846
993.000000	29.957853
992.000000	29.940420
991.000000	29.935980
990.000000	29.944468
989.000000	29.964622
988.000000	29.980471
987.000000	29.970386
986.000000	29.971344
985.000000	29.967175
984.000000	29.976420
983.000000	29.996382
982.000000	30.021096
981.000000	30.045416
980.000000	30.053879
979.000000	30.073148
978.000000	30.089389
977.000000	30.097396
976.000000	30.101598
975.000000	30.103171
974.000000	30.108428
973.000000	30.125645
972.000000	30.146429
971.000000	30.155143
970.000000	30.156178
969.000000	30.158701
968.000000	30.155600
967.000000	30.150372
966.000000	30.162028
965.000000	30.173943
964.000000	30.183068
963.000000	30.193139
962.000000	30.183007
961.000000	30.191381
960.000000	30.205906
959.000000	30.199302
958.000000	30.209893
957.000000	30.220455
956.000000	30.225376
955.000000	30.225639
954.000000	30.221419
953.000000	30.228439
952.000000	30.232134
951.000000	30.238002
950.000000	30.249376
949.000000	30.251800
948.000000	30.246282
947.000000	30.253847
946.000000	30.258795
945.000000	30.256022
944.000000	30.245507
943.000000	30.251103
942.000000	30.262763
941.000000	30.255200
940.000000	30.264090
939.000000	30.267549
938.000000	30.275346
937.000000	30.275179
936.000000	30.270171
935.000000	30.268841
934.000000	30.272837
933.000000	30.275078
932.000000	30.273245
931.000000	30.278120
930.000000	30.286700
929.000000	30.275893
928.000000	30.261827
927.000000	30.264926
926.000000	30.276931
925.000000	30.287033
924.000000	30.284534
923.000000	30.270704
922.000000	30.273407
921.000000	30.272155
920.000000	30.276952
919.000000	30.271935
918.000000	30.261645
917.000000	30.265968
916.000000	30.285346
915.000000	30.284112
914.000000	30.264622
913.000000	30.268481
912.000000	30.287174
911.000000	30.308892
910.000000	30.293682
909.000000	30.281975
908.000000	30.289320
907.000000	30.269122
906.000000	30.295828
905.000000	30.298513
904.000000	30.296863
903.000000	30.317907
902.000000	30.317380
901.000000	30.311677
900.000000	30.324970
899.000000	30.323340
898.000000	30.345032
897.000000	30.329607
896.000000	30.310088
895.000000	30.357626
894.000000	30.358326
893.000000	30.328666
892.000000	30.331840
891.000000	30.370750
890.000000	30.373879
889.000000	30.404659
888.000000	30.424318
887.000000	30.406270
886.000000	30.415004
885.000000	30.391661
884.000000	30.387761
883.000000	30.397825
882.000000	30.417111
881.000000	30.397492
880.000000	30.413801
879.000000	30.363748
878.000000	30.404642
877.000000	30.402460
876.000000	30.416713
875.000000	30.444738
874.000000	30.407221
873.000000	30.423849
872.000000	30.359832
871.000000	30.402489
870.000000	30.424335
869.000000	30.355371
868.000000	30.430112
867.000000	30.457108
866.000000	30.433545
865.000000	30.415143
864.000000	30.438151
863.000000	30.427148
862.000000	30.387280
861.000000	30.357575
860.000000	30.419243
859.000000	30.332993
858.000000	30.317939
857.000000	30.502913
856.000000	30.334763
855.000000	30.320916
854.000000	30.243655
853.000000	30.131509
852.000000	30.241676
851.000000	30.307102
850.000000	30.296068
849.000000	30.234406
848.000000	30.184337
847.000000	30.247411
846.000000	30.294691
845.000000	30.254291
844.000000	30.249315
843.000000	30.251056
842.000000	30.305533
841.000000	30.291040
840.000000	30.186931
839.000000	30.166363
838.000000	30.133604
837.000000	30.223179
836.000000	30.177977
835.000000	30.204130
834.000000	30.227396
833.000000	30.171995
832.000000	30.155186
831.000000	30.210313
830.000000	30.151128
829.000000	30.148952
828.000000	30.161283
827.000000	30.209430
826.000000	30.249994
825.000000	30.160046
824.000000	30.161619
823.000000	30.141369
822.000000	30.123845
821.000000	30.131427
820.000000	30.112401
819.000000	30.136304
818.000000	30.132620
817.000000	30.090260
816.000000	30.068242
815.000000	30.152325
814.000000	30.180406
813.000000	30.109754
812.000000	30.175113
811.000000	30.145313
810.000000	30.233316
809.000000	30.188221
808.000000	30.134268
807.000000	30.162617
806.000000	30.130809
805.000000	30.148528
804.000000	30.063944
803.000000	30.207468
802.000000	30.145219
801.000000	30.173324
800.000000	30.092032
799.000000	30.173034
798.000000	30.132209
797.000000	30.109212
796.000000	30.171091
795.000000	30.150901
794.000000	30.145930
793.000000	30.164895
792.000000	30.119614
791.000000	30.127079
790.000000	30.111671
789.000000	30.164042
788.000000	30.175389
787.000000	30.075982
786.000000	30.111535
785.000000	30.087671
784.000000	30.125557
783.000000	30.147743
782.000000	30.079666
781.000000	30.076435
780.000000	30.090380
779.000000	30.116654
778.000000	30.124677
777.000000	30.131168
776.000000	30.107724
775.000000	30.113599
774.000000	30.123806
773.000000	30.083827
772.000000	30.091706
771.000000	30.120223
770.000000	30.111479
769.000000	30.106639
768.000000	30.067394
767.000000	30.103030
766.000000	30.112524
765.000000	30.076508
764.000000	30.065083
763.000000	30.101002
762.000000	30.095168
761.000000	30.103364
760.000000	30.086101
759.000000	30.029991
758.000000	30.002342
757.000000	30.034696
756.000000	30.066573
755.000000	30.065506
754.000000	30.085650
753.000000	30.070805
752.000000	30.049862
751.000000	30.008908
750.000000	30.026693
749.000000	30.085463
748.000000	30.100971
747.000000	30.045931
746.000000	30.040932
745.000000	30.021501
744.000000	30.027434
743.000000	30.029698
742.000000	30.030566
741.000000	30.018932
740.000000	30.025931
739.000000	30.039325
738.000000	30.033811
737.000000	30.005863
736.000000	29.983107
735.000000	29.993121
734.000000	30.000153
733.000000	30.000460
732.000000	30.001356
731.000000	30.001809
730.000000	30.005027
729.000000	29.993808
728.000000	30.002279
727.000000	30.000172
726.000000	29.983966
725.000000	29.987260
724.000000	29.979346
723.000000	29.991382
722.000000	29.997851
721.000000	29.989295
720.000000	29.947098
719.000000	29.946590
718.000000	29.962448
717.000000	29.964110
716.000000	29.949208
715.000000	29.955154
714.000000	29.940492
713.000000	29.923557
712.000000	29.921397
711.000000	29.944788
710.000000	29.970778
709.000000	29.970094
708.000000	29.955269
707.000000	29.922192
706.000000	29.929124
705.000000	29.944147
704.000000	29.933704
703.000000	29.932578
702.000000	29.924052
701.000000	29.931652
700.000000	29.932379
699.000000	29.929058
698.000000	29.916847
697.000000	29.907324
696.000000	29.899670
695.000000	29.895752
694.000000	29.850579
693.000000	29.850198
692.000000	29.889955
691.000000	29.879554
690.000000	29.878992
689.000000	29.861227
688.000000	29.816672
687.000000	29.808074
686.000000	29.809903
685.000000	29.827589
684.000000	29.822088
683.000000	29.772466
682.000000	29.774735
681.000000	29.791414
680.000000	29.784668
679.000000	29.785856
678.000000	29.798833
677.000000	29.789447
676.000000	29.800471
675.000000	29.790978
674.000000	29.776555
673.000000	29.768575
672.000000	29.752818
671.000000	29.737806
670.000000	29.739650
669.000000	29.736404
668.000000	29.737966
667.000000	29.736385
666.000000	29.741203
665.000000	29.729026
664.000000	29.693072
663.000000	29.705300
662.000000	29.715768
661.000000	29.707148
660.000000	29.707321
659.000000	29.677825
658.000000	29.669592
657.000000	29.679997
656.000000	29.667980
655.000000	29.686109
654.000000	29.650336
653.000000	29.671770
652.000000	29.671887
651.000000	29.650629
650.000000	29.640151
649.000000	29.652309
648.000000	29.637640
647.000000	29.607469
646.000000	29.587809
645.000000	29.619415
644.000000	29.615357
643.000000	29.604732
642.000000	29.596262
641.000000	29.583147
640.000000	29.561892
639.000000	29.541703
638.000000	29.541199
637.000000	29.527994
636.000000	29.538667
635.000000	29.534769
634.000000	29.522920
633.000000	29.528049
632.000000	29.517747
631.000000	29.531518
630.000000	29.511794
629.000000	29.507547
628.000000	29.482634
627.000000	29.501147
626.000000	29.454291
625.000000	29.460034
624.000000	29.465296
623.000000	29.489114
622.000000	29.438479
621.000000	29.451615
620.000000	29.405886
619.000000	29.427605
618.000000	29.393612
617.000000	29.410537
616.000000	29.388313
615.000000	29.407819
614.000000	29.360712
613.000000	29.312024
612.000000	29.340117
611.000000	29.341322
610.000000	29.325440
609.000000	29.331485
608.000000	29.303526
607.000000	29.299034
606.000000	29.279793
605.000000	29.299996
604.000000	29.259123
603.000000	29.247775
602.000000	29.246330
601.000000	29.250204
600.000000	29.222184
599.000000	29.224870
598.000000	29.194785
597.000000	29.194588
596.000000	29.159979
595.000000	29.174613
594.000000	29.154198
593.000000	29.132048
592.000000	29.117271
591.000000	29.123867
590.000000	29.088340
589.000000	29.083334
588.000000	29.087492
587.000000	29.055004
586.000000	29.069026
585.000000	29.066632
584.000000	29.009551
583.000000	29.018910
582.000000	29.009601
581.000000	28.982957
580.000000	28.988372
579.000000	28.966479
578.000000	28.938077
577.000000	28.904497
576.000000	28.908778
575.000000	28.917316
574.000000	28.856283
573.000000	28.883586
572.000000	28.847972
571.000000	28.863865
570.000000	28.858940
569.000000	28.795404
568.000000	28.784726
567.000000	28.760065
566.000000	28.736999
565.000000	28.746247
564.000000	28.723607
563.000000	28.707957
562.000000	28.645266
561.000000	28.662671
560.000000	28.629871
559.000000	28.637302
558.000000	28.615461
557.000000	28.585696
556.000000	28.594780
555.000000	28.545582
554.000000	28.523054
553.000000	28.518937
552.000000	28.490989
551.000000	28.487441
550.000000	28.468841
549.000000	28.424650
548.000000	28.399753
547.000000	28.382724
546.000000	28.368020
545.000000	28.363511
544.000000	28.325923
543.000000	28.307736
542.000000	28.296792
541.000000	28.274900
540.000000	28.238455
539.000000	28.219180
538.000000	28.191873
537.000000	28.179752
536.000000	28.148402
535.000000	28.127758
534.000000	28.087756
533.000000	28.084973
532.000000	28.071179
531.000000	28.026213
530.000000	27.980172
529.000000	27.950218
528.000000	27.917024
527.000000	27.906418
526.000000	27.882928
525.000000	27.843397
524.000000	27.811326
523.000000	27.792946
522.000000	27.754006
521.000000	27.742648
520.000000	27.725388
519.000000	27.674595
518.000000	27.650516
517.000000	27.611788
516.000000	27.590642
515.000000	27.553745
514.000000	27.539199
513.000000	27.498630
512.000000	27.447038
511.000000	27.428255
510.000000	27.385526
509.000000	27.367529
508.000000	27.327743
507.000000	27.272356
506.000000	27.247031
505.000000	27.223069
504.000000	27.181158
503.000000	27.141484
502.000000	27.111528
501.000000	27.062983
500.000000	27.019918
499.000000	26.979852
498.000000	26.934231
497.000000	26.917177
496.000000	26.894695
495.000000	26.836146
494.000000	26.779850
493.000000	26.763827
492.000000	26.749679
491.000000	26.709213
490.000000	26.657846
489.000000	26.607604
488.000000	26.560710
487.000000	26.504625
486.000000	26.463469
485.000000	26.424410
484.000000	26.387676
483.000000	26.350825
482.000000	26.303609
481.000000	26.278859
480.000000	26.227494
479.000000	26.172778
478.000000	26.111493
477.000000	26.057853
476.000000	26.004223
475.000000	25.962573
474.000000	25.907957
473.000000	25.870274
472.000000	25.829924
471.000000	25.764372
470.000000	25.699966
469.000000	25.640356
468.000000	25.584674
467.000000	25.534578
466.000000	25.478447
465.000000	25.413752
464.000000	25.345131
463.000000	25.299600
462.000000	25.227348
461.000000	25.165250
460.000000	25.116583
459.000000	25.050418
458.000000	24.988376
457.000000	24.906536
456.000000	24.822066
455.000000	24.755223
454.000000	24.720718
453.000000	24.643155
452.000000	24.561279
451.000000	24.498071
450.000000	24.419345
449.000000	24.343226
448.000000	24.281681
447.000000	24.201662
446.000000	24.116567
445.000000	24.024764
444.000000	23.932680
443.000000	23.865996
442.000000	23.787672
441.000000	23.712732
440.000000	23.620080
439.000000	23.522503
438.000000	23.425366
437.000000	23.352076
436.000000	23.273651
435.000000	23.159339
434.000000	23.053988
433.000000	22.964545
432.000000	22.876351
431.000000	22.765040
430.000000	22.668965
429.000000	22.545564
428.000000	22.444424
427.000000	22.325640
426.000000	22.236558
425.000000	22.124682
424.000000	22.013191
423.000000	21.879665
422.000000	21.756429
421.000000	21.636101
420.000000	21.507517
419.000000	21.384180
418.000000	21.264175
417.000000	21.140404
416.000000	21.001930
415.000000	20.885926
414.000000	20.739905
413.000000	20.598464
412.000000	20.480032
411.000000	20.347372
410.000000	20.201221
409.000000	20.059276
408.000000	19.902401
407.000000	19.766005
406.000000	19.655924
405.000000	19.513036
404.000000	19.360683
403.000000	19.222795
402.000000	19.063200
401.000000	18.895370
400.000000	18.775380
399.000000	18.596187
398.000000	18.451137
397.000000	18.315712
396.000000	18.141874
395.000000	17.983526
394.000000	17.838019
393.000000	17.677407
392.000000	17.505587
391.000000	17.375539
390.000000	17.205005
389.000000	17.020190
388.000000	16.882800
387.000000	16.734126
386.000000	16.548396
385.000000	16.368256
384.000000	16.238265
383.000000	16.051324
382.000000	15.873154
381.000000	15.690643
380.000000	15.525448
379.000000	15.355938
378.000000	15.108487
377.000000	15.012615
376.000000	14.876240
375.000000	14.642433
374.000000	14.479006
373.000000	14.301510
372.000000	14.148221
371.000000	13.958745
370.000000	13.789703
369.000000	13.604952
368.000000	13.408541
367.000000	13.220993
366.000000	13.060903
365.000000	12.849267
364.000000	12.663019
363.000000	12.517674
362.000000	12.305513
361.000000	12.166624
360.000000	11.986032
359.000000	11.807990
358.000000	11.621975
357.000000	11.497235
356.000000	11.308432
355.000000	11.090549
354.000000	10.962217
353.000000	10.781990
352.000000	10.583364
351.000000	10.477924
350.000000	10.347627
349.000000	10.176322
348.000000	9.991998
347.000000	9.827539
346.000000	9.630556
345.000000	9.458134
344.000000	9.297300
343.000000	9.085788
342.000000	8.917699
341.000000	8.722832
340.000000	8.496197
339.000000	8.297514
338.000000	8.092925
337.000000	7.917543
336.000000	7.723685
335.000000	7.385540
334.000000	7.174864
333.000000	6.974709
332.000000	6.684691
331.000000	6.423809
330.000000	6.280377
329.000000	5.972274
328.000000	5.768761
327.000000	5.558945
326.000000	5.358510
325.000000	5.219719
324.000000	5.033201
323.000000	4.900415
322.000000	4.734135
321.000000	4.590890
320.000000	4.470586
319.000000	4.356520
318.000000	4.278375
317.000000	4.172394
316.000000	4.067165
315.000000	3.980337
314.000000	3.879958
313.000000	3.800585
312.000000	3.698589
311.000000	3.605507
310.000000	3.523930
309.000000	3.481398
308.000000	3.409381
307.000000	3.329561
306.000000	3.207920
305.000000	3.136525
304.000000	3.059604
303.000000	2.975739
302.000000	2.908563
301.000000	2.817431
300.000000	2.729407
299.000000	2.622037
298.000000	2.532441
297.000000	2.413843
296.000000	2.284551
295.000000	2.173438
294.000000	2.041873
293.000000	1.867276
292.000000	1.696437
291.000000	1.548263
290.000000	1.408440
289.000000	1.267707
288.000000	1.168248
287.000000	1.109281
286.000000	1.074736
285.000000	1.060180
284.000000	1.032830
283.000000	1.023386
282.000000	1.043329
281.000000	1.044036
280.000000	1.055559
279.000000	1.055264
278.000000	1.082402
277.000000	1.083301
276.000000	1.096860
275.000000	1.127267
274.000000	1.153082
273.000000	1.177843
272.000000	1.204309
271.000000	1.222220
270.000000	1.245618
269.000000	1.244960
268.000000	1.279668
267.000000	1.302989
266.000000	1.349931
265.000000	1.364468
264.000000	1.410058
263.000000	1.443628
262.000000	1.472861
261.000000	1.502755
260.000000	1.530264
259.000000	1.556736
258.000000	1.593095
257.000000	1.613815
256.000000	1.632750
255.000000	1.630260
254.000000	1.624759
253.000000	1.618487
252.000000	1.600905
251.000000	1.573401
250.000000	1.511748
249.000000	1.431978
248.000000	1.334300
247.000000	1.213134
246.000000	1.105241
245.000000	1.005025
244.000000	0.900031
243.000000	0.794501
242.000000	0.711170
241.000000	0.640045
240.000000	0.574786
239.000000	0.507904
238.000000	0.445285
237.000000	0.415664
236.000000	0.380788
235.000000	0.341885
234.000000	0.318923
233.000000	0.300537
232.000000	0.275717
231.000000	0.243045
230.000000	0.214862
229.000000	0.195083
228.000000	0.180581
227.000000	0.163729
226.000000	0.152456
225.000000	0.143302
224.000000	0.125591
223.000000	0.115940
222.000000	0.109851
221.000000	0.103774
220.000000	0.093966
219.000000	0.086381
218.000000	0.082163
217.000000	0.064196
216.000000	0.066778
215.000000	0.086427
214.000000	0.093255
213.000000	0.087481
212.000000	0.086821
211.000000	0.104240
210.000000	0.102745
209.000000	0.077931
208.000000	0.088180
207.000000	0.101064
206.000000	0.069257
205.000000	0.070088
204.000000	0.070519
203.000000	0.103691
202.000000	0.105766
201.000000	0.105502
200.000000	0.126156
