PE UV       SUBTECH     SPECTRUM    ASCII       PEDS        4.00        
   -1
TTAgneau 22.Sample.asc
18/02/28
15:09:23.00
18/02/28
15:09:23.00
Administrator

200.000000
1
Lambda 750
750N8071901
PerkinElmer UV WinLab 6.0.4.0738 / 1.61.00 Lambda 900

0
0
3350/servo 860.8/2
0
0
UV/VIS
1
1
1
CommonBeamDepol,150mm sphere / downward view
0
0
0
0
Program
Program
3350/servo 860.8/2
3350/0.2 860.8/0.2
3350/0.2 860.8/0.2
0
1
 
 
 
0
 
860.8
319.2
860.8
Front
100
on
 
 
0
0
0
 
0
 
 
 
0
 
 
0
0
0
0
0
 
 
 
 
0
0


0
0
#HDR
-1
-1
#GR
nm
%T
1.0
0.0
2350.000000
-1.000000
2151
8
30.732219
0.048177
#DATA
2350.000000	10.273231
2349.000000	9.860381
2348.000000	9.943557
2347.000000	10.595197
2346.000000	10.486857
2345.000000	10.317957
2344.000000	9.941536
2343.000000	9.861910
2342.000000	9.815388
2341.000000	10.213163
2340.000000	10.130732
2339.000000	10.315622
2338.000000	10.479697
2337.000000	10.350296
2336.000000	10.307234
2335.000000	10.465954
2334.000000	10.704453
2333.000000	10.931916
2332.000000	10.871390
2331.000000	10.795437
2330.000000	10.739741
2329.000000	10.616591
2328.000000	10.300295
2327.000000	10.551672
2326.000000	10.704237
2325.000000	10.676887
2324.000000	10.349630
2323.000000	10.634706
2322.000000	10.479505
2321.000000	10.223556
2320.000000	10.524714
2319.000000	10.439227
2318.000000	10.258918
2317.000000	10.289351
2316.000000	10.451142
2315.000000	10.471221
2314.000000	10.389541
2313.000000	10.150511
2312.000000	10.073728
2311.000000	10.002098
2310.000000	10.303634
2309.000000	10.361306
2308.000000	10.010257
2307.000000	9.834079
2306.000000	9.868945
2305.000000	9.833493
2304.000000	9.667840
2303.000000	9.545455
2302.000000	9.651300
2301.000000	9.672912
2300.000000	9.407647
2299.000000	9.413542
2298.000000	9.456097
2297.000000	9.410336
2296.000000	9.304579
2295.000000	9.333043
2294.000000	9.267856
2293.000000	9.145381
2292.000000	9.185744
2291.000000	9.050103
2290.000000	9.040290
2289.000000	9.132422
2288.000000	8.983726
2287.000000	9.065674
2286.000000	9.206426
2285.000000	8.932411
2284.000000	8.912553
2283.000000	8.892433
2282.000000	8.883028
2281.000000	9.098072
2280.000000	8.991234
2279.000000	8.968838
2278.000000	8.920651
2277.000000	9.036210
2276.000000	8.951705
2275.000000	8.967154
2274.000000	9.117421
2273.000000	9.241964
2272.000000	9.281657
2271.000000	9.327065
2270.000000	9.188469
2269.000000	9.154923
2268.000000	9.243725
2267.000000	9.210444
2266.000000	9.293277
2265.000000	9.412982
2264.000000	9.496231
2263.000000	9.577297
2262.000000	9.681612
2261.000000	9.711601
2260.000000	9.875148
2259.000000	9.969305
2258.000000	10.060894
2257.000000	10.087584
2256.000000	10.159734
2255.000000	10.335677
2254.000000	10.466831
2253.000000	10.501426
2252.000000	10.469483
2251.000000	10.650026
2250.000000	10.886743
2249.000000	11.038220
2248.000000	11.130370
2247.000000	11.161281
2246.000000	11.309891
2245.000000	11.454716
2244.000000	11.584100
2243.000000	11.793468
2242.000000	11.857303
2241.000000	11.840237
2240.000000	11.932369
2239.000000	12.006799
2238.000000	12.083877
2237.000000	12.152174
2236.000000	12.188135
2235.000000	12.352124
2234.000000	12.436375
2233.000000	12.339382
2232.000000	12.426111
2231.000000	12.553888
2230.000000	12.577606
2229.000000	12.538056
2228.000000	12.504838
2227.000000	12.673014
2226.000000	12.668254
2225.000000	12.605917
2224.000000	12.686513
2223.000000	12.547884
2222.000000	12.636624
2221.000000	12.657462
2220.000000	12.560283
2219.000000	12.458273
2218.000000	12.407520
2217.000000	12.403467
2216.000000	12.465552
2215.000000	12.369410
2214.000000	12.470282
2213.000000	12.508221
2212.000000	12.326214
2211.000000	12.258128
2210.000000	12.267699
2209.000000	12.249814
2208.000000	12.190309
2207.000000	12.124926
2206.000000	12.160857
2205.000000	12.082109
2204.000000	11.974630
2203.000000	11.847382
2202.000000	11.701589
2201.000000	11.752638
2200.000000	11.812981
2199.000000	11.799263
2198.000000	11.767550
2197.000000	11.698941
2196.000000	11.523924
2195.000000	11.564156
2194.000000	11.516845
2193.000000	11.266852
2192.000000	11.296938
2191.000000	11.323097
2190.000000	11.264031
2189.000000	11.175659
2188.000000	11.202312
2187.000000	11.270992
2186.000000	11.116501
2185.000000	10.978656
2184.000000	10.981713
2183.000000	11.069894
2182.000000	11.004381
2181.000000	10.910445
2180.000000	11.027761
2179.000000	10.948283
2178.000000	10.923274
2177.000000	10.982257
2176.000000	10.959977
2175.000000	10.926862
2174.000000	10.996375
2173.000000	11.004621
2172.000000	11.033992
2171.000000	11.014539
2170.000000	11.068386
2169.000000	11.206406
2168.000000	11.234356
2167.000000	11.148469
2166.000000	11.126646
2165.000000	11.188917
2164.000000	11.216095
2163.000000	11.299338
2162.000000	11.373841
2161.000000	11.382456
2160.000000	11.608321
2159.000000	11.586277
2158.000000	11.664005
2157.000000	11.666670
2156.000000	11.803420
2155.000000	12.047732
2154.000000	12.091946
2153.000000	12.210585
2152.000000	12.328420
2151.000000	12.223739
2150.000000	12.248697
2149.000000	12.401701
2148.000000	12.403617
2147.000000	12.713513
2146.000000	12.880678
2145.000000	12.796316
2144.000000	12.777867
2143.000000	12.858887
2142.000000	12.970816
2141.000000	12.938359
2140.000000	13.191929
2139.000000	13.423234
2138.000000	13.512525
2137.000000	13.384349
2136.000000	13.373667
2135.000000	13.718609
2134.000000	13.699555
2133.000000	13.471264
2132.000000	13.648910
2131.000000	13.580446
2130.000000	14.052625
2129.000000	13.922294
2128.000000	13.741605
2127.000000	13.933961
2126.000000	13.954730
2125.000000	13.861320
2124.000000	14.078810
2123.000000	14.068968
2122.000000	14.267392
2121.000000	14.093823
2120.000000	14.111634
2119.000000	14.189092
2118.000000	14.291845
2117.000000	14.333313
2116.000000	14.278888
2115.000000	14.359790
2114.000000	14.418409
2113.000000	14.314254
2112.000000	14.312925
2111.000000	14.224704
2110.000000	14.152813
2109.000000	14.454575
2108.000000	14.512399
2107.000000	14.566214
2106.000000	14.479537
2105.000000	14.277976
2104.000000	14.496415
2103.000000	14.568572
2102.000000	14.528679
2101.000000	14.558875
2100.000000	14.497377
2099.000000	14.605821
2098.000000	14.519294
2097.000000	14.509819
2096.000000	14.570354
2095.000000	14.463273
2094.000000	14.484063
2093.000000	14.468674
2092.000000	14.607518
2091.000000	14.645785
2090.000000	14.565531
2089.000000	14.544132
2088.000000	14.557596
2087.000000	14.527826
2086.000000	14.590646
2085.000000	14.522545
2084.000000	14.430288
2083.000000	14.382550
2082.000000	14.355631
2081.000000	14.341705
2080.000000	14.298724
2079.000000	14.259094
2078.000000	14.230690
2077.000000	14.158915
2076.000000	14.050019
2075.000000	14.014267
2074.000000	13.989268
2073.000000	13.982699
2072.000000	13.924091
2071.000000	13.849376
2070.000000	13.751975
2069.000000	13.649535
2068.000000	13.537632
2067.000000	13.443945
2066.000000	13.356186
2065.000000	13.275163
2064.000000	13.138280
2063.000000	13.003874
2062.000000	12.946679
2061.000000	12.881252
2060.000000	12.796736
2059.000000	12.717047
2058.000000	12.658508
2057.000000	12.529569
2056.000000	12.447185
2055.000000	12.360675
2054.000000	12.262827
2053.000000	12.177209
2052.000000	12.093826
2051.000000	12.007960
2050.000000	11.929094
2049.000000	11.864996
2048.000000	11.825289
2047.000000	11.829123
2046.000000	11.768818
2045.000000	11.736910
2044.000000	11.713990
2043.000000	11.682632
2042.000000	11.693997
2041.000000	11.694831
2040.000000	11.677291
2039.000000	11.696832
2038.000000	11.762025
2037.000000	11.754803
2036.000000	11.821811
2035.000000	11.917379
2034.000000	11.969197
2033.000000	12.041145
2032.000000	12.145410
2031.000000	12.177176
2030.000000	12.259701
2029.000000	12.369533
2028.000000	12.511942
2027.000000	12.648608
2026.000000	12.697456
2025.000000	12.726206
2024.000000	12.756254
2023.000000	12.840872
2022.000000	12.930543
2021.000000	12.948315
2020.000000	12.961642
2019.000000	12.992308
2018.000000	13.089261
2017.000000	13.160187
2016.000000	13.181992
2015.000000	13.235324
2014.000000	13.253613
2013.000000	13.235241
2012.000000	13.257239
2011.000000	13.295400
2010.000000	13.260852
2009.000000	13.185699
2008.000000	13.160601
2007.000000	13.193546
2006.000000	13.167978
2005.000000	13.087894
2004.000000	13.012993
2003.000000	12.988994
2002.000000	12.995887
2001.000000	12.947848
2000.000000	12.914529
1999.000000	12.858956
1998.000000	12.833900
1997.000000	12.811197
1996.000000	12.751198
1995.000000	12.667344
1994.000000	12.595828
1993.000000	12.569515
1992.000000	12.513937
1991.000000	12.451524
1990.000000	12.409318
1989.000000	12.369349
1988.000000	12.298122
1987.000000	12.240298
1986.000000	12.209182
1985.000000	12.163340
1984.000000	12.112509
1983.000000	12.076263
1982.000000	12.040001
1981.000000	11.955196
1980.000000	11.869378
1979.000000	11.846640
1978.000000	11.806384
1977.000000	11.733504
1976.000000	11.673476
1975.000000	11.633052
1974.000000	11.564664
1973.000000	11.523206
1972.000000	11.479121
1971.000000	11.455531
1970.000000	11.361805
1969.000000	11.311113
1968.000000	11.280166
1967.000000	11.236574
1966.000000	11.187047
1965.000000	11.113329
1964.000000	11.032241
1963.000000	10.993384
1962.000000	10.940383
1961.000000	10.854975
1960.000000	10.885346
1959.000000	10.815749
1958.000000	10.744465
1957.000000	10.713837
1956.000000	10.648545
1955.000000	10.603543
1954.000000	10.591691
1953.000000	10.579908
1952.000000	10.594587
1951.000000	10.550854
1950.000000	10.501675
1949.000000	10.444185
1948.000000	10.440017
1947.000000	10.428316
1946.000000	10.393180
1945.000000	10.435219
1944.000000	10.365545
1943.000000	10.421237
1942.000000	10.401086
1941.000000	10.403483
1940.000000	10.433362
1939.000000	10.497137
1938.000000	10.481205
1937.000000	10.589063
1936.000000	10.677925
1935.000000	10.725881
1934.000000	10.773376
1933.000000	10.788029
1932.000000	10.860717
1931.000000	10.898182
1930.000000	11.052433
1929.000000	11.127797
1928.000000	11.280356
1927.000000	11.358340
1926.000000	11.448874
1925.000000	11.588644
1924.000000	11.769429
1923.000000	11.952013
1922.000000	12.004751
1921.000000	12.207169
1920.000000	12.433019
1919.000000	12.621270
1918.000000	12.736480
1917.000000	12.940661
1916.000000	13.065149
1915.000000	13.321930
1914.000000	13.513538
1913.000000	13.793222
1912.000000	13.976324
1911.000000	14.188816
1910.000000	14.441060
1909.000000	14.638886
1908.000000	14.890055
1907.000000	15.128916
1906.000000	15.436311
1905.000000	15.716737
1904.000000	15.948103
1903.000000	16.276071
1902.000000	16.521825
1901.000000	16.891679
1900.000000	17.145819
1899.000000	17.550951
1898.000000	17.798229
1897.000000	18.015425
1896.000000	18.325799
1895.000000	18.626680
1894.000000	18.884505
1893.000000	19.228596
1892.000000	19.495164
1891.000000	19.756946
1890.000000	20.044840
1889.000000	20.287891
1888.000000	20.550433
1887.000000	20.835913
1886.000000	21.089383
1885.000000	21.327652
1884.000000	21.538821
1883.000000	21.779476
1882.000000	22.017792
1881.000000	22.174884
1880.000000	22.386255
1879.000000	22.594457
1878.000000	22.767655
1877.000000	22.934493
1876.000000	23.110779
1875.000000	23.214899
1874.000000	23.387286
1873.000000	23.458877
1872.000000	23.570198
1871.000000	23.717499
1870.000000	23.806642
1869.000000	23.887644
1868.000000	23.948696
1867.000000	24.015244
1866.000000	24.098801
1865.000000	24.136920
1864.000000	24.167138
1863.000000	24.223606
1862.000000	24.267824
1861.000000	24.271280
1860.000000	24.304439
1859.000000	24.323433
1858.000000	24.376473
1857.000000	24.404107
1856.000000	24.398562
1855.000000	24.396658
1854.000000	24.438242
1853.000000	24.450801
1852.000000	24.432831
1851.000000	24.447615
1850.000000	24.466340
1849.000000	24.440777
1848.000000	24.428662
1847.000000	24.413567
1846.000000	24.392502
1845.000000	24.411575
1844.000000	24.416940
1843.000000	24.369167
1842.000000	24.356628
1841.000000	24.321682
1840.000000	24.296349
1839.000000	24.298343
1838.000000	24.267781
1837.000000	24.236667
1836.000000	24.223883
1835.000000	24.188173
1834.000000	24.148163
1833.000000	24.137565
1832.000000	24.102914
1831.000000	24.060331
1830.000000	24.045159
1829.000000	24.009774
1828.000000	23.984968
1827.000000	23.959402
1826.000000	23.922460
1825.000000	23.905584
1824.000000	23.898007
1823.000000	23.884649
1822.000000	23.859673
1821.000000	23.825051
1820.000000	23.798008
1819.000000	23.779106
1818.000000	23.754617
1817.000000	23.719338
1816.000000	23.681164
1815.000000	23.675217
1814.000000	23.640761
1813.000000	23.610432
1812.000000	23.609734
1811.000000	23.590909
1810.000000	23.583722
1809.000000	23.580579
1808.000000	23.549796
1807.000000	23.516585
1806.000000	23.502233
1805.000000	23.477141
1804.000000	23.451582
1803.000000	23.433135
1802.000000	23.402384
1801.000000	23.379125
1800.000000	23.381448
1799.000000	23.377454
1798.000000	23.370542
1797.000000	23.352078
1796.000000	23.327468
1795.000000	23.327973
1794.000000	23.321773
1793.000000	23.301595
1792.000000	23.293178
1791.000000	23.282223
1790.000000	23.267938
1789.000000	23.237731
1788.000000	23.233137
1787.000000	23.238427
1786.000000	23.216885
1785.000000	23.196920
1784.000000	23.168879
1783.000000	23.146545
1782.000000	23.144699
1781.000000	23.112154
1780.000000	23.080033
1779.000000	23.054384
1778.000000	23.030336
1777.000000	22.998362
1776.000000	22.959021
1775.000000	22.896131
1774.000000	22.840538
1773.000000	22.822369
1772.000000	22.765929
1771.000000	22.711729
1770.000000	22.681217
1769.000000	22.650945
1768.000000	22.622252
1767.000000	22.553637
1766.000000	22.531696
1765.000000	22.509553
1764.000000	22.443357
1763.000000	22.398984
1762.000000	22.353141
1761.000000	22.329126
1760.000000	22.271160
1759.000000	22.215985
1758.000000	22.184953
1757.000000	22.127536
1756.000000	22.097993
1755.000000	22.055576
1754.000000	22.026069
1753.000000	21.971933
1752.000000	21.927950
1751.000000	21.877495
1750.000000	21.845029
1749.000000	21.823790
1748.000000	21.751274
1747.000000	21.684375
1746.000000	21.682935
1745.000000	21.644410
1744.000000	21.583604
1743.000000	21.545649
1742.000000	21.491835
1741.000000	21.462172
1740.000000	21.421593
1739.000000	21.400582
1738.000000	21.347642
1737.000000	21.359473
1736.000000	21.330026
1735.000000	21.322034
1734.000000	21.319174
1733.000000	21.299018
1732.000000	21.282816
1731.000000	21.267269
1730.000000	21.296638
1729.000000	21.291402
1728.000000	21.343891
1727.000000	21.375136
1726.000000	21.427291
1725.000000	21.457773
1724.000000	21.482820
1723.000000	21.547894
1722.000000	21.610831
1721.000000	21.671686
1720.000000	21.734445
1719.000000	21.793421
1718.000000	21.837506
1717.000000	21.877279
1716.000000	21.981459
1715.000000	22.017886
1714.000000	22.050383
1713.000000	22.116062
1712.000000	22.150590
1711.000000	22.182445
1710.000000	22.214332
1709.000000	22.254235
1708.000000	22.285114
1707.000000	22.330153
1706.000000	22.350106
1705.000000	22.371396
1704.000000	22.397147
1703.000000	22.395983
1702.000000	22.405111
1701.000000	22.387916
1700.000000	22.441275
1699.000000	22.418874
1698.000000	22.459094
1697.000000	22.483783
1696.000000	22.502613
1695.000000	22.519327
1694.000000	22.524652
1693.000000	22.568507
1692.000000	22.604444
1691.000000	22.624664
1690.000000	22.702703
1689.000000	22.777742
1688.000000	22.838806
1687.000000	22.910379
1686.000000	22.978940
1685.000000	23.083795
1684.000000	23.161035
1683.000000	23.260822
1682.000000	23.355218
1681.000000	23.487369
1680.000000	23.591119
1679.000000	23.727632
1678.000000	23.816562
1677.000000	23.924966
1676.000000	24.033971
1675.000000	24.180867
1674.000000	24.297092
1673.000000	24.382416
1672.000000	24.475484
1671.000000	24.595367
1670.000000	24.715721
1669.000000	24.858426
1668.000000	24.920251
1667.000000	24.997747
1666.000000	25.069961
1665.000000	25.140958
1664.000000	25.185103
1663.000000	25.231501
1662.000000	25.284540
1661.000000	25.365043
1660.000000	25.399180
1659.000000	25.448349
1658.000000	25.477052
1657.000000	25.506732
1656.000000	25.542337
1655.000000	25.556778
1654.000000	25.580953
1653.000000	25.594515
1652.000000	25.593017
1651.000000	25.604070
1650.000000	25.598247
1649.000000	25.601248
1648.000000	25.600767
1647.000000	25.574685
1646.000000	25.557250
1645.000000	25.576234
1644.000000	25.558514
1643.000000	25.538029
1642.000000	25.537665
1641.000000	25.521012
1640.000000	25.513319
1639.000000	25.496116
1638.000000	25.482448
1637.000000	25.453001
1636.000000	25.434781
1635.000000	25.396154
1634.000000	25.375655
1633.000000	25.350372
1632.000000	25.335776
1631.000000	25.315460
1630.000000	25.295232
1629.000000	25.268646
1628.000000	25.240477
1627.000000	25.200383
1626.000000	25.174608
1625.000000	25.169122
1624.000000	25.138798
1623.000000	25.107587
1622.000000	25.090384
1621.000000	25.052897
1620.000000	25.026752
1619.000000	24.995798
1618.000000	24.966461
1617.000000	24.921028
1616.000000	24.881909
1615.000000	24.846515
1614.000000	24.818825
1613.000000	24.788868
1612.000000	24.753939
1611.000000	24.730956
1610.000000	24.699993
1609.000000	24.654622
1608.000000	24.626670
1607.000000	24.589832
1606.000000	24.540380
1605.000000	24.505589
1604.000000	24.469188
1603.000000	24.431104
1602.000000	24.407415
1601.000000	24.369876
1600.000000	24.320776
1599.000000	24.279582
1598.000000	24.248584
1597.000000	24.221357
1596.000000	24.187749
1595.000000	24.152656
1594.000000	24.120142
1593.000000	24.094909
1592.000000	24.063453
1591.000000	24.023094
1590.000000	23.994371
1589.000000	23.962849
1588.000000	23.928504
1587.000000	23.903754
1586.000000	23.879538
1585.000000	23.858031
1584.000000	23.827977
1583.000000	23.798282
1582.000000	23.773935
1581.000000	23.752408
1580.000000	23.724104
1579.000000	23.696982
1578.000000	23.678079
1577.000000	23.640858
1576.000000	23.601845
1575.000000	23.579140
1574.000000	23.544254
1573.000000	23.518553
1572.000000	23.487188
1571.000000	23.463480
1570.000000	23.442540
1569.000000	23.408670
1568.000000	23.384028
1567.000000	23.359591
1566.000000	23.337448
1565.000000	23.321181
1564.000000	23.302005
1563.000000	23.304081
1562.000000	23.291159
1561.000000	23.256009
1560.000000	23.240285
1559.000000	23.229888
1558.000000	23.199577
1557.000000	23.190926
1556.000000	23.179363
1555.000000	23.161642
1554.000000	23.146130
1553.000000	23.127833
1552.000000	23.113021
1551.000000	23.089636
1550.000000	23.074619
1549.000000	23.050863
1548.000000	23.028137
1547.000000	22.981803
1546.000000	22.956082
1545.000000	22.918320
1544.000000	22.865898
1543.000000	22.830940
1542.000000	22.770868
1541.000000	22.720489
1540.000000	22.667423
1539.000000	22.603970
1538.000000	22.554934
1537.000000	22.496011
1536.000000	22.439172
1535.000000	22.369875
1534.000000	22.307464
1533.000000	22.269378
1532.000000	22.201954
1531.000000	22.170406
1530.000000	22.151194
1529.000000	22.164729
1528.000000	22.154638
1527.000000	22.118139
1526.000000	22.044484
1525.000000	21.951042
1524.000000	21.889972
1523.000000	21.826583
1522.000000	21.756164
1521.000000	21.730226
1520.000000	21.708759
1519.000000	21.670547
1518.000000	21.636127
1517.000000	21.618003
1516.000000	21.587514
1515.000000	21.542753
1514.000000	21.508429
1513.000000	21.501280
1512.000000	21.492573
1511.000000	21.467584
1510.000000	21.435093
1509.000000	21.400383
1508.000000	21.367341
1507.000000	21.370922
1506.000000	21.375378
1505.000000	21.360493
1504.000000	21.336343
1503.000000	21.329505
1502.000000	21.318845
1501.000000	21.289704
1500.000000	21.280883
1499.000000	21.288767
1498.000000	21.296876
1497.000000	21.306806
1496.000000	21.313708
1495.000000	21.315396
1494.000000	21.325925
1493.000000	21.356204
1492.000000	21.388078
1491.000000	21.410927
1490.000000	21.442606
1489.000000	21.468452
1488.000000	21.518685
1487.000000	21.562340
1486.000000	21.611543
1485.000000	21.668670
1484.000000	21.719427
1483.000000	21.777200
1482.000000	21.826354
1481.000000	21.874007
1480.000000	21.935374
1479.000000	22.008285
1478.000000	22.061893
1477.000000	22.138168
1476.000000	22.189744
1475.000000	22.222941
1474.000000	22.284917
1473.000000	22.329812
1472.000000	22.373944
1471.000000	22.430997
1470.000000	22.485849
1469.000000	22.548875
1468.000000	22.608382
1467.000000	22.626411
1466.000000	22.663918
1465.000000	22.710771
1464.000000	22.711079
1463.000000	22.781215
1462.000000	22.816133
1461.000000	22.844136
1460.000000	22.883557
1459.000000	22.935888
1458.000000	22.985195
1457.000000	23.002502
1456.000000	23.022042
1455.000000	23.056093
1454.000000	23.117660
1453.000000	23.155941
1452.000000	23.171028
1451.000000	23.206460
1450.000000	23.257842
1449.000000	23.314500
1448.000000	23.350757
1447.000000	23.380016
1446.000000	23.415940
1445.000000	23.464651
1444.000000	23.531720
1443.000000	23.587366
1442.000000	23.616255
1441.000000	23.650133
1440.000000	23.691168
1439.000000	23.751899
1438.000000	23.807303
1437.000000	23.868361
1436.000000	23.931531
1435.000000	23.993410
1434.000000	24.045090
1433.000000	24.093393
1432.000000	24.153729
1431.000000	24.210670
1430.000000	24.290956
1429.000000	24.336598
1428.000000	24.397909
1427.000000	24.479710
1426.000000	24.554566
1425.000000	24.642360
1424.000000	24.723913
1423.000000	24.797567
1422.000000	24.894643
1421.000000	24.988224
1420.000000	25.061685
1419.000000	25.134989
1418.000000	25.224453
1417.000000	25.323531
1416.000000	25.423311
1415.000000	25.530187
1414.000000	25.636918
1413.000000	25.727232
1412.000000	25.794881
1411.000000	25.894386
1410.000000	26.018561
1409.000000	26.126181
1408.000000	26.231474
1407.000000	26.336990
1406.000000	26.420496
1405.000000	26.490117
1404.000000	26.578657
1403.000000	26.676349
1402.000000	26.770360
1401.000000	26.854279
1400.000000	26.943885
1399.000000	27.023776
1398.000000	27.099204
1397.000000	27.180650
1396.000000	27.264070
1395.000000	27.339552
1394.000000	27.413439
1393.000000	27.481917
1392.000000	27.560704
1391.000000	27.658841
1390.000000	27.730668
1389.000000	27.798282
1388.000000	27.858345
1387.000000	27.899705
1386.000000	27.968060
1385.000000	28.045933
1384.000000	28.104609
1383.000000	28.159296
1382.000000	28.219573
1381.000000	28.266629
1380.000000	28.306037
1379.000000	28.341332
1378.000000	28.367433
1377.000000	28.393848
1376.000000	28.437121
1375.000000	28.471081
1374.000000	28.491954
1373.000000	28.507147
1372.000000	28.532308
1371.000000	28.582101
1370.000000	28.603989
1369.000000	28.621029
1368.000000	28.652629
1367.000000	28.677046
1366.000000	28.700246
1365.000000	28.734060
1364.000000	28.759784
1363.000000	28.783592
1362.000000	28.813910
1361.000000	28.830190
1360.000000	28.855552
1359.000000	28.878954
1358.000000	28.913508
1357.000000	28.963485
1356.000000	28.993768
1355.000000	29.014044
1354.000000	29.046365
1353.000000	29.064103
1352.000000	29.095114
1351.000000	29.149292
1350.000000	29.173955
1349.000000	29.173081
1348.000000	29.186835
1347.000000	29.222340
1346.000000	29.275274
1345.000000	29.312695
1344.000000	29.338758
1343.000000	29.358060
1342.000000	29.373968
1341.000000	29.399008
1340.000000	29.419170
1339.000000	29.431654
1338.000000	29.448447
1337.000000	29.478196
1336.000000	29.490814
1335.000000	29.530311
1334.000000	29.565973
1333.000000	29.592886
1332.000000	29.605822
1331.000000	29.616713
1330.000000	29.604053
1329.000000	29.609361
1328.000000	29.626748
1327.000000	29.663562
1326.000000	29.663736
1325.000000	29.679672
1324.000000	29.708643
1323.000000	29.701320
1322.000000	29.699990
1321.000000	29.724847
1320.000000	29.707978
1319.000000	29.696275
1318.000000	29.722685
1317.000000	29.751084
1316.000000	29.764799
1315.000000	29.778037
1314.000000	29.754745
1313.000000	29.760976
1312.000000	29.777545
1311.000000	29.763755
1310.000000	29.783413
1309.000000	29.801213
1308.000000	29.800850
1307.000000	29.789620
1306.000000	29.804616
1305.000000	29.832517
1304.000000	29.820422
1303.000000	29.810965
1302.000000	29.813670
1301.000000	29.798050
1300.000000	29.810840
1299.000000	29.802835
1298.000000	29.837379
1297.000000	29.848346
1296.000000	29.847523
1295.000000	29.841690
1294.000000	29.835147
1293.000000	29.840414
1292.000000	29.832778
1291.000000	29.774191
1290.000000	29.770579
1289.000000	29.762662
1288.000000	29.774390
1287.000000	29.771806
1286.000000	29.786055
1285.000000	29.778491
1284.000000	29.783547
1283.000000	29.801031
1282.000000	29.776473
1281.000000	29.733999
1280.000000	29.725801
1279.000000	29.722665
1278.000000	29.746988
1277.000000	29.736864
1276.000000	29.735391
1275.000000	29.744275
1274.000000	29.745538
1273.000000	29.731288
1272.000000	29.728359
1271.000000	29.729452
1270.000000	29.739458
1269.000000	29.727043
1268.000000	29.721957
1267.000000	29.762366
1266.000000	29.771683
1265.000000	29.793378
1264.000000	29.763366
1263.000000	29.761048
1262.000000	29.757472
1261.000000	29.763931
1260.000000	29.788225
1259.000000	29.834525
1258.000000	29.796521
1257.000000	29.798778
1256.000000	29.802177
1255.000000	29.808505
1254.000000	29.786925
1253.000000	29.820448
1252.000000	29.839092
1251.000000	29.852199
1250.000000	29.834681
1249.000000	29.820357
1248.000000	29.796184
1247.000000	29.803908
1246.000000	29.817680
1245.000000	29.791138
1244.000000	29.754421
1243.000000	29.763819
1242.000000	29.766747
1241.000000	29.755157
1240.000000	29.756569
1239.000000	29.762444
1238.000000	29.720170
1237.000000	29.711338
1236.000000	29.696689
1235.000000	29.657623
1234.000000	29.650338
1233.000000	29.641333
1232.000000	29.633332
1231.000000	29.643029
1230.000000	29.600324
1229.000000	29.594120
1228.000000	29.588303
1227.000000	29.583108
1226.000000	29.578107
1225.000000	29.531041
1224.000000	29.505136
1223.000000	29.521285
1222.000000	29.519425
1221.000000	29.497647
1220.000000	29.488694
1219.000000	29.477805
1218.000000	29.455186
1217.000000	29.434427
1216.000000	29.423178
1215.000000	29.431468
1214.000000	29.429243
1213.000000	29.397031
1212.000000	29.367127
1211.000000	29.375787
1210.000000	29.374578
1209.000000	29.322581
1208.000000	29.295234
1207.000000	29.293459
1206.000000	29.271663
1205.000000	29.243783
1204.000000	29.240188
1203.000000	29.230919
1202.000000	29.187506
1201.000000	29.167496
1200.000000	29.178324
1199.000000	29.154576
1198.000000	29.108216
1197.000000	29.079451
1196.000000	29.074267
1195.000000	29.086374
1194.000000	29.097657
1193.000000	29.069690
1192.000000	29.052126
1191.000000	29.023781
1190.000000	28.989227
1189.000000	28.946099
1188.000000	28.943629
1187.000000	28.946213
1186.000000	28.937443
1185.000000	28.930095
1184.000000	28.935175
1183.000000	28.940676
1182.000000	28.970615
1181.000000	28.979172
1180.000000	28.990851
1179.000000	29.015779
1178.000000	29.034305
1177.000000	29.053356
1176.000000	29.081630
1175.000000	29.105724
1174.000000	29.131770
1173.000000	29.165742
1172.000000	29.196926
1171.000000	29.226684
1170.000000	29.262834
1169.000000	29.294065
1168.000000	29.317018
1167.000000	29.351522
1166.000000	29.391955
1165.000000	29.433437
1164.000000	29.470302
1163.000000	29.504594
1162.000000	29.536883
1161.000000	29.569434
1160.000000	29.611473
1159.000000	29.651413
1158.000000	29.683430
1157.000000	29.718757
1156.000000	29.747165
1155.000000	29.779972
1154.000000	29.803545
1153.000000	29.823324
1152.000000	29.853377
1151.000000	29.884459
1150.000000	29.903590
1149.000000	29.911160
1148.000000	29.942406
1147.000000	29.965055
1146.000000	29.971486
1145.000000	29.985135
1144.000000	30.001802
1143.000000	30.030923
1142.000000	30.051139
1141.000000	30.077063
1140.000000	30.101519
1139.000000	30.114822
1138.000000	30.140885
1137.000000	30.175065
1136.000000	30.190191
1135.000000	30.204040
1134.000000	30.229264
1133.000000	30.259059
1132.000000	30.270499
1131.000000	30.270965
1130.000000	30.291936
1129.000000	30.311492
1128.000000	30.288530
1127.000000	30.275998
1126.000000	30.299586
1125.000000	30.314058
1124.000000	30.334120
1123.000000	30.348100
1122.000000	30.345104
1121.000000	30.343260
1120.000000	30.363323
1119.000000	30.362125
1118.000000	30.370504
1117.000000	30.382456
1116.000000	30.388479
1115.000000	30.385812
1114.000000	30.384789
1113.000000	30.381120
1112.000000	30.390896
1111.000000	30.392685
1110.000000	30.365398
1109.000000	30.352812
1108.000000	30.358845
1107.000000	30.377661
1106.000000	30.388407
1105.000000	30.379748
1104.000000	30.387284
1103.000000	30.388648
1102.000000	30.388147
1101.000000	30.385346
1100.000000	30.388007
1099.000000	30.364908
1098.000000	30.358254
1097.000000	30.369220
1096.000000	30.379820
1095.000000	30.379782
1094.000000	30.397624
1093.000000	30.400845
1092.000000	30.391264
1091.000000	30.361169
1090.000000	30.360691
1089.000000	30.364524
1088.000000	30.362386
1087.000000	30.360480
1086.000000	30.361257
1085.000000	30.370537
1084.000000	30.352404
1083.000000	30.337629
1082.000000	30.352814
1081.000000	30.354013
1080.000000	30.355070
1079.000000	30.348375
1078.000000	30.357122
1077.000000	30.327283
1076.000000	30.329983
1075.000000	30.323904
1074.000000	30.321334
1073.000000	30.342984
1072.000000	30.341412
1071.000000	30.328802
1070.000000	30.298738
1069.000000	30.310096
1068.000000	30.297487
1067.000000	30.302514
1066.000000	30.318639
1065.000000	30.309416
1064.000000	30.309339
1063.000000	30.267772
1062.000000	30.280493
1061.000000	30.280052
1060.000000	30.280736
1059.000000	30.281821
1058.000000	30.272621
1057.000000	30.268606
1056.000000	30.240486
1055.000000	30.231633
1054.000000	30.249558
1053.000000	30.266136
1052.000000	30.257516
1051.000000	30.226638
1050.000000	30.195504
1049.000000	30.211261
1048.000000	30.201918
1047.000000	30.228677
1046.000000	30.196040
1045.000000	30.206473
1044.000000	30.208156
1043.000000	30.218211
1042.000000	30.218346
1041.000000	30.183946
1040.000000	30.186823
1039.000000	30.193188
1038.000000	30.203044
1037.000000	30.168531
1036.000000	30.179554
1035.000000	30.181169
1034.000000	30.208662
1033.000000	30.167058
1032.000000	30.170238
1031.000000	30.183971
1030.000000	30.170621
1029.000000	30.191116
1028.000000	30.162809
1027.000000	30.162252
1026.000000	30.161801
1025.000000	30.158324
1024.000000	30.175631
1023.000000	30.174486
1022.000000	30.171515
1021.000000	30.144859
1020.000000	30.161613
1019.000000	30.187930
1018.000000	30.160874
1017.000000	30.164933
1016.000000	30.162695
1015.000000	30.187990
1014.000000	30.175024
1013.000000	30.177406
1012.000000	30.148248
1011.000000	30.172459
1010.000000	30.170934
1009.000000	30.195033
1008.000000	30.184647
1007.000000	30.194537
1006.000000	30.199787
1005.000000	30.191676
1004.000000	30.205105
1003.000000	30.198740
1002.000000	30.199327
1001.000000	30.214399
1000.000000	30.197111
999.000000	30.211113
998.000000	30.217273
997.000000	30.213032
996.000000	30.221230
995.000000	30.232258
994.000000	30.218821
993.000000	30.212130
992.000000	30.216293
991.000000	30.242434
990.000000	30.247088
989.000000	30.234935
988.000000	30.227295
987.000000	30.244100
986.000000	30.261861
985.000000	30.263362
984.000000	30.269265
983.000000	30.288336
982.000000	30.304106
981.000000	30.314730
980.000000	30.330551
979.000000	30.357205
978.000000	30.368445
977.000000	30.375078
976.000000	30.383687
975.000000	30.374440
974.000000	30.384088
973.000000	30.404183
972.000000	30.409494
971.000000	30.413571
970.000000	30.422135
969.000000	30.430939
968.000000	30.436208
967.000000	30.445751
966.000000	30.457459
965.000000	30.463530
964.000000	30.460363
963.000000	30.454628
962.000000	30.455749
961.000000	30.459678
960.000000	30.461463
959.000000	30.473320
958.000000	30.486705
957.000000	30.488065
956.000000	30.500201
955.000000	30.507355
954.000000	30.513619
953.000000	30.502565
952.000000	30.494283
951.000000	30.502871
950.000000	30.513721
949.000000	30.519035
948.000000	30.522952
947.000000	30.526297
946.000000	30.519987
945.000000	30.524045
944.000000	30.535389
943.000000	30.528385
942.000000	30.535935
941.000000	30.543141
940.000000	30.543738
939.000000	30.541037
938.000000	30.532332
937.000000	30.541178
936.000000	30.541989
935.000000	30.548457
934.000000	30.560108
933.000000	30.555762
932.000000	30.557779
931.000000	30.554420
930.000000	30.553241
929.000000	30.552330
928.000000	30.556769
927.000000	30.549541
926.000000	30.543430
925.000000	30.551869
924.000000	30.558095
923.000000	30.530848
922.000000	30.504855
921.000000	30.523131
920.000000	30.544091
919.000000	30.543294
918.000000	30.554199
917.000000	30.565004
916.000000	30.551075
915.000000	30.539454
914.000000	30.539410
913.000000	30.557213
912.000000	30.563781
911.000000	30.547518
910.000000	30.546807
909.000000	30.578320
908.000000	30.595588
907.000000	30.571295
906.000000	30.555474
905.000000	30.573573
904.000000	30.576402
903.000000	30.553792
902.000000	30.588579
901.000000	30.600122
900.000000	30.612454
899.000000	30.596059
898.000000	30.580301
897.000000	30.633630
896.000000	30.617032
895.000000	30.592807
894.000000	30.598726
893.000000	30.637409
892.000000	30.644969
891.000000	30.694618
890.000000	30.668126
889.000000	30.662536
888.000000	30.674960
887.000000	30.683371
886.000000	30.667938
885.000000	30.658777
884.000000	30.663568
883.000000	30.687777
882.000000	30.669605
881.000000	30.660234
880.000000	30.713549
879.000000	30.715788
878.000000	30.640473
877.000000	30.646593
876.000000	30.721662
875.000000	30.669681
874.000000	30.732219
873.000000	30.710103
872.000000	30.704283
871.000000	30.709915
870.000000	30.694256
869.000000	30.625319
868.000000	30.621050
867.000000	30.616200
866.000000	30.711085
865.000000	30.682158
864.000000	30.670859
863.000000	30.645987
862.000000	30.607136
861.000000	30.636731
860.000000	30.691838
859.000000	30.394842
858.000000	30.437639
857.000000	30.452042
856.000000	30.421820
855.000000	30.261519
854.000000	30.362210
853.000000	30.233059
852.000000	30.254514
851.000000	30.289797
850.000000	30.364557
849.000000	30.537010
848.000000	30.304031
847.000000	30.300094
846.000000	30.306975
845.000000	30.314277
844.000000	30.383058
843.000000	30.322675
842.000000	30.270106
841.000000	30.194655
840.000000	30.289428
839.000000	30.238099
838.000000	30.133341
837.000000	30.317874
836.000000	30.306521
835.000000	30.258756
834.000000	30.322470
833.000000	30.293707
832.000000	30.234400
831.000000	30.228178
830.000000	30.237945
829.000000	30.272766
828.000000	30.223123
827.000000	30.276934
826.000000	30.268768
825.000000	30.206014
824.000000	30.188570
823.000000	30.212456
822.000000	30.178817
821.000000	30.209947
820.000000	30.218953
819.000000	30.235805
818.000000	30.148972
817.000000	30.278631
816.000000	30.304532
815.000000	30.152150
814.000000	30.265315
813.000000	30.197481
812.000000	30.122829
811.000000	30.194098
810.000000	30.169327
809.000000	30.212606
808.000000	30.208823
807.000000	30.225702
806.000000	30.159055
805.000000	30.257875
804.000000	30.171424
803.000000	30.200002
802.000000	30.160400
801.000000	30.226397
800.000000	30.246723
799.000000	30.127339
798.000000	30.201450
797.000000	30.186085
796.000000	30.201278
795.000000	30.151694
794.000000	30.199297
793.000000	30.229092
792.000000	30.210134
791.000000	30.167444
790.000000	30.148090
789.000000	30.203702
788.000000	30.191460
787.000000	30.165398
786.000000	30.198398
785.000000	30.180408
784.000000	30.174203
783.000000	30.139160
782.000000	30.142403
781.000000	30.161914
780.000000	30.173461
779.000000	30.173519
778.000000	30.163226
777.000000	30.138616
776.000000	30.129633
775.000000	30.127984
774.000000	30.188855
773.000000	30.177234
772.000000	30.213709
771.000000	30.158468
770.000000	30.145674
769.000000	30.175560
768.000000	30.140712
767.000000	30.141717
766.000000	30.141249
765.000000	30.108873
764.000000	30.146971
763.000000	30.172157
762.000000	30.175830
761.000000	30.173583
760.000000	30.151439
759.000000	30.088720
758.000000	30.066713
757.000000	30.097967
756.000000	30.098547
755.000000	30.144174
754.000000	30.156973
753.000000	30.111337
752.000000	30.113355
751.000000	30.091885
750.000000	30.121474
749.000000	30.101455
748.000000	30.104388
747.000000	30.080350
746.000000	30.072018
745.000000	30.089302
744.000000	30.084031
743.000000	30.066585
742.000000	30.041730
741.000000	30.068222
740.000000	30.087041
739.000000	30.086114
738.000000	30.081159
737.000000	30.077210
736.000000	30.049939
735.000000	30.078794
734.000000	30.068680
733.000000	30.039734
732.000000	30.053228
731.000000	30.039969
730.000000	30.011085
729.000000	30.009628
728.000000	30.014033
727.000000	30.041150
726.000000	30.030140
725.000000	30.016346
724.000000	30.007972
723.000000	30.030802
722.000000	30.051173
721.000000	30.042639
720.000000	30.019926
719.000000	30.024755
718.000000	29.997196
717.000000	29.994162
716.000000	29.985520
715.000000	29.998020
714.000000	30.001817
713.000000	29.984261
712.000000	29.984930
711.000000	29.991798
710.000000	29.990787
709.000000	29.996752
708.000000	29.982020
707.000000	29.988443
706.000000	29.973023
705.000000	29.950250
704.000000	29.957199
703.000000	29.957178
702.000000	29.942736
701.000000	29.935389
700.000000	29.960930
699.000000	29.962457
698.000000	29.958743
697.000000	29.938721
696.000000	29.928330
695.000000	29.931536
694.000000	29.925518
693.000000	29.923250
692.000000	29.908498
691.000000	29.919571
690.000000	29.910521
689.000000	29.874749
688.000000	29.860135
687.000000	29.860482
686.000000	29.865459
685.000000	29.865980
684.000000	29.849594
683.000000	29.827278
682.000000	29.813838
681.000000	29.823958
680.000000	29.830013
679.000000	29.851070
678.000000	29.839381
677.000000	29.845111
676.000000	29.846106
675.000000	29.811682
674.000000	29.820152
673.000000	29.806768
672.000000	29.787343
671.000000	29.791930
670.000000	29.805164
669.000000	29.793608
668.000000	29.750063
667.000000	29.764977
666.000000	29.800446
665.000000	29.797455
664.000000	29.756970
663.000000	29.752912
662.000000	29.765500
661.000000	29.761094
660.000000	29.761274
659.000000	29.731388
658.000000	29.734661
657.000000	29.741735
656.000000	29.703891
655.000000	29.710819
654.000000	29.705537
653.000000	29.731151
652.000000	29.722741
651.000000	29.707989
650.000000	29.689137
649.000000	29.695338
648.000000	29.676354
647.000000	29.663359
646.000000	29.655268
645.000000	29.661272
644.000000	29.649495
643.000000	29.650376
642.000000	29.632421
641.000000	29.614893
640.000000	29.604502
639.000000	29.631921
638.000000	29.605817
637.000000	29.618932
636.000000	29.587367
635.000000	29.586887
634.000000	29.577534
633.000000	29.584252
632.000000	29.554503
631.000000	29.557606
630.000000	29.570413
629.000000	29.542290
628.000000	29.520525
627.000000	29.531593
626.000000	29.517464
625.000000	29.518219
624.000000	29.515930
623.000000	29.525747
622.000000	29.501971
621.000000	29.503506
620.000000	29.485429
619.000000	29.489731
618.000000	29.454243
617.000000	29.458273
616.000000	29.414436
615.000000	29.450225
614.000000	29.438554
613.000000	29.399235
612.000000	29.403995
611.000000	29.409771
610.000000	29.383091
609.000000	29.392511
608.000000	29.378466
607.000000	29.380782
606.000000	29.347137
605.000000	29.345748
604.000000	29.320411
603.000000	29.315365
602.000000	29.280249
601.000000	29.307075
600.000000	29.311105
599.000000	29.280708
598.000000	29.238055
597.000000	29.291442
596.000000	29.221927
595.000000	29.214382
594.000000	29.199525
593.000000	29.203166
592.000000	29.161017
591.000000	29.175139
590.000000	29.139021
589.000000	29.155852
588.000000	29.185408
587.000000	29.121659
586.000000	29.124567
585.000000	29.125318
584.000000	29.098756
583.000000	29.097428
582.000000	29.072728
581.000000	29.055805
580.000000	29.052063
579.000000	28.999532
578.000000	29.021577
577.000000	28.998134
576.000000	28.995540
575.000000	28.978733
574.000000	28.930312
573.000000	28.942315
572.000000	28.931139
571.000000	28.931570
570.000000	28.914619
569.000000	28.884245
568.000000	28.838930
567.000000	28.836774
566.000000	28.835951
565.000000	28.827593
564.000000	28.825665
563.000000	28.764399
562.000000	28.719367
561.000000	28.769245
560.000000	28.702316
559.000000	28.736773
558.000000	28.714868
557.000000	28.679918
556.000000	28.656123
555.000000	28.616080
554.000000	28.608474
553.000000	28.602733
552.000000	28.575691
551.000000	28.565774
550.000000	28.517321
549.000000	28.507962
548.000000	28.489505
547.000000	28.481460
546.000000	28.449235
545.000000	28.431669
544.000000	28.424695
543.000000	28.406062
542.000000	28.372603
541.000000	28.358767
540.000000	28.323156
539.000000	28.306851
538.000000	28.289366
537.000000	28.261311
536.000000	28.223371
535.000000	28.210449
534.000000	28.179698
533.000000	28.166918
532.000000	28.150363
531.000000	28.132960
530.000000	28.101685
529.000000	28.059747
528.000000	28.040527
527.000000	28.013145
526.000000	28.002232
525.000000	27.962708
524.000000	27.946934
523.000000	27.912521
522.000000	27.875134
521.000000	27.859609
520.000000	27.853457
519.000000	27.795723
518.000000	27.775900
517.000000	27.748979
516.000000	27.726052
515.000000	27.674287
514.000000	27.655402
513.000000	27.610539
512.000000	27.571027
511.000000	27.556911
510.000000	27.530195
509.000000	27.490842
508.000000	27.455076
507.000000	27.412395
506.000000	27.375910
505.000000	27.353635
504.000000	27.299053
503.000000	27.266799
502.000000	27.242180
501.000000	27.204122
500.000000	27.147015
499.000000	27.108045
498.000000	27.082110
497.000000	27.056722
496.000000	27.022995
495.000000	26.984528
494.000000	26.941549
493.000000	26.903296
492.000000	26.877544
491.000000	26.849775
490.000000	26.808291
489.000000	26.775328
488.000000	26.749416
487.000000	26.713352
486.000000	26.659794
485.000000	26.609062
484.000000	26.597500
483.000000	26.568595
482.000000	26.526282
481.000000	26.492456
480.000000	26.438453
479.000000	26.368295
478.000000	26.319260
477.000000	26.273406
476.000000	26.225996
475.000000	26.180414
474.000000	26.118662
473.000000	26.074907
472.000000	26.036333
471.000000	25.985621
470.000000	25.936288
469.000000	25.864277
468.000000	25.782323
467.000000	25.749807
466.000000	25.718113
465.000000	25.660805
464.000000	25.597408
463.000000	25.532673
462.000000	25.458171
461.000000	25.418942
460.000000	25.377273
459.000000	25.310883
458.000000	25.247748
457.000000	25.169803
456.000000	25.102283
455.000000	25.071143
454.000000	25.027791
453.000000	24.911290
452.000000	24.847459
451.000000	24.819324
450.000000	24.732095
449.000000	24.635966
448.000000	24.579216
447.000000	24.526022
446.000000	24.448149
445.000000	24.367562
444.000000	24.267002
443.000000	24.187377
442.000000	24.131276
441.000000	24.047188
440.000000	23.956862
439.000000	23.887819
438.000000	23.787455
437.000000	23.691851
436.000000	23.604598
435.000000	23.508593
434.000000	23.421327
433.000000	23.331316
432.000000	23.258196
431.000000	23.176456
430.000000	23.086201
429.000000	22.954781
428.000000	22.844911
427.000000	22.731513
426.000000	22.635987
425.000000	22.527452
424.000000	22.432574
423.000000	22.338720
422.000000	22.218322
421.000000	22.115450
420.000000	22.006684
419.000000	21.882168
418.000000	21.752868
417.000000	21.614768
416.000000	21.503868
415.000000	21.362292
414.000000	21.254034
413.000000	21.114653
412.000000	21.001668
411.000000	20.872413
410.000000	20.736369
409.000000	20.607905
408.000000	20.490077
407.000000	20.332916
406.000000	20.212168
405.000000	20.056585
404.000000	19.943304
403.000000	19.817679
402.000000	19.671819
401.000000	19.519085
400.000000	19.382917
399.000000	19.210690
398.000000	19.082296
397.000000	18.958084
396.000000	18.783289
395.000000	18.634264
394.000000	18.502164
393.000000	18.326771
392.000000	18.188716
391.000000	18.025339
390.000000	17.872252
389.000000	17.689179
388.000000	17.565288
387.000000	17.372720
386.000000	17.230004
385.000000	17.056168
384.000000	16.882720
383.000000	16.717637
382.000000	16.553147
381.000000	16.375365
380.000000	16.167995
379.000000	15.991333
378.000000	15.798926
377.000000	15.737805
376.000000	15.541467
375.000000	15.340889
374.000000	15.181330
373.000000	14.995677
372.000000	14.798205
371.000000	14.658571
370.000000	14.453161
369.000000	14.264602
368.000000	14.063503
367.000000	13.832894
366.000000	13.731981
365.000000	13.542660
364.000000	13.363980
363.000000	13.197769
362.000000	12.989656
361.000000	12.831554
360.000000	12.648224
359.000000	12.449990
358.000000	12.273105
357.000000	12.129406
356.000000	12.008422
355.000000	11.741088
354.000000	11.599312
353.000000	11.440760
352.000000	11.308836
351.000000	11.171500
350.000000	10.952639
349.000000	10.774347
348.000000	10.608751
347.000000	10.421495
346.000000	10.292323
345.000000	10.059907
344.000000	9.902941
343.000000	9.745196
342.000000	9.538307
341.000000	9.270344
340.000000	9.115875
339.000000	8.870286
338.000000	8.663253
337.000000	8.407200
336.000000	8.188435
335.000000	7.974090
334.000000	7.712972
333.000000	7.478668
332.000000	7.249672
331.000000	7.049599
330.000000	6.797008
329.000000	6.568219
328.000000	6.329832
327.000000	6.053034
326.000000	5.861036
325.000000	5.729014
324.000000	5.541002
323.000000	5.366586
322.000000	5.210680
321.000000	5.032829
320.000000	4.989479
319.000000	4.821127
318.000000	4.790662
317.000000	4.664053
316.000000	4.559481
315.000000	4.476186
314.000000	4.347082
313.000000	4.263360
312.000000	4.187665
311.000000	4.082884
310.000000	4.007547
309.000000	3.914741
308.000000	3.832794
307.000000	3.764517
306.000000	3.691980
305.000000	3.602621
304.000000	3.525323
303.000000	3.460338
302.000000	3.389014
301.000000	3.291751
300.000000	3.209400
299.000000	3.086858
298.000000	2.976493
297.000000	2.862171
296.000000	2.758129
295.000000	2.606714
294.000000	2.465655
293.000000	2.269718
292.000000	2.111055
291.000000	1.923488
290.000000	1.746892
289.000000	1.591000
288.000000	1.476621
287.000000	1.382721
286.000000	1.306625
285.000000	1.286685
284.000000	1.273548
283.000000	1.250372
282.000000	1.264902
281.000000	1.256805
280.000000	1.250530
279.000000	1.258487
278.000000	1.263970
277.000000	1.288272
276.000000	1.305044
275.000000	1.331626
274.000000	1.357360
273.000000	1.388313
272.000000	1.413243
271.000000	1.423533
270.000000	1.441315
269.000000	1.460660
268.000000	1.480627
267.000000	1.523929
266.000000	1.566455
265.000000	1.584705
264.000000	1.620430
263.000000	1.666397
262.000000	1.708005
261.000000	1.736380
260.000000	1.781997
259.000000	1.809767
258.000000	1.851149
257.000000	1.896535
256.000000	1.934231
255.000000	1.935654
254.000000	1.948351
253.000000	1.916099
252.000000	1.873717
251.000000	1.846609
250.000000	1.773848
249.000000	1.668944
248.000000	1.551110
247.000000	1.423864
246.000000	1.295336
245.000000	1.159945
244.000000	1.028534
243.000000	0.908710
242.000000	0.791785
241.000000	0.693665
240.000000	0.614074
239.000000	0.527886
238.000000	0.470559
237.000000	0.426243
236.000000	0.382123
235.000000	0.351730
234.000000	0.329040
233.000000	0.300946
232.000000	0.271732
231.000000	0.245900
230.000000	0.223620
229.000000	0.194675
228.000000	0.178438
227.000000	0.172904
226.000000	0.148161
225.000000	0.130573
224.000000	0.115125
223.000000	0.101281
222.000000	0.115920
221.000000	0.118348
220.000000	0.100700
219.000000	0.107847
218.000000	0.099509
217.000000	0.079283
216.000000	0.083681
215.000000	0.078057
214.000000	0.065636
213.000000	0.085273
212.000000	0.087348
211.000000	0.061026
210.000000	0.058018
209.000000	0.048177
208.000000	0.052781
207.000000	0.080385
206.000000	0.062554
205.000000	0.056478
204.000000	0.078985
203.000000	0.124686
202.000000	0.168449
201.000000	0.137489
200.000000	0.118671
