PE UV       SUBTECH     SPECTRUM    ASCII       PEDS        4.00        
   -1
004-1S-F7-NR001-C001.Sample.asc
24/01/08
17:51:57.00
24/01/08
17:51:57.00
Administrator

250.000000
1
Lambda 750
750N8071901
PerkinElmer UV WinLab 6.0.4.0738 / 1.61.00 Lambda 900

0
0
3350/servo 860.8/2
0
0
UV/VIS
1
1
1
CommonBeamDepol,150mm sphere / downward view
0
0
0
0
Program
Program
3350/servo 860.8/2
3350/0.2 860.8/0.2
3350/0.2 860.8/0.2
0
1
 
 
 
0
 
860.8
319.2
860.8
Front
100
on
 
 
0
0
0
 
0
 
 
 
0
 
 
0
0
0
0
0
 
 
 
 
0
0


0
0
#HDR
-1
-1
#GR
nm
%R
1.0
0.0
2500.000000
-10.000000
226
8
70.395479
0.000000
#DATA
2500.000000	0.000000
2490.000000	25.262053
2480.000000	25.330055
2470.000000	23.275366
2460.000000	25.532502
2450.000000	28.193836
2440.000000	29.662007
2430.000000	29.981567
2420.000000	26.924157
2410.000000	30.448866
2400.000000	30.634049
2390.000000	30.739644
2380.000000	30.360099
2370.000000	29.792557
2360.000000	30.824416
2350.000000	30.099605
2340.000000	30.634750
2330.000000	29.540514
2320.000000	28.780197
2310.000000	29.377374
2300.000000	28.373921
2290.000000	28.688115
2280.000000	28.668551
2270.000000	29.729952
2260.000000	32.057963
2250.000000	33.991700
2240.000000	35.014927
2230.000000	35.788836
2220.000000	35.182096
2210.000000	34.648590
2200.000000	33.269649
2190.000000	33.485247
2180.000000	32.776233
2170.000000	33.804925
2160.000000	35.181151
2150.000000	36.266675
2140.000000	37.857094
2130.000000	39.545875
2120.000000	39.373021
2110.000000	39.726997
2100.000000	40.032500
2090.000000	39.066117
2080.000000	38.444661
2070.000000	36.775790
2060.000000	35.088916
2050.000000	34.537378
2040.000000	35.041116
2030.000000	35.944494
2020.000000	36.201486
2010.000000	35.266957
2000.000000	33.919140
1990.000000	32.820213
1980.000000	31.455785
1970.000000	30.247124
1960.000000	29.352537
1950.000000	28.943736
1940.000000	29.876915
1930.000000	31.975066
1920.000000	35.689339
1910.000000	40.655656
1900.000000	46.406569
1890.000000	51.244971
1880.000000	54.588521
1870.000000	56.492848
1860.000000	56.905045
1850.000000	57.126138
1840.000000	56.833450
1830.000000	56.482113
1820.000000	56.296005
1810.000000	55.851900
1800.000000	55.597088
1790.000000	55.283513
1780.000000	54.760354
1770.000000	54.321727
1760.000000	53.831019
1750.000000	53.249230
1740.000000	52.870164
1730.000000	53.271328
1720.000000	54.149780
1710.000000	54.882334
1700.000000	55.288020
1690.000000	56.235244
1680.000000	57.926097
1670.000000	59.227921
1660.000000	59.807458
1650.000000	59.864688
1640.000000	59.612431
1630.000000	59.304431
1620.000000	58.736621
1610.000000	58.108032
1600.000000	57.568301
1590.000000	56.991938
1580.000000	56.570220
1570.000000	56.129954
1560.000000	55.880398
1550.000000	55.475991
1540.000000	54.639148
1530.000000	53.774500
1520.000000	53.323381
1510.000000	53.046588
1500.000000	52.991579
1490.000000	53.178628
1480.000000	53.668460
1470.000000	54.158655
1460.000000	54.699385
1450.000000	55.460684
1440.000000	56.423034
1430.000000	57.586295
1420.000000	59.147733
1410.000000	61.017634
1400.000000	62.867161
1390.000000	64.400921
1380.000000	65.275302
1370.000000	65.717258
1360.000000	66.139078
1350.000000	66.714403
1340.000000	67.379335
1330.000000	67.851826
1320.000000	68.105998
1310.000000	68.073231
1300.000000	67.965721
1290.000000	67.837284
1280.000000	67.805002
1270.000000	67.903346
1260.000000	68.094968
1250.000000	68.010838
1240.000000	67.916604
1230.000000	67.673083
1220.000000	67.514658
1210.000000	67.305005
1200.000000	67.165588
1190.000000	67.171092
1180.000000	67.454033
1170.000000	67.825962
1160.000000	68.366094
1150.000000	68.758872
1140.000000	69.126702
1130.000000	69.303034
1120.000000	69.333794
1110.000000	69.415731
1100.000000	69.533868
1090.000000	69.564168
1080.000000	69.401050
1070.000000	69.395414
1060.000000	69.376762
1050.000000	69.386388
1040.000000	69.282032
1030.000000	69.323179
1020.000000	69.262799
1010.000000	69.230888
1000.000000	69.402006
990.000000	69.444580
980.000000	69.552768
970.000000	69.674804
960.000000	69.779980
950.000000	69.792439
940.000000	69.807936
930.000000	69.822723
920.000000	69.829514
910.000000	69.732247
900.000000	69.926471
890.000000	69.959012
880.000000	70.079153
870.000000	70.205227
860.000000	70.395479
850.000000	69.576360
840.000000	70.258939
830.000000	70.209564
820.000000	69.757803
810.000000	69.953558
800.000000	69.887296
790.000000	69.735381
780.000000	69.764878
770.000000	69.796942
760.000000	69.749306
750.000000	69.771888
740.000000	69.510108
730.000000	69.618841
720.000000	69.426787
710.000000	69.558417
700.000000	69.088823
690.000000	69.075887
680.000000	68.978436
670.000000	68.644486
660.000000	68.258831
650.000000	68.153799
640.000000	67.885741
630.000000	67.636786
620.000000	67.368009
610.000000	66.990390
600.000000	66.587225
590.000000	66.208736
580.000000	65.742870
570.000000	65.193179
560.000000	64.742306
550.000000	64.229328
540.000000	63.735175
530.000000	62.951468
520.000000	62.320375
510.000000	61.655977
500.000000	61.020888
490.000000	60.285730
480.000000	59.156778
470.000000	58.240234
460.000000	57.354745
450.000000	56.320261
440.000000	54.828698
430.000000	53.390282
420.000000	51.801943
410.000000	49.799140
400.000000	47.763839
390.000000	45.635954
380.000000	43.647809
370.000000	41.775370
360.000000	39.560455
350.000000	37.067835
340.000000	35.719105
330.000000	33.062502
320.000000	30.989286
310.000000	29.575351
300.000000	28.135814
290.000000	24.771078
280.000000	18.740443
270.000000	14.972132
260.000000	13.316266
250.000000	13.001101
