PE UV       SUBTECH     SPECTRUM    ASCII       PEDS        4.00        
   -1
004-1S-C3-NR001-F001.Sample.asc
24/01/08
17:40:44.00
24/01/08
17:40:44.00
Administrator

250.000000
1
Lambda 750
750N8071901
PerkinElmer UV WinLab 6.0.4.0738 / 1.61.00 Lambda 900

0
0
3350/servo 860.8/2
0
0
UV/VIS
1
1
1
CommonBeamDepol,150mm sphere / downward view
0
0
0
0
Program
Program
3350/servo 860.8/2
3350/0.2 860.8/0.2
3350/0.2 860.8/0.2
0
1
 
 
 
0
 
860.8
319.2
860.8
Front
100
on
 
 
0
0
0
 
0
 
 
 
0
 
 
0
0
0
0
0
 
 
 
 
0
0


0
0
#HDR
-1
-1
#GR
nm
%R
1.0
0.0
2500.000000
-10.000000
226
8
73.458350
0.000000
#DATA
2500.000000	0.000000
2490.000000	23.886946
2480.000000	24.666368
2470.000000	22.229593
2460.000000	25.565716
2450.000000	28.758597
2440.000000	29.318955
2430.000000	30.279245
2420.000000	27.790094
2410.000000	29.807945
2400.000000	29.892576
2390.000000	31.709659
2380.000000	30.186315
2370.000000	29.871412
2360.000000	29.831928
2350.000000	30.447636
2340.000000	30.779229
2330.000000	30.520871
2320.000000	29.004561
2310.000000	29.072621
2300.000000	27.984090
2290.000000	28.223357
2280.000000	28.066447
2270.000000	29.299975
2260.000000	30.710661
2250.000000	33.149886
2240.000000	33.775863
2230.000000	34.719596
2220.000000	33.626656
2210.000000	33.244799
2200.000000	32.841349
2190.000000	31.862690
2180.000000	32.114726
2170.000000	32.031959
2160.000000	34.541101
2150.000000	35.583081
2140.000000	36.866977
2130.000000	37.105392
2120.000000	38.017318
2110.000000	38.435497
2100.000000	38.287724
2090.000000	37.941438
2080.000000	37.063878
2070.000000	35.370730
2060.000000	33.570963
2050.000000	32.931535
2040.000000	33.130903
2030.000000	34.216611
2020.000000	34.216736
2010.000000	33.569075
2000.000000	32.442365
1990.000000	31.247239
1980.000000	29.951968
1970.000000	28.822384
1960.000000	28.151320
1950.000000	27.599470
1940.000000	28.465826
1930.000000	30.584928
1920.000000	34.018305
1910.000000	39.134333
1900.000000	44.684025
1890.000000	50.021175
1880.000000	53.722803
1870.000000	55.730447
1860.000000	56.526879
1850.000000	56.682010
1840.000000	56.500511
1830.000000	56.012796
1820.000000	55.717601
1810.000000	55.135611
1800.000000	54.762897
1790.000000	54.507039
1780.000000	53.822366
1770.000000	53.427212
1760.000000	52.941702
1750.000000	52.258499
1740.000000	52.025767
1730.000000	52.466448
1720.000000	53.422981
1710.000000	54.068004
1700.000000	54.337046
1690.000000	55.424691
1680.000000	57.323234
1670.000000	58.859289
1660.000000	59.547936
1650.000000	59.675123
1640.000000	59.319276
1630.000000	58.813561
1620.000000	58.145321
1610.000000	57.398591
1600.000000	56.642651
1590.000000	55.974239
1580.000000	55.290214
1570.000000	54.777072
1560.000000	54.529770
1550.000000	54.060505
1540.000000	52.998970
1530.000000	52.055777
1520.000000	51.551269
1510.000000	51.200619
1500.000000	51.180509
1490.000000	51.363764
1480.000000	51.834498
1470.000000	52.348387
1460.000000	53.006147
1450.000000	53.851016
1440.000000	55.033945
1430.000000	56.503531
1420.000000	58.492716
1410.000000	60.904310
1400.000000	63.352659
1390.000000	65.345279
1380.000000	66.470500
1370.000000	67.113091
1360.000000	67.693352
1350.000000	68.485092
1340.000000	69.371918
1330.000000	69.991641
1320.000000	70.345402
1310.000000	70.378349
1300.000000	70.264389
1290.000000	70.145453
1280.000000	70.121603
1270.000000	70.279777
1260.000000	70.344885
1250.000000	70.362086
1240.000000	70.230175
1230.000000	69.947190
1220.000000	69.692757
1210.000000	69.336533
1200.000000	69.017895
1190.000000	68.976248
1180.000000	69.279304
1170.000000	69.947234
1160.000000	70.745752
1150.000000	71.317080
1140.000000	71.786683
1130.000000	72.116080
1120.000000	72.235385
1110.000000	72.299124
1100.000000	72.393798
1090.000000	72.450738
1080.000000	72.366104
1070.000000	72.232915
1060.000000	72.142658
1050.000000	72.201925
1040.000000	72.067067
1030.000000	72.054323
1020.000000	72.048553
1010.000000	72.023277
1000.000000	72.196693
990.000000	72.300186
980.000000	72.399602
970.000000	72.598849
960.000000	72.719989
950.000000	72.752811
940.000000	72.797596
930.000000	72.829745
920.000000	72.745154
910.000000	72.897331
900.000000	73.078979
890.000000	72.898615
880.000000	73.107533
870.000000	73.207899
860.000000	73.313598
850.000000	72.576967
840.000000	73.458350
830.000000	72.883163
820.000000	72.967422
810.000000	73.066796
800.000000	72.931519
790.000000	73.058356
780.000000	73.151404
770.000000	72.839694
760.000000	73.010255
750.000000	73.052948
740.000000	72.992016
730.000000	72.954713
720.000000	72.975948
710.000000	72.914166
700.000000	72.715317
690.000000	72.831587
680.000000	72.698531
670.000000	72.615125
660.000000	72.443149
650.000000	72.396501
640.000000	72.159530
630.000000	72.068289
620.000000	71.986393
610.000000	71.754279
600.000000	71.512927
590.000000	71.240234
580.000000	70.983670
570.000000	70.771255
560.000000	70.396127
550.000000	70.122370
540.000000	69.616848
530.000000	69.126265
520.000000	68.700146
510.000000	68.286950
500.000000	67.814166
490.000000	67.096507
480.000000	66.362253
470.000000	65.454859
460.000000	64.646150
450.000000	63.859718
440.000000	62.309891
430.000000	60.980368
420.000000	59.258435
410.000000	56.986592
400.000000	54.199667
390.000000	51.613800
380.000000	49.001564
370.000000	46.619065
360.000000	43.497853
350.000000	39.676884
340.000000	37.828112
330.000000	34.974850
320.000000	32.485554
310.000000	30.850686
300.000000	31.126117
290.000000	23.325726
280.000000	17.487702
270.000000	13.630228
260.000000	13.531760
250.000000	13.736333
