PE UV       SUBTECH     SPECTRUM    ASCII       PEDS        4.00        
   -1
004-1S-B2-NR001-F001.Sample.asc
24/01/08
17:32:46.00
24/01/08
17:32:46.00
Administrator

250.000000
1
Lambda 750
750N8071901
PerkinElmer UV WinLab 6.0.4.0738 / 1.61.00 Lambda 900

0
0
3350/servo 860.8/2
0
0
UV/VIS
1
1
1
CommonBeamDepol,150mm sphere / downward view
0
0
0
0
Program
Program
3350/servo 860.8/2
3350/0.2 860.8/0.2
3350/0.2 860.8/0.2
0
1
 
 
 
0
 
860.8
319.2
860.8
Front
100
on
 
 
0
0
0
 
0
 
 
 
0
 
 
0
0
0
0
0
 
 
 
 
0
0


0
0
#HDR
-1
-1
#GR
nm
%R
1.0
0.0
2500.000000
-10.000000
226
8
69.437461
0.000000
#DATA
2500.000000	0.000000
2490.000000	19.009901
2480.000000	21.177574
2470.000000	20.924776
2460.000000	23.036064
2450.000000	25.494401
2440.000000	25.265562
2430.000000	26.094971
2420.000000	24.916619
2410.000000	26.697226
2400.000000	26.006265
2390.000000	26.789401
2380.000000	27.173329
2370.000000	26.392813
2360.000000	27.443256
2350.000000	26.426039
2340.000000	26.583865
2330.000000	26.526520
2320.000000	26.780071
2310.000000	25.713778
2300.000000	24.524714
2290.000000	24.837144
2280.000000	25.008730
2270.000000	25.322961
2260.000000	27.040479
2250.000000	30.049172
2240.000000	30.352298
2230.000000	31.621898
2220.000000	30.853785
2210.000000	30.202299
2200.000000	28.917224
2190.000000	28.354901
2180.000000	28.675601
2170.000000	29.039944
2160.000000	30.425241
2150.000000	32.682084
2140.000000	33.609511
2130.000000	34.508642
2120.000000	34.963334
2110.000000	34.870511
2100.000000	34.834675
2090.000000	34.793201
2080.000000	34.090737
2070.000000	32.221298
2060.000000	30.101395
2050.000000	29.559075
2040.000000	29.943431
2030.000000	31.261714
2020.000000	31.162713
2010.000000	30.390627
2000.000000	28.867544
1990.000000	28.128126
1980.000000	26.847455
1970.000000	25.333243
1960.000000	24.641161
1950.000000	24.097776
1940.000000	25.090937
1930.000000	27.217416
1920.000000	30.539371
1910.000000	35.916180
1900.000000	41.729624
1890.000000	47.070545
1880.000000	50.665138
1870.000000	52.789835
1860.000000	53.565932
1850.000000	53.835762
1840.000000	53.424934
1830.000000	53.018603
1820.000000	52.715345
1810.000000	52.233709
1800.000000	51.859471
1790.000000	51.447373
1780.000000	50.854596
1770.000000	50.362008
1760.000000	49.899187
1750.000000	49.219481
1740.000000	48.881939
1730.000000	49.336237
1720.000000	50.402847
1710.000000	51.154242
1700.000000	51.355293
1690.000000	52.401575
1680.000000	54.206689
1670.000000	55.730500
1660.000000	56.344831
1650.000000	56.453587
1640.000000	56.175398
1630.000000	55.640151
1620.000000	55.085154
1610.000000	54.248716
1600.000000	53.544603
1590.000000	52.874064
1580.000000	52.226758
1570.000000	51.765583
1560.000000	51.468114
1550.000000	51.032282
1540.000000	50.031056
1530.000000	49.101681
1520.000000	48.495719
1510.000000	48.185580
1500.000000	48.110462
1490.000000	48.299354
1480.000000	48.803821
1470.000000	49.361579
1460.000000	49.951990
1450.000000	50.802289
1440.000000	51.984261
1430.000000	53.360736
1420.000000	55.335590
1410.000000	57.613637
1400.000000	59.897826
1390.000000	61.780529
1380.000000	62.782943
1370.000000	63.322039
1360.000000	63.928424
1350.000000	64.574776
1340.000000	65.396323
1330.000000	66.086691
1320.000000	66.447545
1310.000000	66.443640
1300.000000	66.299640
1290.000000	66.113971
1280.000000	66.140996
1270.000000	66.285431
1260.000000	66.365566
1250.000000	66.357768
1240.000000	66.202519
1230.000000	65.943730
1220.000000	65.713681
1210.000000	65.407361
1200.000000	65.118132
1190.000000	65.051273
1180.000000	65.377510
1170.000000	65.978352
1160.000000	66.694339
1150.000000	67.159859
1140.000000	67.633059
1130.000000	67.917760
1120.000000	67.995267
1110.000000	68.018576
1100.000000	68.013217
1090.000000	68.069595
1080.000000	68.010486
1070.000000	67.975099
1060.000000	67.914149
1050.000000	67.891762
1040.000000	67.815598
1030.000000	67.839850
1020.000000	67.718742
1010.000000	67.695139
1000.000000	67.823272
990.000000	67.911891
980.000000	68.009128
970.000000	68.107581
960.000000	68.231369
950.000000	68.291505
940.000000	68.382156
930.000000	68.403417
920.000000	68.388722
910.000000	68.226720
900.000000	68.388043
890.000000	68.573220
880.000000	68.595850
870.000000	68.632092
860.000000	68.781901
850.000000	68.304829
840.000000	69.117559
830.000000	69.437461
820.000000	68.793293
810.000000	68.958345
800.000000	68.958462
790.000000	68.841011
780.000000	68.886273
770.000000	68.776049
760.000000	69.088042
750.000000	68.958352
740.000000	68.764417
730.000000	68.905511
720.000000	68.841602
710.000000	68.878823
700.000000	68.581836
690.000000	68.613027
680.000000	68.529736
670.000000	68.500071
660.000000	68.250709
650.000000	68.309938
640.000000	68.190594
630.000000	67.943354
620.000000	67.900371
610.000000	67.670945
600.000000	67.431501
590.000000	67.096841
580.000000	66.980102
570.000000	66.551712
560.000000	66.250176
550.000000	65.964970
540.000000	65.485873
530.000000	65.034781
520.000000	64.577724
510.000000	64.143704
500.000000	63.620759
490.000000	63.071934
480.000000	62.320816
470.000000	61.617037
460.000000	60.899782
450.000000	60.037106
440.000000	58.524287
430.000000	57.289740
420.000000	55.641098
410.000000	53.560432
400.000000	51.095329
390.000000	48.478985
380.000000	45.976779
370.000000	43.278269
360.000000	40.153134
350.000000	36.806811
340.000000	34.279640
330.000000	30.735950
320.000000	27.394151
310.000000	24.935043
300.000000	22.542802
290.000000	18.189476
280.000000	13.688905
270.000000	11.081765
260.000000	11.287236
250.000000	11.563712
