PE UV       SUBTECH     SPECTRUM    ASCII       PEDS        4.00        
   -1
Ams159341.Sample.asc
18/03/16
15:52:57.00
18/03/16
15:52:57.00
Administrator

200.000000
1
Lambda 750
750N8071901
PerkinElmer UV WinLab 6.0.4.0738 / 1.61.00 Lambda 900

0
0
3350/servo 860.8/2
0
0
UV/VIS
1
1
1
CommonBeamDepol,150mm sphere / downward view
0
0
0
0
Program
Program
3350/servo 860.8/2
3350/0.2 860.8/0.2
3350/0.2 860.8/0.2
0
1
 
 
 
0
 
860.8
319.2
860.8
Front
100
on
 
 
0
0
0
 
0
 
 
 
0
 
 
0
0
0
0
0
 
 
 
 
0
0


0
0
#HDR
-1
-1
#GR
nm
A
1.0
0.0
2350.000000
-1.000000
2151
8
1.259019
0.130068
#DATA
2350.000000	0.616182
2349.000000	0.617999
2348.000000	0.622758
2347.000000	0.607641
2346.000000	0.619485
2345.000000	0.616335
2344.000000	0.615549
2343.000000	0.614393
2342.000000	0.615444
2341.000000	0.614088
2340.000000	0.612985
2339.000000	0.612106
2338.000000	0.606355
2337.000000	0.608140
2336.000000	0.603690
2335.000000	0.598139
2334.000000	0.595000
2333.000000	0.594590
2332.000000	0.597528
2331.000000	0.590681
2330.000000	0.595316
2329.000000	0.598567
2328.000000	0.602135
2327.000000	0.601643
2326.000000	0.597116
2325.000000	0.603673
2324.000000	0.601762
2323.000000	0.601093
2322.000000	0.601401
2321.000000	0.605082
2320.000000	0.607970
2319.000000	0.608855
2318.000000	0.610594
2317.000000	0.607720
2316.000000	0.610862
2315.000000	0.609575
2314.000000	0.614371
2313.000000	0.615830
2312.000000	0.619809
2311.000000	0.623128
2310.000000	0.626584
2309.000000	0.624486
2308.000000	0.623569
2307.000000	0.625835
2306.000000	0.628985
2305.000000	0.633536
2304.000000	0.632590
2303.000000	0.628162
2302.000000	0.632128
2301.000000	0.635317
2300.000000	0.639703
2299.000000	0.640613
2298.000000	0.641968
2297.000000	0.640273
2296.000000	0.637919
2295.000000	0.648917
2294.000000	0.647036
2293.000000	0.648430
2292.000000	0.648735
2291.000000	0.647792
2290.000000	0.649761
2289.000000	0.647606
2288.000000	0.650881
2287.000000	0.657466
2286.000000	0.665005
2285.000000	0.666185
2284.000000	0.661119
2283.000000	0.660070
2282.000000	0.658973
2281.000000	0.656344
2280.000000	0.655050
2279.000000	0.658623
2278.000000	0.661371
2277.000000	0.658536
2276.000000	0.654104
2275.000000	0.656954
2274.000000	0.652965
2273.000000	0.649331
2272.000000	0.650713
2271.000000	0.650061
2270.000000	0.650258
2269.000000	0.650084
2268.000000	0.642987
2267.000000	0.636038
2266.000000	0.640922
2265.000000	0.640491
2264.000000	0.634282
2263.000000	0.631960
2262.000000	0.628433
2261.000000	0.626819
2260.000000	0.623782
2259.000000	0.619985
2258.000000	0.611999
2257.000000	0.608759
2256.000000	0.606938
2255.000000	0.601932
2254.000000	0.597158
2253.000000	0.594537
2252.000000	0.590004
2251.000000	0.582981
2250.000000	0.578040
2249.000000	0.573857
2248.000000	0.569407
2247.000000	0.565373
2246.000000	0.562523
2245.000000	0.556546
2244.000000	0.550632
2243.000000	0.547506
2242.000000	0.544004
2241.000000	0.540582
2240.000000	0.537140
2239.000000	0.536653
2238.000000	0.535052
2237.000000	0.531511
2236.000000	0.529232
2235.000000	0.526725
2234.000000	0.525257
2233.000000	0.522720
2232.000000	0.520732
2231.000000	0.520449
2230.000000	0.520338
2229.000000	0.517917
2228.000000	0.517450
2227.000000	0.518718
2226.000000	0.518650
2225.000000	0.518146
2224.000000	0.516625
2223.000000	0.516970
2222.000000	0.517295
2221.000000	0.519201
2220.000000	0.520135
2219.000000	0.518892
2218.000000	0.521952
2217.000000	0.522268
2216.000000	0.521001
2215.000000	0.522778
2214.000000	0.523949
2213.000000	0.524703
2212.000000	0.529442
2211.000000	0.530624
2210.000000	0.531248
2209.000000	0.533889
2208.000000	0.535177
2207.000000	0.534238
2206.000000	0.535100
2205.000000	0.536031
2204.000000	0.536788
2203.000000	0.538792
2202.000000	0.541742
2201.000000	0.542787
2200.000000	0.545760
2199.000000	0.544807
2198.000000	0.545504
2197.000000	0.546908
2196.000000	0.551151
2195.000000	0.554504
2194.000000	0.558360
2193.000000	0.558714
2192.000000	0.560969
2191.000000	0.562414
2190.000000	0.561776
2189.000000	0.561775
2188.000000	0.563104
2187.000000	0.565316
2186.000000	0.568402
2185.000000	0.568359
2184.000000	0.570053
2183.000000	0.571057
2182.000000	0.572795
2181.000000	0.575441
2180.000000	0.574756
2179.000000	0.576352
2178.000000	0.572881
2177.000000	0.574534
2176.000000	0.576270
2175.000000	0.572142
2174.000000	0.571626
2173.000000	0.572757
2172.000000	0.571551
2171.000000	0.573659
2170.000000	0.570921
2169.000000	0.566497
2168.000000	0.564746
2167.000000	0.565340
2166.000000	0.564222
2165.000000	0.565503
2164.000000	0.564460
2163.000000	0.559928
2162.000000	0.555178
2161.000000	0.557170
2160.000000	0.554606
2159.000000	0.549063
2158.000000	0.546303
2157.000000	0.544171
2156.000000	0.540239
2155.000000	0.538470
2154.000000	0.534056
2153.000000	0.531181
2152.000000	0.530008
2151.000000	0.528064
2150.000000	0.522288
2149.000000	0.522010
2148.000000	0.518255
2147.000000	0.517884
2146.000000	0.515709
2145.000000	0.511765
2144.000000	0.508754
2143.000000	0.504240
2142.000000	0.500253
2141.000000	0.502953
2140.000000	0.498616
2139.000000	0.497716
2138.000000	0.492861
2137.000000	0.485473
2136.000000	0.487963
2135.000000	0.486081
2134.000000	0.482674
2133.000000	0.484096
2132.000000	0.479208
2131.000000	0.475401
2130.000000	0.473357
2129.000000	0.474774
2128.000000	0.475470
2127.000000	0.472989
2126.000000	0.470204
2125.000000	0.472180
2124.000000	0.470059
2123.000000	0.469722
2122.000000	0.466932
2121.000000	0.464979
2120.000000	0.465837
2119.000000	0.465381
2118.000000	0.465286
2117.000000	0.461199
2116.000000	0.461922
2115.000000	0.461823
2114.000000	0.461254
2113.000000	0.461332
2112.000000	0.459715
2111.000000	0.457837
2110.000000	0.457695
2109.000000	0.457640
2108.000000	0.458869
2107.000000	0.456664
2106.000000	0.457398
2105.000000	0.457406
2104.000000	0.455216
2103.000000	0.454295
2102.000000	0.455669
2101.000000	0.455303
2100.000000	0.455120
2099.000000	0.452671
2098.000000	0.454472
2097.000000	0.454206
2096.000000	0.454276
2095.000000	0.455753
2094.000000	0.455127
2093.000000	0.455157
2092.000000	0.455594
2091.000000	0.455319
2090.000000	0.455792
2089.000000	0.455998
2088.000000	0.456178
2087.000000	0.456626
2086.000000	0.457532
2085.000000	0.458486
2084.000000	0.460308
2083.000000	0.461467
2082.000000	0.461118
2081.000000	0.462838
2080.000000	0.464333
2079.000000	0.465880
2078.000000	0.468869
2077.000000	0.470531
2076.000000	0.471716
2075.000000	0.473567
2074.000000	0.474619
2073.000000	0.477601
2072.000000	0.480031
2071.000000	0.482327
2070.000000	0.484625
2069.000000	0.488307
2068.000000	0.490821
2067.000000	0.493910
2066.000000	0.496839
2065.000000	0.499448
2064.000000	0.503484
2063.000000	0.507035
2062.000000	0.509620
2061.000000	0.512723
2060.000000	0.515169
2059.000000	0.518506
2058.000000	0.522301
2057.000000	0.523840
2056.000000	0.525539
2055.000000	0.528747
2054.000000	0.532543
2053.000000	0.536408
2052.000000	0.538947
2051.000000	0.540922
2050.000000	0.543878
2049.000000	0.547200
2048.000000	0.548386
2047.000000	0.548631
2046.000000	0.549955
2045.000000	0.552065
2044.000000	0.553107
2043.000000	0.553379
2042.000000	0.553311
2041.000000	0.552046
2040.000000	0.551865
2039.000000	0.551708
2038.000000	0.550584
2037.000000	0.548785
2036.000000	0.546861
2035.000000	0.546129
2034.000000	0.545423
2033.000000	0.542718
2032.000000	0.541114
2031.000000	0.539181
2030.000000	0.535977
2029.000000	0.533485
2028.000000	0.531214
2027.000000	0.529494
2026.000000	0.527931
2025.000000	0.526007
2024.000000	0.524920
2023.000000	0.523407
2022.000000	0.521753
2021.000000	0.521398
2020.000000	0.520552
2019.000000	0.519185
2018.000000	0.518087
2017.000000	0.518149
2016.000000	0.518233
2015.000000	0.518776
2014.000000	0.519546
2013.000000	0.520130
2012.000000	0.520821
2011.000000	0.521436
2010.000000	0.523272
2009.000000	0.525346
2008.000000	0.527119
2007.000000	0.529112
2006.000000	0.531105
2005.000000	0.532279
2004.000000	0.533699
2003.000000	0.536279
2002.000000	0.538595
2001.000000	0.541076
2000.000000	0.543571
1999.000000	0.545652
1998.000000	0.547804
1997.000000	0.550256
1996.000000	0.553064
1995.000000	0.555753
1994.000000	0.558229
1993.000000	0.561160
1992.000000	0.564318
1991.000000	0.566782
1990.000000	0.569420
1989.000000	0.571674
1988.000000	0.575013
1987.000000	0.578358
1986.000000	0.580809
1985.000000	0.582174
1984.000000	0.585474
1983.000000	0.588466
1982.000000	0.590562
1981.000000	0.592995
1980.000000	0.595399
1979.000000	0.598669
1978.000000	0.602002
1977.000000	0.605472
1976.000000	0.607143
1975.000000	0.609785
1974.000000	0.612153
1973.000000	0.614628
1972.000000	0.617349
1971.000000	0.620287
1970.000000	0.622154
1969.000000	0.623938
1968.000000	0.627759
1967.000000	0.629874
1966.000000	0.631774
1965.000000	0.634642
1964.000000	0.637757
1963.000000	0.640834
1962.000000	0.643163
1961.000000	0.645769
1960.000000	0.649020
1959.000000	0.649814
1958.000000	0.652772
1957.000000	0.655970
1956.000000	0.657810
1955.000000	0.659139
1954.000000	0.661197
1953.000000	0.662371
1952.000000	0.663711
1951.000000	0.665407
1950.000000	0.666801
1949.000000	0.668645
1948.000000	0.669062
1947.000000	0.671582
1946.000000	0.672303
1945.000000	0.672162
1944.000000	0.672851
1943.000000	0.671898
1942.000000	0.673360
1941.000000	0.673317
1940.000000	0.669917
1939.000000	0.672577
1938.000000	0.667579
1937.000000	0.666573
1936.000000	0.666736
1935.000000	0.664472
1934.000000	0.661903
1933.000000	0.659252
1932.000000	0.657438
1931.000000	0.653446
1930.000000	0.649534
1929.000000	0.645614
1928.000000	0.640071
1927.000000	0.638388
1926.000000	0.632181
1925.000000	0.626026
1924.000000	0.621234
1923.000000	0.617409
1922.000000	0.608446
1921.000000	0.602687
1920.000000	0.597172
1919.000000	0.590160
1918.000000	0.582140
1917.000000	0.576812
1916.000000	0.568954
1915.000000	0.557101
1914.000000	0.551517
1913.000000	0.541356
1912.000000	0.534202
1911.000000	0.525702
1910.000000	0.517394
1909.000000	0.508179
1908.000000	0.498076
1907.000000	0.489352
1906.000000	0.478537
1905.000000	0.469038
1904.000000	0.458290
1903.000000	0.448866
1902.000000	0.437895
1901.000000	0.426925
1900.000000	0.417425
1899.000000	0.407847
1898.000000	0.397853
1897.000000	0.388295
1896.000000	0.380153
1895.000000	0.370871
1894.000000	0.361610
1893.000000	0.353411
1892.000000	0.344946
1891.000000	0.336747
1890.000000	0.329539
1889.000000	0.322320
1888.000000	0.314878
1887.000000	0.307811
1886.000000	0.301750
1885.000000	0.295755
1884.000000	0.288978
1883.000000	0.283334
1882.000000	0.278818
1881.000000	0.273143
1880.000000	0.268066
1879.000000	0.263921
1878.000000	0.258715
1877.000000	0.254014
1876.000000	0.250290
1875.000000	0.246478
1874.000000	0.242202
1873.000000	0.239237
1872.000000	0.236696
1871.000000	0.233603
1870.000000	0.230137
1869.000000	0.227326
1868.000000	0.225518
1867.000000	0.223550
1866.000000	0.221405
1865.000000	0.220256
1864.000000	0.218948
1863.000000	0.217639
1862.000000	0.216632
1861.000000	0.215712
1860.000000	0.214705
1859.000000	0.213818
1858.000000	0.213311
1857.000000	0.212621
1856.000000	0.212034
1855.000000	0.211655
1854.000000	0.210524
1853.000000	0.210457
1852.000000	0.210650
1851.000000	0.210192
1850.000000	0.210409
1849.000000	0.210333
1848.000000	0.210243
1847.000000	0.209978
1846.000000	0.209895
1845.000000	0.210251
1844.000000	0.210448
1843.000000	0.210739
1842.000000	0.211192
1841.000000	0.211336
1840.000000	0.211983
1839.000000	0.212210
1838.000000	0.212631
1837.000000	0.213321
1836.000000	0.213935
1835.000000	0.214721
1834.000000	0.215098
1833.000000	0.215312
1832.000000	0.215938
1831.000000	0.216388
1830.000000	0.217073
1829.000000	0.217664
1828.000000	0.218373
1827.000000	0.218907
1826.000000	0.219553
1825.000000	0.219951
1824.000000	0.220308
1823.000000	0.220942
1822.000000	0.221665
1821.000000	0.222161
1820.000000	0.222705
1819.000000	0.223252
1818.000000	0.223690
1817.000000	0.224343
1816.000000	0.224924
1815.000000	0.225546
1814.000000	0.226017
1813.000000	0.226469
1812.000000	0.227031
1811.000000	0.227540
1810.000000	0.228154
1809.000000	0.228675
1808.000000	0.229246
1807.000000	0.229761
1806.000000	0.230119
1805.000000	0.230530
1804.000000	0.231169
1803.000000	0.231607
1802.000000	0.232070
1801.000000	0.232649
1800.000000	0.233011
1799.000000	0.233482
1798.000000	0.234013
1797.000000	0.234483
1796.000000	0.234779
1795.000000	0.235138
1794.000000	0.235488
1793.000000	0.235973
1792.000000	0.236396
1791.000000	0.236668
1790.000000	0.237155
1789.000000	0.237497
1788.000000	0.237691
1787.000000	0.238073
1786.000000	0.238580
1785.000000	0.239013
1784.000000	0.239531
1783.000000	0.239792
1782.000000	0.240260
1781.000000	0.240786
1780.000000	0.241369
1779.000000	0.241795
1778.000000	0.242452
1777.000000	0.243001
1776.000000	0.243614
1775.000000	0.244333
1774.000000	0.245118
1773.000000	0.245798
1772.000000	0.246702
1771.000000	0.247614
1770.000000	0.248418
1769.000000	0.248893
1768.000000	0.249615
1767.000000	0.250548
1766.000000	0.251175
1765.000000	0.251869
1764.000000	0.252532
1763.000000	0.253375
1762.000000	0.254168
1761.000000	0.254829
1760.000000	0.255590
1759.000000	0.256364
1758.000000	0.257275
1757.000000	0.257815
1756.000000	0.258636
1755.000000	0.259348
1754.000000	0.260055
1753.000000	0.260949
1752.000000	0.261646
1751.000000	0.262457
1750.000000	0.262973
1749.000000	0.264022
1748.000000	0.265009
1747.000000	0.266250
1746.000000	0.266720
1745.000000	0.267718
1744.000000	0.268556
1743.000000	0.269635
1742.000000	0.270674
1741.000000	0.271867
1740.000000	0.272280
1739.000000	0.273125
1738.000000	0.274281
1737.000000	0.274878
1736.000000	0.275324
1735.000000	0.275825
1734.000000	0.275986
1733.000000	0.276824
1732.000000	0.276452
1731.000000	0.276788
1730.000000	0.276826
1729.000000	0.276139
1728.000000	0.275860
1727.000000	0.275247
1726.000000	0.274515
1725.000000	0.273500
1724.000000	0.272603
1723.000000	0.271227
1722.000000	0.270131
1721.000000	0.268985
1720.000000	0.267620
1719.000000	0.266165
1718.000000	0.264559
1717.000000	0.263251
1716.000000	0.261898
1715.000000	0.260630
1714.000000	0.259195
1713.000000	0.257695
1712.000000	0.256565
1711.000000	0.255316
1710.000000	0.254609
1709.000000	0.253440
1708.000000	0.252504
1707.000000	0.252162
1706.000000	0.251360
1705.000000	0.250752
1704.000000	0.249896
1703.000000	0.249744
1702.000000	0.249435
1701.000000	0.248686
1700.000000	0.248748
1699.000000	0.248832
1698.000000	0.248177
1697.000000	0.247611
1696.000000	0.247047
1695.000000	0.247084
1694.000000	0.246665
1693.000000	0.245985
1692.000000	0.245336
1691.000000	0.244237
1690.000000	0.243287
1689.000000	0.242415
1688.000000	0.241375
1687.000000	0.239735
1686.000000	0.238376
1685.000000	0.236761
1684.000000	0.234952
1683.000000	0.233203
1682.000000	0.231157
1681.000000	0.229105
1680.000000	0.227005
1679.000000	0.224857
1678.000000	0.222772
1677.000000	0.220587
1676.000000	0.218311
1675.000000	0.216154
1674.000000	0.214127
1673.000000	0.212028
1672.000000	0.209921
1671.000000	0.207810
1670.000000	0.206098
1669.000000	0.204075
1668.000000	0.202543
1667.000000	0.200824
1666.000000	0.199528
1665.000000	0.198097
1664.000000	0.196889
1663.000000	0.195902
1662.000000	0.194914
1661.000000	0.193957
1660.000000	0.193272
1659.000000	0.192524
1658.000000	0.191750
1657.000000	0.191123
1656.000000	0.190826
1655.000000	0.190386
1654.000000	0.190027
1653.000000	0.190044
1652.000000	0.189727
1651.000000	0.189819
1650.000000	0.189389
1649.000000	0.189471
1648.000000	0.189757
1647.000000	0.189705
1646.000000	0.189958
1645.000000	0.190093
1644.000000	0.190271
1643.000000	0.190536
1642.000000	0.190750
1641.000000	0.191257
1640.000000	0.191499
1639.000000	0.192014
1638.000000	0.192259
1637.000000	0.192543
1636.000000	0.193143
1635.000000	0.193554
1634.000000	0.193953
1633.000000	0.194584
1632.000000	0.195163
1631.000000	0.195544
1630.000000	0.196012
1629.000000	0.196805
1628.000000	0.197175
1627.000000	0.197671
1626.000000	0.198481
1625.000000	0.199037
1624.000000	0.199570
1623.000000	0.200254
1622.000000	0.200979
1621.000000	0.201792
1620.000000	0.202428
1619.000000	0.203187
1618.000000	0.204020
1617.000000	0.204681
1616.000000	0.205344
1615.000000	0.206115
1614.000000	0.207007
1613.000000	0.207818
1612.000000	0.208723
1611.000000	0.209642
1610.000000	0.210350
1609.000000	0.211093
1608.000000	0.212051
1607.000000	0.212903
1606.000000	0.213714
1605.000000	0.214641
1604.000000	0.215625
1603.000000	0.216430
1602.000000	0.217294
1601.000000	0.218256
1600.000000	0.219168
1599.000000	0.220014
1598.000000	0.220772
1597.000000	0.221789
1596.000000	0.222715
1595.000000	0.223481
1594.000000	0.224346
1593.000000	0.225043
1592.000000	0.225941
1591.000000	0.226791
1590.000000	0.227474
1589.000000	0.228350
1588.000000	0.229044
1587.000000	0.229712
1586.000000	0.230523
1585.000000	0.231153
1584.000000	0.231784
1583.000000	0.232546
1582.000000	0.233390
1581.000000	0.234149
1580.000000	0.234722
1579.000000	0.235372
1578.000000	0.236071
1577.000000	0.236879
1576.000000	0.237646
1575.000000	0.238185
1574.000000	0.238938
1573.000000	0.239667
1572.000000	0.240418
1571.000000	0.241159
1570.000000	0.241826
1569.000000	0.242263
1568.000000	0.242951
1567.000000	0.243565
1566.000000	0.244084
1565.000000	0.244685
1564.000000	0.245272
1563.000000	0.245800
1562.000000	0.246304
1561.000000	0.246813
1560.000000	0.247133
1559.000000	0.247653
1558.000000	0.248120
1557.000000	0.248359
1556.000000	0.248741
1555.000000	0.249248
1554.000000	0.249778
1553.000000	0.250187
1552.000000	0.250954
1551.000000	0.251495
1550.000000	0.252052
1549.000000	0.252686
1548.000000	0.253218
1547.000000	0.254014
1546.000000	0.254886
1545.000000	0.255967
1544.000000	0.257157
1543.000000	0.257979
1542.000000	0.258959
1541.000000	0.260294
1540.000000	0.261430
1539.000000	0.262646
1538.000000	0.263866
1537.000000	0.265260
1536.000000	0.266592
1535.000000	0.267835
1534.000000	0.269077
1533.000000	0.270299
1532.000000	0.271634
1531.000000	0.272957
1530.000000	0.274112
1529.000000	0.275264
1528.000000	0.276287
1527.000000	0.277652
1526.000000	0.278585
1525.000000	0.279858
1524.000000	0.280545
1523.000000	0.281453
1522.000000	0.282392
1521.000000	0.283201
1520.000000	0.283972
1519.000000	0.284682
1518.000000	0.285307
1517.000000	0.285886
1516.000000	0.286574
1515.000000	0.287148
1514.000000	0.287786
1513.000000	0.288391
1512.000000	0.288890
1511.000000	0.289150
1510.000000	0.289502
1509.000000	0.290083
1508.000000	0.290417
1507.000000	0.290825
1506.000000	0.291185
1505.000000	0.291708
1504.000000	0.291687
1503.000000	0.291881
1502.000000	0.292289
1501.000000	0.292378
1500.000000	0.292654
1499.000000	0.292830
1498.000000	0.292843
1497.000000	0.292908
1496.000000	0.292787
1495.000000	0.292944
1494.000000	0.292801
1493.000000	0.292657
1492.000000	0.292603
1491.000000	0.292462
1490.000000	0.292250
1489.000000	0.291733
1488.000000	0.291442
1487.000000	0.291212
1486.000000	0.290673
1485.000000	0.290516
1484.000000	0.290174
1483.000000	0.289710
1482.000000	0.289455
1481.000000	0.288826
1480.000000	0.288406
1479.000000	0.288014
1478.000000	0.287467
1477.000000	0.287180
1476.000000	0.286993
1475.000000	0.286466
1474.000000	0.286076
1473.000000	0.285589
1472.000000	0.285308
1471.000000	0.285112
1470.000000	0.284577
1469.000000	0.284444
1468.000000	0.283900
1467.000000	0.283494
1466.000000	0.283331
1465.000000	0.282746
1464.000000	0.282573
1463.000000	0.282094
1462.000000	0.281704
1461.000000	0.281363
1460.000000	0.280848
1459.000000	0.280440
1458.000000	0.279793
1457.000000	0.279252
1456.000000	0.278660
1455.000000	0.278078
1454.000000	0.277521
1453.000000	0.276819
1452.000000	0.276088
1451.000000	0.275456
1450.000000	0.274556
1449.000000	0.273839
1448.000000	0.273062
1447.000000	0.272194
1446.000000	0.271412
1445.000000	0.270514
1444.000000	0.269510
1443.000000	0.268503
1442.000000	0.267425
1441.000000	0.266293
1440.000000	0.265208
1439.000000	0.264239
1438.000000	0.262906
1437.000000	0.261651
1436.000000	0.260280
1435.000000	0.258980
1434.000000	0.257737
1433.000000	0.256004
1432.000000	0.254483
1431.000000	0.252953
1430.000000	0.251371
1429.000000	0.249744
1428.000000	0.248076
1427.000000	0.246332
1426.000000	0.244294
1425.000000	0.242386
1424.000000	0.240492
1423.000000	0.238420
1422.000000	0.236329
1421.000000	0.234185
1420.000000	0.231893
1419.000000	0.229680
1418.000000	0.227328
1417.000000	0.225023
1416.000000	0.222671
1415.000000	0.220245
1414.000000	0.217788
1413.000000	0.215326
1412.000000	0.212946
1411.000000	0.210478
1410.000000	0.207975
1409.000000	0.205414
1408.000000	0.203011
1407.000000	0.200596
1406.000000	0.198220
1405.000000	0.195834
1404.000000	0.193513
1403.000000	0.191122
1402.000000	0.188998
1401.000000	0.186922
1400.000000	0.184751
1399.000000	0.182622
1398.000000	0.180579
1397.000000	0.178687
1396.000000	0.176814
1395.000000	0.174911
1394.000000	0.173100
1393.000000	0.171466
1392.000000	0.169800
1391.000000	0.168158
1390.000000	0.166664
1389.000000	0.165288
1388.000000	0.163921
1387.000000	0.162675
1386.000000	0.161338
1385.000000	0.160119
1384.000000	0.159007
1383.000000	0.157878
1382.000000	0.156963
1381.000000	0.156079
1380.000000	0.155166
1379.000000	0.154384
1378.000000	0.153651
1377.000000	0.152948
1376.000000	0.152296
1375.000000	0.151642
1374.000000	0.151035
1373.000000	0.150478
1372.000000	0.149928
1371.000000	0.149558
1370.000000	0.149142
1369.000000	0.148631
1368.000000	0.148190
1367.000000	0.147793
1366.000000	0.147304
1365.000000	0.146907
1364.000000	0.146424
1363.000000	0.145979
1362.000000	0.145599
1361.000000	0.145044
1360.000000	0.144578
1359.000000	0.144168
1358.000000	0.143657
1357.000000	0.143254
1356.000000	0.142759
1355.000000	0.142173
1354.000000	0.141689
1353.000000	0.141267
1352.000000	0.140914
1351.000000	0.140492
1350.000000	0.140008
1349.000000	0.139487
1348.000000	0.138949
1347.000000	0.138598
1346.000000	0.138278
1345.000000	0.137916
1344.000000	0.137522
1343.000000	0.137122
1342.000000	0.136589
1341.000000	0.136061
1340.000000	0.135624
1339.000000	0.135229
1338.000000	0.134719
1337.000000	0.134337
1336.000000	0.134023
1335.000000	0.133658
1334.000000	0.133436
1333.000000	0.133187
1332.000000	0.132966
1331.000000	0.132656
1330.000000	0.132511
1329.000000	0.132255
1328.000000	0.132053
1327.000000	0.131766
1326.000000	0.131722
1325.000000	0.131379
1324.000000	0.131376
1323.000000	0.131165
1322.000000	0.130924
1321.000000	0.131117
1320.000000	0.131107
1319.000000	0.130956
1318.000000	0.130715
1317.000000	0.130647
1316.000000	0.130649
1315.000000	0.130558
1314.000000	0.130509
1313.000000	0.130380
1312.000000	0.130434
1311.000000	0.130288
1310.000000	0.130291
1309.000000	0.130226
1308.000000	0.130169
1307.000000	0.130335
1306.000000	0.130215
1305.000000	0.130068
1304.000000	0.130173
1303.000000	0.130184
1302.000000	0.130198
1301.000000	0.130235
1300.000000	0.130303
1299.000000	0.130262
1298.000000	0.130370
1297.000000	0.130600
1296.000000	0.130564
1295.000000	0.130599
1294.000000	0.130710
1293.000000	0.130814
1292.000000	0.130931
1291.000000	0.130999
1290.000000	0.131058
1289.000000	0.131119
1288.000000	0.131338
1287.000000	0.131446
1286.000000	0.131684
1285.000000	0.131745
1284.000000	0.131817
1283.000000	0.131881
1282.000000	0.132180
1281.000000	0.132139
1280.000000	0.132406
1279.000000	0.132663
1278.000000	0.132696
1277.000000	0.132634
1276.000000	0.132670
1275.000000	0.132862
1274.000000	0.133043
1273.000000	0.133175
1272.000000	0.133218
1271.000000	0.133228
1270.000000	0.133348
1269.000000	0.133271
1268.000000	0.133331
1267.000000	0.133367
1266.000000	0.133446
1265.000000	0.133380
1264.000000	0.133518
1263.000000	0.133617
1262.000000	0.133562
1261.000000	0.133503
1260.000000	0.133675
1259.000000	0.133586
1258.000000	0.133830
1257.000000	0.133857
1256.000000	0.134061
1255.000000	0.134143
1254.000000	0.134016
1253.000000	0.134044
1252.000000	0.134163
1251.000000	0.134338
1250.000000	0.134354
1249.000000	0.134515
1248.000000	0.134685
1247.000000	0.134900
1246.000000	0.135047
1245.000000	0.135377
1244.000000	0.135638
1243.000000	0.135855
1242.000000	0.136169
1241.000000	0.136460
1240.000000	0.136613
1239.000000	0.136890
1238.000000	0.137077
1237.000000	0.137545
1236.000000	0.137737
1235.000000	0.138102
1234.000000	0.138379
1233.000000	0.138568
1232.000000	0.138934
1231.000000	0.139363
1230.000000	0.139561
1229.000000	0.140026
1228.000000	0.140221
1227.000000	0.140536
1226.000000	0.140930
1225.000000	0.141176
1224.000000	0.141535
1223.000000	0.141820
1222.000000	0.142192
1221.000000	0.142431
1220.000000	0.142827
1219.000000	0.143231
1218.000000	0.143597
1217.000000	0.143755
1216.000000	0.144111
1215.000000	0.144560
1214.000000	0.144929
1213.000000	0.145204
1212.000000	0.145531
1211.000000	0.145884
1210.000000	0.146431
1209.000000	0.146780
1208.000000	0.147076
1207.000000	0.147602
1206.000000	0.147925
1205.000000	0.148385
1204.000000	0.148753
1203.000000	0.149360
1202.000000	0.149682
1201.000000	0.149814
1200.000000	0.150431
1199.000000	0.150875
1198.000000	0.151145
1197.000000	0.151590
1196.000000	0.151821
1195.000000	0.152134
1194.000000	0.152606
1193.000000	0.152974
1192.000000	0.153196
1191.000000	0.153484
1190.000000	0.153726
1189.000000	0.154054
1188.000000	0.154182
1187.000000	0.154297
1186.000000	0.154500
1185.000000	0.154671
1184.000000	0.154743
1183.000000	0.154721
1182.000000	0.154549
1181.000000	0.154498
1180.000000	0.154479
1179.000000	0.154310
1178.000000	0.154123
1177.000000	0.153883
1176.000000	0.153612
1175.000000	0.153305
1174.000000	0.153011
1173.000000	0.152619
1172.000000	0.152241
1171.000000	0.151915
1170.000000	0.151476
1169.000000	0.150998
1168.000000	0.150540
1167.000000	0.150062
1166.000000	0.149580
1165.000000	0.149083
1164.000000	0.148502
1163.000000	0.147980
1162.000000	0.147492
1161.000000	0.147042
1160.000000	0.146561
1159.000000	0.146018
1158.000000	0.145409
1157.000000	0.145010
1156.000000	0.144679
1155.000000	0.144145
1154.000000	0.143639
1153.000000	0.143245
1152.000000	0.142961
1151.000000	0.142652
1150.000000	0.142232
1149.000000	0.141772
1148.000000	0.141505
1147.000000	0.141275
1146.000000	0.140945
1145.000000	0.140670
1144.000000	0.140412
1143.000000	0.140060
1142.000000	0.139727
1141.000000	0.139556
1140.000000	0.139460
1139.000000	0.139291
1138.000000	0.139009
1137.000000	0.138695
1136.000000	0.138444
1135.000000	0.138231
1134.000000	0.138012
1133.000000	0.137899
1132.000000	0.137848
1131.000000	0.137590
1130.000000	0.137442
1129.000000	0.137312
1128.000000	0.137279
1127.000000	0.137254
1126.000000	0.137194
1125.000000	0.137056
1124.000000	0.137073
1123.000000	0.137044
1122.000000	0.137022
1121.000000	0.137019
1120.000000	0.137013
1119.000000	0.137058
1118.000000	0.137173
1117.000000	0.137207
1116.000000	0.137405
1115.000000	0.137455
1114.000000	0.137487
1113.000000	0.137515
1112.000000	0.137690
1111.000000	0.137785
1110.000000	0.137813
1109.000000	0.138068
1108.000000	0.138095
1107.000000	0.138181
1106.000000	0.138268
1105.000000	0.138398
1104.000000	0.138456
1103.000000	0.138577
1102.000000	0.138819
1101.000000	0.138941
1100.000000	0.138902
1099.000000	0.139068
1098.000000	0.139213
1097.000000	0.139423
1096.000000	0.139620
1095.000000	0.139615
1094.000000	0.139587
1093.000000	0.139814
1092.000000	0.139916
1091.000000	0.140115
1090.000000	0.140400
1089.000000	0.140555
1088.000000	0.140532
1087.000000	0.140666
1086.000000	0.140737
1085.000000	0.140910
1084.000000	0.141121
1083.000000	0.141471
1082.000000	0.141616
1081.000000	0.141549
1080.000000	0.141763
1079.000000	0.141937
1078.000000	0.141983
1077.000000	0.142261
1076.000000	0.142587
1075.000000	0.142645
1074.000000	0.142794
1073.000000	0.142950
1072.000000	0.143163
1071.000000	0.143395
1070.000000	0.143710
1069.000000	0.143832
1068.000000	0.143975
1067.000000	0.144008
1066.000000	0.144281
1065.000000	0.144525
1064.000000	0.144835
1063.000000	0.144873
1062.000000	0.145155
1061.000000	0.145307
1060.000000	0.145465
1059.000000	0.145532
1058.000000	0.145896
1057.000000	0.146178
1056.000000	0.146333
1055.000000	0.146484
1054.000000	0.146626
1053.000000	0.146959
1052.000000	0.147214
1051.000000	0.147409
1050.000000	0.147506
1049.000000	0.147814
1048.000000	0.147802
1047.000000	0.148023
1046.000000	0.148312
1045.000000	0.148559
1044.000000	0.148599
1043.000000	0.148867
1042.000000	0.149096
1041.000000	0.149218
1040.000000	0.149393
1039.000000	0.149620
1038.000000	0.149879
1037.000000	0.149979
1036.000000	0.150011
1035.000000	0.150332
1034.000000	0.150524
1033.000000	0.150624
1032.000000	0.150756
1031.000000	0.151026
1030.000000	0.151095
1029.000000	0.151267
1028.000000	0.151496
1027.000000	0.151598
1026.000000	0.151888
1025.000000	0.152046
1024.000000	0.152158
1023.000000	0.152282
1022.000000	0.152423
1021.000000	0.152612
1020.000000	0.152713
1019.000000	0.152847
1018.000000	0.153015
1017.000000	0.153225
1016.000000	0.153369
1015.000000	0.153457
1014.000000	0.153655
1013.000000	0.153826
1012.000000	0.153883
1011.000000	0.153976
1010.000000	0.154167
1009.000000	0.154393
1008.000000	0.154466
1007.000000	0.154596
1006.000000	0.154722
1005.000000	0.154758
1004.000000	0.154891
1003.000000	0.155106
1002.000000	0.155243
1001.000000	0.155373
1000.000000	0.155597
999.000000	0.155676
998.000000	0.155866
997.000000	0.155930
996.000000	0.156075
995.000000	0.156193
994.000000	0.156318
993.000000	0.156429
992.000000	0.156554
991.000000	0.156747
990.000000	0.156879
989.000000	0.157005
988.000000	0.157081
987.000000	0.157101
986.000000	0.157320
985.000000	0.157511
984.000000	0.157689
983.000000	0.157824
982.000000	0.157945
981.000000	0.158033
980.000000	0.158199
979.000000	0.158314
978.000000	0.158403
977.000000	0.158446
976.000000	0.158571
975.000000	0.158658
974.000000	0.158887
973.000000	0.159035
972.000000	0.159096
971.000000	0.159220
970.000000	0.159465
969.000000	0.159532
968.000000	0.159483
967.000000	0.159600
966.000000	0.159878
965.000000	0.159980
964.000000	0.160002
963.000000	0.160196
962.000000	0.160220
961.000000	0.160304
960.000000	0.160400
959.000000	0.160573
958.000000	0.160639
957.000000	0.160686
956.000000	0.160862
955.000000	0.160987
954.000000	0.161113
953.000000	0.161248
952.000000	0.161399
951.000000	0.161541
950.000000	0.161665
949.000000	0.161767
948.000000	0.161951
947.000000	0.162012
946.000000	0.162077
945.000000	0.162289
944.000000	0.162375
943.000000	0.162399
942.000000	0.162565
941.000000	0.163015
940.000000	0.163347
939.000000	0.163397
938.000000	0.163544
937.000000	0.163925
936.000000	0.163986
935.000000	0.163997
934.000000	0.164363
933.000000	0.164609
932.000000	0.164723
931.000000	0.164979
930.000000	0.165160
929.000000	0.165392
928.000000	0.165591
927.000000	0.165671
926.000000	0.166114
925.000000	0.166587
924.000000	0.166447
923.000000	0.166557
922.000000	0.166919
921.000000	0.167072
920.000000	0.167413
919.000000	0.167659
918.000000	0.167867
917.000000	0.167857
916.000000	0.168131
915.000000	0.168410
914.000000	0.168584
913.000000	0.168762
912.000000	0.169163
911.000000	0.169537
910.000000	0.169698
909.000000	0.169707
908.000000	0.169660
907.000000	0.170126
906.000000	0.170329
905.000000	0.170422
904.000000	0.170460
903.000000	0.170470
902.000000	0.170899
901.000000	0.171048
900.000000	0.171218
899.000000	0.171378
898.000000	0.171784
897.000000	0.171988
896.000000	0.172127
895.000000	0.172334
894.000000	0.172331
893.000000	0.172548
892.000000	0.172748
891.000000	0.173058
890.000000	0.172798
889.000000	0.173242
888.000000	0.173503
887.000000	0.173348
886.000000	0.173473
885.000000	0.173362
884.000000	0.174107
883.000000	0.174311
882.000000	0.174745
881.000000	0.175072
880.000000	0.175505
879.000000	0.175740
878.000000	0.175448
877.000000	0.175536
876.000000	0.175760
875.000000	0.176084
874.000000	0.177049
873.000000	0.177163
872.000000	0.176566
871.000000	0.177008
870.000000	0.177757
869.000000	0.177334
868.000000	0.178044
867.000000	0.178133
866.000000	0.178031
865.000000	0.178803
864.000000	0.179366
863.000000	0.178657
862.000000	0.180085
861.000000	0.179152
860.000000	0.180515
859.000000	0.182845
858.000000	0.180100
857.000000	0.180339
856.000000	0.179274
855.000000	0.181299
854.000000	0.183367
853.000000	0.179632
852.000000	0.183661
851.000000	0.181685
850.000000	0.184145
849.000000	0.185538
848.000000	0.184377
847.000000	0.184762
846.000000	0.184002
845.000000	0.184344
844.000000	0.186652
843.000000	0.186070
842.000000	0.184624
841.000000	0.186131
840.000000	0.187182
839.000000	0.187557
838.000000	0.187927
837.000000	0.187856
836.000000	0.187990
835.000000	0.187411
834.000000	0.189877
833.000000	0.189829
832.000000	0.188889
831.000000	0.189506
830.000000	0.190097
829.000000	0.191811
828.000000	0.192365
827.000000	0.192419
826.000000	0.191470
825.000000	0.192863
824.000000	0.192373
823.000000	0.192276
822.000000	0.193004
821.000000	0.192804
820.000000	0.193978
819.000000	0.192672
818.000000	0.193927
817.000000	0.195808
816.000000	0.195140
815.000000	0.196175
814.000000	0.195900
813.000000	0.196314
812.000000	0.196529
811.000000	0.198125
810.000000	0.197917
809.000000	0.198124
808.000000	0.197640
807.000000	0.198914
806.000000	0.199175
805.000000	0.198784
804.000000	0.199845
803.000000	0.200354
802.000000	0.199273
801.000000	0.199872
800.000000	0.200793
799.000000	0.202553
798.000000	0.202192
797.000000	0.202076
796.000000	0.203366
795.000000	0.202791
794.000000	0.202861
793.000000	0.204182
792.000000	0.204617
791.000000	0.205149
790.000000	0.205251
789.000000	0.205290
788.000000	0.206363
787.000000	0.205513
786.000000	0.206936
785.000000	0.206993
784.000000	0.207295
783.000000	0.207023
782.000000	0.208131
781.000000	0.208572
780.000000	0.209867
779.000000	0.210066
778.000000	0.210606
777.000000	0.210004
776.000000	0.210572
775.000000	0.211528
774.000000	0.211909
773.000000	0.212609
772.000000	0.212887
771.000000	0.213505
770.000000	0.214359
769.000000	0.213855
768.000000	0.214571
767.000000	0.214546
766.000000	0.215200
765.000000	0.216018
764.000000	0.216274
763.000000	0.216781
762.000000	0.217554
761.000000	0.218195
760.000000	0.218888
759.000000	0.218940
758.000000	0.218709
757.000000	0.220336
756.000000	0.220495
755.000000	0.221045
754.000000	0.221515
753.000000	0.222111
752.000000	0.222940
751.000000	0.222753
750.000000	0.223620
749.000000	0.224536
748.000000	0.225089
747.000000	0.225820
746.000000	0.226648
745.000000	0.226701
744.000000	0.227123
743.000000	0.227343
742.000000	0.227762
741.000000	0.227818
740.000000	0.228669
739.000000	0.229416
738.000000	0.230496
737.000000	0.231166
736.000000	0.230995
735.000000	0.232017
734.000000	0.232937
733.000000	0.232843
732.000000	0.233199
731.000000	0.233765
730.000000	0.234726
729.000000	0.235090
728.000000	0.236029
727.000000	0.236759
726.000000	0.237318
725.000000	0.237758
724.000000	0.238319
723.000000	0.238721
722.000000	0.239699
721.000000	0.240554
720.000000	0.241094
719.000000	0.241818
718.000000	0.242720
717.000000	0.243020
716.000000	0.243843
715.000000	0.244382
714.000000	0.244529
713.000000	0.245426
712.000000	0.246021
711.000000	0.246625
710.000000	0.247605
709.000000	0.248232
708.000000	0.249217
707.000000	0.250249
706.000000	0.250985
705.000000	0.251516
704.000000	0.251901
703.000000	0.252476
702.000000	0.253322
701.000000	0.254219
700.000000	0.254681
699.000000	0.255247
698.000000	0.256389
697.000000	0.257369
696.000000	0.257600
695.000000	0.258493
694.000000	0.259464
693.000000	0.260362
692.000000	0.261257
691.000000	0.261309
690.000000	0.262450
689.000000	0.263451
688.000000	0.264562
687.000000	0.265732
686.000000	0.266304
685.000000	0.266870
684.000000	0.267843
683.000000	0.269063
682.000000	0.269837
681.000000	0.270470
680.000000	0.271298
679.000000	0.272275
678.000000	0.273080
677.000000	0.273751
676.000000	0.274710
675.000000	0.275662
674.000000	0.276631
673.000000	0.277523
672.000000	0.278391
671.000000	0.279539
670.000000	0.280660
669.000000	0.281477
668.000000	0.282152
667.000000	0.283058
666.000000	0.283949
665.000000	0.284760
664.000000	0.285701
663.000000	0.286788
662.000000	0.287730
661.000000	0.288811
660.000000	0.289742
659.000000	0.290839
658.000000	0.291844
657.000000	0.293101
656.000000	0.293630
655.000000	0.294478
654.000000	0.295669
653.000000	0.296718
652.000000	0.297897
651.000000	0.298662
650.000000	0.299987
649.000000	0.300772
648.000000	0.302088
647.000000	0.303120
646.000000	0.304796
645.000000	0.305606
644.000000	0.306181
643.000000	0.307543
642.000000	0.308872
641.000000	0.309742
640.000000	0.310969
639.000000	0.312216
638.000000	0.313537
637.000000	0.314572
636.000000	0.315551
635.000000	0.316524
634.000000	0.318212
633.000000	0.319192
632.000000	0.320668
631.000000	0.321739
630.000000	0.323046
629.000000	0.323773
628.000000	0.325481
627.000000	0.326631
626.000000	0.327795
625.000000	0.328774
624.000000	0.330366
623.000000	0.331547
622.000000	0.332555
621.000000	0.334101
620.000000	0.335191
619.000000	0.337276
618.000000	0.338167
617.000000	0.339664
616.000000	0.341216
615.000000	0.342541
614.000000	0.343610
613.000000	0.344856
612.000000	0.346408
611.000000	0.347648
610.000000	0.349412
609.000000	0.350789
608.000000	0.352116
607.000000	0.353981
606.000000	0.354921
605.000000	0.356779
604.000000	0.358487
603.000000	0.359497
602.000000	0.361172
601.000000	0.362411
600.000000	0.364104
599.000000	0.365858
598.000000	0.367541
597.000000	0.369094
596.000000	0.370695
595.000000	0.372325
594.000000	0.374176
593.000000	0.375598
592.000000	0.377360
591.000000	0.378897
590.000000	0.380615
589.000000	0.382541
588.000000	0.383781
587.000000	0.385590
586.000000	0.387528
585.000000	0.389169
584.000000	0.390404
583.000000	0.392304
582.000000	0.394056
581.000000	0.395791
580.000000	0.397973
579.000000	0.399714
578.000000	0.402078
577.000000	0.404011
576.000000	0.405960
575.000000	0.407350
574.000000	0.409883
573.000000	0.410987
572.000000	0.413667
571.000000	0.415536
570.000000	0.417434
569.000000	0.419596
568.000000	0.421435
567.000000	0.423787
566.000000	0.425808
565.000000	0.427435
564.000000	0.430054
563.000000	0.432236
562.000000	0.433832
561.000000	0.436332
560.000000	0.438638
559.000000	0.440605
558.000000	0.442667
557.000000	0.445371
556.000000	0.447080
555.000000	0.449696
554.000000	0.452398
553.000000	0.454549
552.000000	0.456717
551.000000	0.458988
550.000000	0.461653
549.000000	0.463990
548.000000	0.466333
547.000000	0.468723
546.000000	0.471829
545.000000	0.473863
544.000000	0.476281
543.000000	0.479000
542.000000	0.481430
541.000000	0.484185
540.000000	0.486573
539.000000	0.489539
538.000000	0.492350
537.000000	0.494701
536.000000	0.497499
535.000000	0.500291
534.000000	0.502900
533.000000	0.506026
532.000000	0.508499
531.000000	0.511275
530.000000	0.514705
529.000000	0.517224
528.000000	0.520006
527.000000	0.522932
526.000000	0.526316
525.000000	0.529142
524.000000	0.532037
523.000000	0.535083
522.000000	0.538129
521.000000	0.541085
520.000000	0.544400
519.000000	0.547410
518.000000	0.550419
517.000000	0.553659
516.000000	0.557228
515.000000	0.560052
514.000000	0.563165
513.000000	0.566375
512.000000	0.569578
511.000000	0.573002
510.000000	0.576758
509.000000	0.580073
508.000000	0.583399
507.000000	0.586678
506.000000	0.590336
505.000000	0.593838
504.000000	0.597463
503.000000	0.600855
502.000000	0.604282
501.000000	0.608096
500.000000	0.611748
499.000000	0.615382
498.000000	0.619499
497.000000	0.623170
496.000000	0.626618
495.000000	0.631164
494.000000	0.635147
493.000000	0.638866
492.000000	0.642743
491.000000	0.646597
490.000000	0.650787
489.000000	0.655226
488.000000	0.659549
487.000000	0.663142
486.000000	0.667590
485.000000	0.671622
484.000000	0.675196
483.000000	0.679341
482.000000	0.683846
481.000000	0.687856
480.000000	0.691688
479.000000	0.696085
478.000000	0.700809
477.000000	0.705251
476.000000	0.709642
475.000000	0.714419
474.000000	0.718987
473.000000	0.723319
472.000000	0.727510
471.000000	0.731994
470.000000	0.736486
469.000000	0.741048
468.000000	0.746123
467.000000	0.751031
466.000000	0.755835
465.000000	0.760682
464.000000	0.765374
463.000000	0.770452
462.000000	0.775559
461.000000	0.780193
460.000000	0.785389
459.000000	0.790906
458.000000	0.795859
457.000000	0.801460
456.000000	0.807283
455.000000	0.812351
454.000000	0.818003
453.000000	0.823937
452.000000	0.829558
451.000000	0.835311
450.000000	0.841306
449.000000	0.846678
448.000000	0.852020
447.000000	0.857887
446.000000	0.863700
445.000000	0.868935
444.000000	0.874067
443.000000	0.879525
442.000000	0.884609
441.000000	0.890141
440.000000	0.895310
439.000000	0.900490
438.000000	0.905411
437.000000	0.910167
436.000000	0.915262
435.000000	0.920556
434.000000	0.925659
433.000000	0.930591
432.000000	0.935108
431.000000	0.940198
430.000000	0.945108
429.000000	0.950175
428.000000	0.955432
427.000000	0.961075
426.000000	0.965817
425.000000	0.970766
424.000000	0.976567
423.000000	0.980716
422.000000	0.985774
421.000000	0.991379
420.000000	0.996505
419.000000	1.001599
418.000000	1.007186
417.000000	1.012601
416.000000	1.018139
415.000000	1.023304
414.000000	1.028752
413.000000	1.034874
412.000000	1.039604
411.000000	1.044970
410.000000	1.049464
409.000000	1.055347
408.000000	1.060640
407.000000	1.066095
406.000000	1.071177
405.000000	1.077066
404.000000	1.081037
403.000000	1.086519
402.000000	1.092013
401.000000	1.096396
400.000000	1.101544
399.000000	1.106699
398.000000	1.111729
397.000000	1.116962
396.000000	1.120797
395.000000	1.124349
394.000000	1.129616
393.000000	1.133219
392.000000	1.138264
391.000000	1.141807
390.000000	1.146341
389.000000	1.148705
388.000000	1.152980
387.000000	1.156797
386.000000	1.160148
385.000000	1.165037
384.000000	1.166918
383.000000	1.171064
382.000000	1.174957
381.000000	1.176906
380.000000	1.179756
379.000000	1.182478
378.000000	1.187846
377.000000	1.186936
376.000000	1.188928
375.000000	1.192234
374.000000	1.196587
373.000000	1.199963
372.000000	1.201150
371.000000	1.202239
370.000000	1.204969
369.000000	1.207312
368.000000	1.207789
367.000000	1.213403
366.000000	1.214576
365.000000	1.214230
364.000000	1.218110
363.000000	1.220254
362.000000	1.222683
361.000000	1.225237
360.000000	1.227045
359.000000	1.226401
358.000000	1.229026
357.000000	1.230248
356.000000	1.232026
355.000000	1.235366
354.000000	1.236745
353.000000	1.239728
352.000000	1.237953
351.000000	1.234804
350.000000	1.240531
349.000000	1.238103
348.000000	1.240545
347.000000	1.241872
346.000000	1.242842
345.000000	1.244055
344.000000	1.244274
343.000000	1.246036
342.000000	1.248564
341.000000	1.246905
340.000000	1.247398
339.000000	1.246428
338.000000	1.247742
337.000000	1.254826
336.000000	1.251456
335.000000	1.250156
334.000000	1.252625
333.000000	1.256331
332.000000	1.253460
331.000000	1.256323
330.000000	1.251078
329.000000	1.256200
328.000000	1.252778
327.000000	1.259019
326.000000	1.254394
325.000000	1.251988
324.000000	1.256440
323.000000	1.255188
322.000000	1.253744
321.000000	1.255620
320.000000	1.248568
319.000000	1.255007
318.000000	1.251530
317.000000	1.250336
316.000000	1.250074
315.000000	1.249979
314.000000	1.249919
313.000000	1.248437
312.000000	1.247954
311.000000	1.248020
310.000000	1.242823
309.000000	1.248498
308.000000	1.241312
307.000000	1.243792
306.000000	1.243428
305.000000	1.242329
304.000000	1.241530
303.000000	1.238299
302.000000	1.239060
301.000000	1.238941
300.000000	1.237636
299.000000	1.232728
298.000000	1.231227
297.000000	1.230234
296.000000	1.231659
295.000000	1.231037
294.000000	1.230537
293.000000	1.226141
292.000000	1.224826
291.000000	1.223639
290.000000	1.223756
289.000000	1.220573
288.000000	1.218005
287.000000	1.217724
286.000000	1.215134
285.000000	1.212401
284.000000	1.216137
283.000000	1.210747
282.000000	1.205344
281.000000	1.205044
280.000000	1.202595
279.000000	1.204143
278.000000	1.198439
277.000000	1.196630
276.000000	1.194419
275.000000	1.192510
274.000000	1.191777
273.000000	1.188993
272.000000	1.188537
271.000000	1.184549
270.000000	1.181312
269.000000	1.178424
268.000000	1.175120
267.000000	1.173591
266.000000	1.170211
265.000000	1.168782
264.000000	1.166168
263.000000	1.162268
262.000000	1.159880
261.000000	1.154677
260.000000	1.151803
259.000000	1.146761
258.000000	1.144915
257.000000	1.142073
256.000000	1.135419
255.000000	1.130500
254.000000	1.124512
253.000000	1.122456
252.000000	1.118782
251.000000	1.113366
250.000000	1.109339
249.000000	1.100696
248.000000	1.093809
247.000000	1.090715
246.000000	1.086948
245.000000	1.082001
244.000000	1.074592
243.000000	1.063688
242.000000	1.058421
241.000000	1.056360
240.000000	1.050461
239.000000	1.044656
238.000000	1.037880
237.000000	1.032851
236.000000	1.029051
235.000000	1.020839
234.000000	1.013660
233.000000	1.008650
232.000000	1.003652
231.000000	1.000528
230.000000	0.996015
229.000000	0.988844
228.000000	0.982401
227.000000	0.977729
226.000000	0.975249
225.000000	0.969723
224.000000	0.965117
223.000000	0.962325
222.000000	0.954359
221.000000	0.947027
220.000000	0.941174
219.000000	0.936503
218.000000	0.931803
217.000000	0.924112
216.000000	0.916773
215.000000	0.911446
214.000000	0.903402
213.000000	0.897385
212.000000	0.893701
211.000000	0.883728
210.000000	0.872380
209.000000	0.865569
208.000000	0.853395
207.000000	0.838671
206.000000	0.829360
205.000000	0.818071
204.000000	0.804515
203.000000	0.792287
202.000000	0.780112
201.000000	0.759055
200.000000	0.749166
