PE UV       SUBTECH     SPECTRUM    ASCII       PEDS        4.00        
   -1
Ams159331.Sample.asc
18/03/16
15:43:22.00
18/03/16
15:43:22.00
Administrator

200.000000
1
Lambda 750
750N8071901
PerkinElmer UV WinLab 6.0.4.0738 / 1.61.00 Lambda 900

0
0
3350/servo 860.8/2
0
0
UV/VIS
1
1
1
CommonBeamDepol,150mm sphere / downward view
0
0
0
0
Program
Program
3350/servo 860.8/2
3350/0.2 860.8/0.2
3350/0.2 860.8/0.2
0
1
 
 
 
0
 
860.8
319.2
860.8
Front
100
on
 
 
0
0
0
 
0
 
 
 
0
 
 
0
0
0
0
0
 
 
 
 
0
0


0
0
#HDR
-1
-1
#GR
nm
A
1.0
0.0
2350.000000
-1.000000
2151
8
1.161991
0.146510
#DATA
2350.000000	0.578951
2349.000000	0.577773
2348.000000	0.569398
2347.000000	0.559688
2346.000000	0.576593
2345.000000	0.574392
2344.000000	0.576541
2343.000000	0.576362
2342.000000	0.573273
2341.000000	0.577000
2340.000000	0.570135
2339.000000	0.560437
2338.000000	0.560842
2337.000000	0.559026
2336.000000	0.567638
2335.000000	0.557668
2334.000000	0.558759
2333.000000	0.556414
2332.000000	0.552972
2331.000000	0.556055
2330.000000	0.552127
2329.000000	0.555100
2328.000000	0.558465
2327.000000	0.556193
2326.000000	0.558496
2325.000000	0.564644
2324.000000	0.560070
2323.000000	0.563836
2322.000000	0.559093
2321.000000	0.564150
2320.000000	0.565847
2319.000000	0.561862
2318.000000	0.563199
2317.000000	0.564873
2316.000000	0.568185
2315.000000	0.570434
2314.000000	0.576666
2313.000000	0.579545
2312.000000	0.580896
2311.000000	0.577376
2310.000000	0.582808
2309.000000	0.582166
2308.000000	0.580158
2307.000000	0.585969
2306.000000	0.592552
2305.000000	0.590748
2304.000000	0.589860
2303.000000	0.589564
2302.000000	0.591322
2301.000000	0.591076
2300.000000	0.588851
2299.000000	0.591582
2298.000000	0.594914
2297.000000	0.594849
2296.000000	0.598679
2295.000000	0.601855
2294.000000	0.603763
2293.000000	0.612572
2292.000000	0.609433
2291.000000	0.604981
2290.000000	0.603692
2289.000000	0.605456
2288.000000	0.602936
2287.000000	0.605483
2286.000000	0.608005
2285.000000	0.612219
2284.000000	0.611430
2283.000000	0.613376
2282.000000	0.610540
2281.000000	0.607994
2280.000000	0.608844
2279.000000	0.610357
2278.000000	0.611452
2277.000000	0.607251
2276.000000	0.605310
2275.000000	0.606601
2274.000000	0.601449
2273.000000	0.600582
2272.000000	0.602641
2271.000000	0.603464
2270.000000	0.602192
2269.000000	0.601557
2268.000000	0.597802
2267.000000	0.593397
2266.000000	0.592988
2265.000000	0.587895
2264.000000	0.585610
2263.000000	0.587002
2262.000000	0.582697
2261.000000	0.578589
2260.000000	0.574742
2259.000000	0.571709
2258.000000	0.567977
2257.000000	0.564551
2256.000000	0.562763
2255.000000	0.557792
2254.000000	0.553118
2253.000000	0.549072
2252.000000	0.543174
2251.000000	0.538578
2250.000000	0.534947
2249.000000	0.531474
2248.000000	0.527681
2247.000000	0.522717
2246.000000	0.516823
2245.000000	0.512882
2244.000000	0.510514
2243.000000	0.506462
2242.000000	0.501074
2241.000000	0.498694
2240.000000	0.497999
2239.000000	0.497089
2238.000000	0.493622
2237.000000	0.489403
2236.000000	0.487923
2235.000000	0.486630
2234.000000	0.485934
2233.000000	0.485632
2232.000000	0.483898
2231.000000	0.481798
2230.000000	0.480747
2229.000000	0.480001
2228.000000	0.479222
2227.000000	0.478462
2226.000000	0.479366
2225.000000	0.481030
2224.000000	0.481188
2223.000000	0.480068
2222.000000	0.480111
2221.000000	0.482824
2220.000000	0.482356
2219.000000	0.482945
2218.000000	0.484212
2217.000000	0.484054
2216.000000	0.483288
2215.000000	0.483620
2214.000000	0.485596
2213.000000	0.486983
2212.000000	0.489010
2211.000000	0.489884
2210.000000	0.491670
2209.000000	0.494117
2208.000000	0.493344
2207.000000	0.493625
2206.000000	0.496215
2205.000000	0.497845
2204.000000	0.499179
2203.000000	0.501686
2202.000000	0.502254
2201.000000	0.502908
2200.000000	0.504243
2199.000000	0.505191
2198.000000	0.505533
2197.000000	0.509806
2196.000000	0.511993
2195.000000	0.512788
2194.000000	0.514996
2193.000000	0.518186
2192.000000	0.517039
2191.000000	0.519687
2190.000000	0.520156
2189.000000	0.521721
2188.000000	0.522807
2187.000000	0.523237
2186.000000	0.524822
2185.000000	0.526687
2184.000000	0.525735
2183.000000	0.526243
2182.000000	0.527659
2181.000000	0.529881
2180.000000	0.529485
2179.000000	0.531391
2178.000000	0.531924
2177.000000	0.529566
2176.000000	0.529599
2175.000000	0.531311
2174.000000	0.529779
2173.000000	0.531635
2172.000000	0.530728
2171.000000	0.531320
2170.000000	0.529291
2169.000000	0.526614
2168.000000	0.523122
2167.000000	0.522189
2166.000000	0.519994
2165.000000	0.519646
2164.000000	0.520458
2163.000000	0.516915
2162.000000	0.516900
2161.000000	0.510945
2160.000000	0.511974
2159.000000	0.511504
2158.000000	0.507214
2157.000000	0.502649
2156.000000	0.502716
2155.000000	0.500069
2154.000000	0.496680
2153.000000	0.493723
2152.000000	0.491383
2151.000000	0.489306
2150.000000	0.486882
2149.000000	0.483295
2148.000000	0.481583
2147.000000	0.475914
2146.000000	0.476732
2145.000000	0.472075
2144.000000	0.470697
2143.000000	0.471437
2142.000000	0.466103
2141.000000	0.462437
2140.000000	0.460726
2139.000000	0.459579
2138.000000	0.455133
2137.000000	0.452363
2136.000000	0.452782
2135.000000	0.448299
2134.000000	0.449998
2133.000000	0.450139
2132.000000	0.446868
2131.000000	0.441396
2130.000000	0.442143
2129.000000	0.443673
2128.000000	0.440497
2127.000000	0.440990
2126.000000	0.440104
2125.000000	0.437190
2124.000000	0.435794
2123.000000	0.435661
2122.000000	0.435652
2121.000000	0.435736
2120.000000	0.431489
2119.000000	0.431257
2118.000000	0.432198
2117.000000	0.431068
2116.000000	0.430423
2115.000000	0.428476
2114.000000	0.429164
2113.000000	0.430262
2112.000000	0.431007
2111.000000	0.428460
2110.000000	0.427817
2109.000000	0.428827
2108.000000	0.428342
2107.000000	0.426501
2106.000000	0.426435
2105.000000	0.426651
2104.000000	0.425552
2103.000000	0.426064
2102.000000	0.425559
2101.000000	0.425432
2100.000000	0.422801
2099.000000	0.422900
2098.000000	0.423743
2097.000000	0.425459
2096.000000	0.425660
2095.000000	0.425227
2094.000000	0.425649
2093.000000	0.425173
2092.000000	0.424394
2091.000000	0.425493
2090.000000	0.424471
2089.000000	0.426174
2088.000000	0.426662
2087.000000	0.428169
2086.000000	0.428405
2085.000000	0.429462
2084.000000	0.430593
2083.000000	0.431214
2082.000000	0.431291
2081.000000	0.433843
2080.000000	0.435124
2079.000000	0.437584
2078.000000	0.438113
2077.000000	0.439848
2076.000000	0.441694
2075.000000	0.443462
2074.000000	0.445897
2073.000000	0.447927
2072.000000	0.449871
2071.000000	0.450907
2070.000000	0.453505
2069.000000	0.456790
2068.000000	0.458902
2067.000000	0.462203
2066.000000	0.465010
2065.000000	0.466822
2064.000000	0.469312
2063.000000	0.472803
2062.000000	0.476602
2061.000000	0.480906
2060.000000	0.482501
2059.000000	0.484080
2058.000000	0.487258
2057.000000	0.489450
2056.000000	0.492193
2055.000000	0.494785
2054.000000	0.498166
2053.000000	0.501146
2052.000000	0.503291
2051.000000	0.504783
2050.000000	0.507676
2049.000000	0.509588
2048.000000	0.510899
2047.000000	0.511704
2046.000000	0.513938
2045.000000	0.515969
2044.000000	0.516884
2043.000000	0.516610
2042.000000	0.515634
2041.000000	0.514765
2040.000000	0.514395
2039.000000	0.513908
2038.000000	0.513732
2037.000000	0.512818
2036.000000	0.511288
2035.000000	0.509649
2034.000000	0.509282
2033.000000	0.508163
2032.000000	0.505764
2031.000000	0.503382
2030.000000	0.500947
2029.000000	0.499212
2028.000000	0.497038
2027.000000	0.495911
2026.000000	0.494412
2025.000000	0.492568
2024.000000	0.491206
2023.000000	0.490064
2022.000000	0.489503
2021.000000	0.488639
2020.000000	0.488024
2019.000000	0.487465
2018.000000	0.486814
2017.000000	0.487036
2016.000000	0.487534
2015.000000	0.488375
2014.000000	0.489033
2013.000000	0.489240
2012.000000	0.490000
2011.000000	0.491168
2010.000000	0.493125
2009.000000	0.495012
2008.000000	0.495935
2007.000000	0.497343
2006.000000	0.499644
2005.000000	0.501456
2004.000000	0.503460
2003.000000	0.505786
2002.000000	0.507829
2001.000000	0.509459
2000.000000	0.511484
1999.000000	0.514093
1998.000000	0.516221
1997.000000	0.518579
1996.000000	0.521044
1995.000000	0.523315
1994.000000	0.526195
1993.000000	0.528606
1992.000000	0.531411
1991.000000	0.534074
1990.000000	0.535786
1989.000000	0.538473
1988.000000	0.540996
1987.000000	0.543615
1986.000000	0.545875
1985.000000	0.548662
1984.000000	0.551340
1983.000000	0.553331
1982.000000	0.555634
1981.000000	0.557958
1980.000000	0.560798
1979.000000	0.563678
1978.000000	0.566378
1977.000000	0.569195
1976.000000	0.570594
1975.000000	0.573079
1974.000000	0.576041
1973.000000	0.577904
1972.000000	0.580508
1971.000000	0.582455
1970.000000	0.585184
1969.000000	0.587996
1968.000000	0.590365
1967.000000	0.592696
1966.000000	0.594493
1965.000000	0.597329
1964.000000	0.598955
1963.000000	0.600821
1962.000000	0.603144
1961.000000	0.606584
1960.000000	0.608572
1959.000000	0.610784
1958.000000	0.612144
1957.000000	0.614433
1956.000000	0.615245
1955.000000	0.618179
1954.000000	0.620487
1953.000000	0.621212
1952.000000	0.621804
1951.000000	0.623510
1950.000000	0.626511
1949.000000	0.627777
1948.000000	0.628024
1947.000000	0.628891
1946.000000	0.629728
1945.000000	0.630281
1944.000000	0.631204
1943.000000	0.630387
1942.000000	0.629466
1941.000000	0.630306
1940.000000	0.630143
1939.000000	0.629681
1938.000000	0.625812
1937.000000	0.624832
1936.000000	0.621910
1935.000000	0.620510
1934.000000	0.619191
1933.000000	0.615575
1932.000000	0.615971
1931.000000	0.611988
1930.000000	0.606520
1929.000000	0.604713
1928.000000	0.600516
1927.000000	0.595576
1926.000000	0.589703
1925.000000	0.586282
1924.000000	0.582538
1923.000000	0.575860
1922.000000	0.568307
1921.000000	0.563994
1920.000000	0.561188
1919.000000	0.553550
1918.000000	0.547075
1917.000000	0.538982
1916.000000	0.534235
1915.000000	0.526041
1914.000000	0.516842
1913.000000	0.508756
1912.000000	0.501309
1911.000000	0.493948
1910.000000	0.485148
1909.000000	0.478810
1908.000000	0.468685
1907.000000	0.460419
1906.000000	0.451171
1905.000000	0.440956
1904.000000	0.432565
1903.000000	0.423704
1902.000000	0.414488
1901.000000	0.404604
1900.000000	0.396228
1899.000000	0.386675
1898.000000	0.378339
1897.000000	0.369228
1896.000000	0.360925
1895.000000	0.352400
1894.000000	0.344592
1893.000000	0.337366
1892.000000	0.329663
1891.000000	0.322255
1890.000000	0.315236
1889.000000	0.308595
1888.000000	0.302311
1887.000000	0.296423
1886.000000	0.290794
1885.000000	0.285400
1884.000000	0.278829
1883.000000	0.273861
1882.000000	0.268828
1881.000000	0.264564
1880.000000	0.259631
1879.000000	0.255776
1878.000000	0.251397
1877.000000	0.247541
1876.000000	0.242825
1875.000000	0.239501
1874.000000	0.235966
1873.000000	0.233415
1872.000000	0.230735
1871.000000	0.227844
1870.000000	0.225289
1869.000000	0.223058
1868.000000	0.220819
1867.000000	0.219281
1866.000000	0.217793
1865.000000	0.216397
1864.000000	0.215164
1863.000000	0.213805
1862.000000	0.213077
1861.000000	0.212101
1860.000000	0.211209
1859.000000	0.210169
1858.000000	0.209500
1857.000000	0.209358
1856.000000	0.208914
1855.000000	0.208272
1854.000000	0.207434
1853.000000	0.207299
1852.000000	0.207513
1851.000000	0.207106
1850.000000	0.207172
1849.000000	0.207050
1848.000000	0.207035
1847.000000	0.207280
1846.000000	0.207011
1845.000000	0.207202
1844.000000	0.207297
1843.000000	0.207503
1842.000000	0.207852
1841.000000	0.207899
1840.000000	0.208550
1839.000000	0.208966
1838.000000	0.209032
1837.000000	0.209770
1836.000000	0.210495
1835.000000	0.210903
1834.000000	0.211400
1833.000000	0.211889
1832.000000	0.212386
1831.000000	0.212711
1830.000000	0.213132
1829.000000	0.213820
1828.000000	0.214535
1827.000000	0.214943
1826.000000	0.215443
1825.000000	0.216052
1824.000000	0.216493
1823.000000	0.216800
1822.000000	0.217325
1821.000000	0.217994
1820.000000	0.218427
1819.000000	0.218806
1818.000000	0.219294
1817.000000	0.219841
1816.000000	0.220322
1815.000000	0.220632
1814.000000	0.220955
1813.000000	0.221672
1812.000000	0.222222
1811.000000	0.222762
1810.000000	0.223368
1809.000000	0.223671
1808.000000	0.224081
1807.000000	0.224610
1806.000000	0.225001
1805.000000	0.225483
1804.000000	0.225972
1803.000000	0.226394
1802.000000	0.226928
1801.000000	0.227430
1800.000000	0.227755
1799.000000	0.228140
1798.000000	0.228745
1797.000000	0.229199
1796.000000	0.229481
1795.000000	0.229863
1794.000000	0.230075
1793.000000	0.230551
1792.000000	0.231023
1791.000000	0.231277
1790.000000	0.231513
1789.000000	0.231878
1788.000000	0.232080
1787.000000	0.232368
1786.000000	0.232788
1785.000000	0.233018
1784.000000	0.233586
1783.000000	0.234059
1782.000000	0.234667
1781.000000	0.234944
1780.000000	0.235448
1779.000000	0.235897
1778.000000	0.236552
1777.000000	0.237139
1776.000000	0.237565
1775.000000	0.238235
1774.000000	0.238847
1773.000000	0.239546
1772.000000	0.240341
1771.000000	0.241040
1770.000000	0.241540
1769.000000	0.242273
1768.000000	0.243229
1767.000000	0.243965
1766.000000	0.244436
1765.000000	0.244969
1764.000000	0.245721
1763.000000	0.246504
1762.000000	0.247193
1761.000000	0.247640
1760.000000	0.248316
1759.000000	0.249053
1758.000000	0.249660
1757.000000	0.250228
1756.000000	0.250909
1755.000000	0.251483
1754.000000	0.252271
1753.000000	0.253153
1752.000000	0.253663
1751.000000	0.254347
1750.000000	0.255147
1749.000000	0.255421
1748.000000	0.256286
1747.000000	0.257444
1746.000000	0.258295
1745.000000	0.259226
1744.000000	0.260140
1743.000000	0.261042
1742.000000	0.261838
1741.000000	0.262960
1740.000000	0.263486
1739.000000	0.264236
1738.000000	0.265238
1737.000000	0.265608
1736.000000	0.265971
1735.000000	0.266604
1734.000000	0.266759
1733.000000	0.267240
1732.000000	0.267055
1731.000000	0.267222
1730.000000	0.267383
1729.000000	0.266884
1728.000000	0.266524
1727.000000	0.265863
1726.000000	0.265089
1725.000000	0.264321
1724.000000	0.263662
1723.000000	0.262800
1722.000000	0.261626
1721.000000	0.260283
1720.000000	0.259514
1719.000000	0.257639
1718.000000	0.256697
1717.000000	0.255381
1716.000000	0.254029
1715.000000	0.252933
1714.000000	0.251590
1713.000000	0.250562
1712.000000	0.249518
1711.000000	0.248403
1710.000000	0.247437
1709.000000	0.246696
1708.000000	0.246184
1707.000000	0.245296
1706.000000	0.244777
1705.000000	0.244130
1704.000000	0.243650
1703.000000	0.243510
1702.000000	0.242986
1701.000000	0.242867
1700.000000	0.242691
1699.000000	0.242542
1698.000000	0.241895
1697.000000	0.241656
1696.000000	0.241102
1695.000000	0.240815
1694.000000	0.240574
1693.000000	0.239898
1692.000000	0.239400
1691.000000	0.238605
1690.000000	0.238074
1689.000000	0.236895
1688.000000	0.235904
1687.000000	0.234813
1686.000000	0.233534
1685.000000	0.232085
1684.000000	0.230330
1683.000000	0.228980
1682.000000	0.227341
1681.000000	0.225474
1680.000000	0.223805
1679.000000	0.221903
1678.000000	0.219897
1677.000000	0.218220
1676.000000	0.216221
1675.000000	0.214469
1674.000000	0.212601
1673.000000	0.210711
1672.000000	0.208974
1671.000000	0.207290
1670.000000	0.205693
1669.000000	0.203903
1668.000000	0.202442
1667.000000	0.200881
1666.000000	0.199964
1665.000000	0.198920
1664.000000	0.197973
1663.000000	0.196834
1662.000000	0.196059
1661.000000	0.195193
1660.000000	0.194749
1659.000000	0.194090
1658.000000	0.193397
1657.000000	0.192949
1656.000000	0.192628
1655.000000	0.192356
1654.000000	0.191926
1653.000000	0.191922
1652.000000	0.191587
1651.000000	0.191764
1650.000000	0.191568
1649.000000	0.191750
1648.000000	0.191737
1647.000000	0.191924
1646.000000	0.192324
1645.000000	0.192306
1644.000000	0.192347
1643.000000	0.192627
1642.000000	0.192848
1641.000000	0.193284
1640.000000	0.193312
1639.000000	0.193727
1638.000000	0.194136
1637.000000	0.194545
1636.000000	0.195026
1635.000000	0.195394
1634.000000	0.195772
1633.000000	0.196385
1632.000000	0.196972
1631.000000	0.197327
1630.000000	0.197813
1629.000000	0.198379
1628.000000	0.198710
1627.000000	0.199228
1626.000000	0.200014
1625.000000	0.200429
1624.000000	0.200972
1623.000000	0.201597
1622.000000	0.202248
1621.000000	0.202994
1620.000000	0.203601
1619.000000	0.204067
1618.000000	0.204739
1617.000000	0.205327
1616.000000	0.206078
1615.000000	0.206919
1614.000000	0.207605
1613.000000	0.208251
1612.000000	0.209065
1611.000000	0.209873
1610.000000	0.210489
1609.000000	0.211181
1608.000000	0.211994
1607.000000	0.212760
1606.000000	0.213634
1605.000000	0.214493
1604.000000	0.215403
1603.000000	0.216153
1602.000000	0.216831
1601.000000	0.217648
1600.000000	0.218564
1599.000000	0.219372
1598.000000	0.220106
1597.000000	0.220857
1596.000000	0.221705
1595.000000	0.222392
1594.000000	0.223068
1593.000000	0.223742
1592.000000	0.224492
1591.000000	0.225180
1590.000000	0.225866
1589.000000	0.226762
1588.000000	0.227493
1587.000000	0.228094
1586.000000	0.228704
1585.000000	0.229294
1584.000000	0.229990
1583.000000	0.230592
1582.000000	0.231231
1581.000000	0.231866
1580.000000	0.232420
1579.000000	0.233084
1578.000000	0.233708
1577.000000	0.234430
1576.000000	0.235118
1575.000000	0.235675
1574.000000	0.236459
1573.000000	0.237002
1572.000000	0.237620
1571.000000	0.238405
1570.000000	0.238896
1569.000000	0.239361
1568.000000	0.240037
1567.000000	0.240669
1566.000000	0.241149
1565.000000	0.241676
1564.000000	0.242148
1563.000000	0.242540
1562.000000	0.243084
1561.000000	0.243558
1560.000000	0.243896
1559.000000	0.244338
1558.000000	0.244575
1557.000000	0.244879
1556.000000	0.245434
1555.000000	0.245911
1554.000000	0.246350
1553.000000	0.246878
1552.000000	0.247549
1551.000000	0.247893
1550.000000	0.248419
1549.000000	0.249034
1548.000000	0.249756
1547.000000	0.250444
1546.000000	0.251152
1545.000000	0.251971
1544.000000	0.252939
1543.000000	0.253878
1542.000000	0.254925
1541.000000	0.255823
1540.000000	0.257012
1539.000000	0.258126
1538.000000	0.259257
1537.000000	0.260340
1536.000000	0.261651
1535.000000	0.262724
1534.000000	0.263899
1533.000000	0.264942
1532.000000	0.266180
1531.000000	0.267182
1530.000000	0.268286
1529.000000	0.269340
1528.000000	0.270470
1527.000000	0.271565
1526.000000	0.272307
1525.000000	0.273393
1524.000000	0.274176
1523.000000	0.275055
1522.000000	0.275909
1521.000000	0.276570
1520.000000	0.277269
1519.000000	0.277937
1518.000000	0.278388
1517.000000	0.279176
1516.000000	0.279844
1515.000000	0.280103
1514.000000	0.280714
1513.000000	0.281179
1512.000000	0.281590
1511.000000	0.282089
1510.000000	0.282475
1509.000000	0.282920
1508.000000	0.283226
1507.000000	0.283730
1506.000000	0.284003
1505.000000	0.284266
1504.000000	0.284625
1503.000000	0.284708
1502.000000	0.285136
1501.000000	0.285303
1500.000000	0.285443
1499.000000	0.285580
1498.000000	0.285657
1497.000000	0.285877
1496.000000	0.285941
1495.000000	0.286004
1494.000000	0.285864
1493.000000	0.285743
1492.000000	0.285787
1491.000000	0.285705
1490.000000	0.285540
1489.000000	0.285342
1488.000000	0.285099
1487.000000	0.284796
1486.000000	0.284728
1485.000000	0.284450
1484.000000	0.284318
1483.000000	0.283957
1482.000000	0.283561
1481.000000	0.283203
1480.000000	0.282772
1479.000000	0.282817
1478.000000	0.282361
1477.000000	0.281998
1476.000000	0.281672
1475.000000	0.281521
1474.000000	0.281081
1473.000000	0.280832
1472.000000	0.280550
1471.000000	0.280291
1470.000000	0.280043
1469.000000	0.279927
1468.000000	0.279383
1467.000000	0.279340
1466.000000	0.278874
1465.000000	0.278598
1464.000000	0.278426
1463.000000	0.278000
1462.000000	0.277681
1461.000000	0.277535
1460.000000	0.276981
1459.000000	0.276708
1458.000000	0.276223
1457.000000	0.275781
1456.000000	0.275255
1455.000000	0.274788
1454.000000	0.274240
1453.000000	0.273625
1452.000000	0.273071
1451.000000	0.272507
1450.000000	0.271587
1449.000000	0.270984
1448.000000	0.270259
1447.000000	0.269655
1446.000000	0.269002
1445.000000	0.268210
1444.000000	0.267368
1443.000000	0.266382
1442.000000	0.265491
1441.000000	0.264500
1440.000000	0.263455
1439.000000	0.262586
1438.000000	0.261436
1437.000000	0.260388
1436.000000	0.259202
1435.000000	0.257918
1434.000000	0.256882
1433.000000	0.255578
1432.000000	0.254163
1431.000000	0.252751
1430.000000	0.251261
1429.000000	0.249810
1428.000000	0.248302
1427.000000	0.246750
1426.000000	0.245067
1425.000000	0.243444
1424.000000	0.241763
1423.000000	0.240110
1422.000000	0.238049
1421.000000	0.236038
1420.000000	0.234115
1419.000000	0.232247
1418.000000	0.230152
1417.000000	0.228133
1416.000000	0.226138
1415.000000	0.223897
1414.000000	0.221778
1413.000000	0.219619
1412.000000	0.217440
1411.000000	0.215194
1410.000000	0.213156
1409.000000	0.211052
1408.000000	0.208809
1407.000000	0.206580
1406.000000	0.204589
1405.000000	0.202455
1404.000000	0.200400
1403.000000	0.198401
1402.000000	0.196474
1401.000000	0.194630
1400.000000	0.192671
1399.000000	0.190918
1398.000000	0.189178
1397.000000	0.187418
1396.000000	0.185735
1395.000000	0.184113
1394.000000	0.182615
1393.000000	0.181145
1392.000000	0.179623
1391.000000	0.178167
1390.000000	0.176870
1389.000000	0.175737
1388.000000	0.174561
1387.000000	0.173430
1386.000000	0.172274
1385.000000	0.171185
1384.000000	0.170206
1383.000000	0.169355
1382.000000	0.168596
1381.000000	0.167771
1380.000000	0.166955
1379.000000	0.166291
1378.000000	0.165621
1377.000000	0.165009
1376.000000	0.164455
1375.000000	0.163809
1374.000000	0.163315
1373.000000	0.162879
1372.000000	0.162359
1371.000000	0.161915
1370.000000	0.161522
1369.000000	0.161132
1368.000000	0.160746
1367.000000	0.160366
1366.000000	0.159918
1365.000000	0.159619
1364.000000	0.159309
1363.000000	0.158854
1362.000000	0.158530
1361.000000	0.158069
1360.000000	0.157658
1359.000000	0.157455
1358.000000	0.157157
1357.000000	0.156820
1356.000000	0.156482
1355.000000	0.156060
1354.000000	0.155599
1353.000000	0.155253
1352.000000	0.154980
1351.000000	0.154664
1350.000000	0.154335
1349.000000	0.153909
1348.000000	0.153463
1347.000000	0.153143
1346.000000	0.152853
1345.000000	0.152548
1344.000000	0.152275
1343.000000	0.152021
1342.000000	0.151568
1341.000000	0.151139
1340.000000	0.150851
1339.000000	0.150441
1338.000000	0.149910
1337.000000	0.149551
1336.000000	0.149242
1335.000000	0.148904
1334.000000	0.148773
1333.000000	0.148596
1332.000000	0.148519
1331.000000	0.148339
1330.000000	0.148144
1329.000000	0.148081
1328.000000	0.147791
1327.000000	0.147595
1326.000000	0.147576
1325.000000	0.147319
1324.000000	0.147341
1323.000000	0.147211
1322.000000	0.147063
1321.000000	0.147148
1320.000000	0.147073
1319.000000	0.146961
1318.000000	0.146669
1317.000000	0.146894
1316.000000	0.146795
1315.000000	0.146732
1314.000000	0.146659
1313.000000	0.146625
1312.000000	0.146657
1311.000000	0.146742
1310.000000	0.146632
1309.000000	0.146510
1308.000000	0.146673
1307.000000	0.146686
1306.000000	0.146651
1305.000000	0.146579
1304.000000	0.146576
1303.000000	0.146733
1302.000000	0.146601
1301.000000	0.146630
1300.000000	0.146801
1299.000000	0.146757
1298.000000	0.146851
1297.000000	0.146986
1296.000000	0.147196
1295.000000	0.147126
1294.000000	0.147175
1293.000000	0.147167
1292.000000	0.147393
1291.000000	0.147504
1290.000000	0.147682
1289.000000	0.147592
1288.000000	0.147874
1287.000000	0.147995
1286.000000	0.148161
1285.000000	0.148202
1284.000000	0.148366
1283.000000	0.148536
1282.000000	0.148745
1281.000000	0.148833
1280.000000	0.148922
1279.000000	0.149265
1278.000000	0.149224
1277.000000	0.149303
1276.000000	0.149444
1275.000000	0.149591
1274.000000	0.149753
1273.000000	0.149767
1272.000000	0.149866
1271.000000	0.150081
1270.000000	0.150132
1269.000000	0.150064
1268.000000	0.150208
1267.000000	0.150165
1266.000000	0.150462
1265.000000	0.150511
1264.000000	0.150466
1263.000000	0.150485
1262.000000	0.150605
1261.000000	0.150599
1260.000000	0.150636
1259.000000	0.150749
1258.000000	0.151049
1257.000000	0.150857
1256.000000	0.151103
1255.000000	0.151130
1254.000000	0.151208
1253.000000	0.151168
1252.000000	0.151376
1251.000000	0.151472
1250.000000	0.151713
1249.000000	0.151686
1248.000000	0.151823
1247.000000	0.151990
1246.000000	0.152190
1245.000000	0.152378
1244.000000	0.152648
1243.000000	0.152802
1242.000000	0.153076
1241.000000	0.153434
1240.000000	0.153626
1239.000000	0.153798
1238.000000	0.154061
1237.000000	0.154400
1236.000000	0.154739
1235.000000	0.154972
1234.000000	0.155399
1233.000000	0.155591
1232.000000	0.155952
1231.000000	0.156196
1230.000000	0.156554
1229.000000	0.156943
1228.000000	0.157202
1227.000000	0.157533
1226.000000	0.157793
1225.000000	0.158060
1224.000000	0.158385
1223.000000	0.158664
1222.000000	0.159016
1221.000000	0.159283
1220.000000	0.159688
1219.000000	0.160059
1218.000000	0.160386
1217.000000	0.160715
1216.000000	0.161009
1215.000000	0.161541
1214.000000	0.161740
1213.000000	0.162103
1212.000000	0.162313
1211.000000	0.162677
1210.000000	0.163213
1209.000000	0.163534
1208.000000	0.163720
1207.000000	0.164159
1206.000000	0.164617
1205.000000	0.164968
1204.000000	0.165157
1203.000000	0.165733
1202.000000	0.166197
1201.000000	0.166281
1200.000000	0.166728
1199.000000	0.167049
1198.000000	0.167365
1197.000000	0.167712
1196.000000	0.167888
1195.000000	0.168143
1194.000000	0.168533
1193.000000	0.168820
1192.000000	0.169079
1191.000000	0.169387
1190.000000	0.169595
1189.000000	0.169741
1188.000000	0.169877
1187.000000	0.170033
1186.000000	0.170204
1185.000000	0.170311
1184.000000	0.170399
1183.000000	0.170396
1182.000000	0.170368
1181.000000	0.170404
1180.000000	0.170361
1179.000000	0.170225
1178.000000	0.170106
1177.000000	0.169903
1176.000000	0.169663
1175.000000	0.169531
1174.000000	0.169286
1173.000000	0.168955
1172.000000	0.168694
1171.000000	0.168416
1170.000000	0.167996
1169.000000	0.167627
1168.000000	0.167286
1167.000000	0.166918
1166.000000	0.166517
1165.000000	0.166073
1164.000000	0.165684
1163.000000	0.165284
1162.000000	0.164846
1161.000000	0.164500
1160.000000	0.164092
1159.000000	0.163663
1158.000000	0.163212
1157.000000	0.162877
1156.000000	0.162583
1155.000000	0.162138
1154.000000	0.161801
1153.000000	0.161607
1152.000000	0.161290
1151.000000	0.160973
1150.000000	0.160777
1149.000000	0.160400
1148.000000	0.160024
1147.000000	0.159733
1146.000000	0.159546
1145.000000	0.159456
1144.000000	0.159253
1143.000000	0.158981
1142.000000	0.158726
1141.000000	0.158649
1140.000000	0.158552
1139.000000	0.158326
1138.000000	0.158262
1137.000000	0.158113
1136.000000	0.157869
1135.000000	0.157644
1134.000000	0.157498
1133.000000	0.157423
1132.000000	0.157382
1131.000000	0.157244
1130.000000	0.157147
1129.000000	0.157058
1128.000000	0.157021
1127.000000	0.157039
1126.000000	0.157020
1125.000000	0.156995
1124.000000	0.157006
1123.000000	0.157035
1122.000000	0.157088
1121.000000	0.157094
1120.000000	0.157151
1119.000000	0.157157
1118.000000	0.157289
1117.000000	0.157382
1116.000000	0.157541
1115.000000	0.157640
1114.000000	0.157638
1113.000000	0.157698
1112.000000	0.157831
1111.000000	0.157920
1110.000000	0.158004
1109.000000	0.158179
1108.000000	0.158238
1107.000000	0.158351
1106.000000	0.158448
1105.000000	0.158493
1104.000000	0.158586
1103.000000	0.158719
1102.000000	0.159011
1101.000000	0.159075
1100.000000	0.159153
1099.000000	0.159422
1098.000000	0.159596
1097.000000	0.159664
1096.000000	0.159809
1095.000000	0.159946
1094.000000	0.159973
1093.000000	0.160231
1092.000000	0.160367
1091.000000	0.160572
1090.000000	0.160657
1089.000000	0.160822
1088.000000	0.160914
1087.000000	0.161007
1086.000000	0.161183
1085.000000	0.161279
1084.000000	0.161599
1083.000000	0.161764
1082.000000	0.161958
1081.000000	0.161973
1080.000000	0.162265
1079.000000	0.162408
1078.000000	0.162559
1077.000000	0.162675
1076.000000	0.162930
1075.000000	0.163039
1074.000000	0.163177
1073.000000	0.163441
1072.000000	0.163684
1071.000000	0.163838
1070.000000	0.164070
1069.000000	0.164131
1068.000000	0.164453
1067.000000	0.164516
1066.000000	0.164765
1065.000000	0.165015
1064.000000	0.165134
1063.000000	0.165215
1062.000000	0.165472
1061.000000	0.165894
1060.000000	0.165940
1059.000000	0.166011
1058.000000	0.166303
1057.000000	0.166571
1056.000000	0.166578
1055.000000	0.166885
1054.000000	0.167145
1053.000000	0.167367
1052.000000	0.167430
1051.000000	0.167831
1050.000000	0.167845
1049.000000	0.168038
1048.000000	0.168191
1047.000000	0.168483
1046.000000	0.168738
1045.000000	0.168898
1044.000000	0.168988
1043.000000	0.169133
1042.000000	0.169445
1041.000000	0.169722
1040.000000	0.169850
1039.000000	0.169993
1038.000000	0.170094
1037.000000	0.170231
1036.000000	0.170361
1035.000000	0.170509
1034.000000	0.170686
1033.000000	0.170986
1032.000000	0.171177
1031.000000	0.171406
1030.000000	0.171580
1029.000000	0.171694
1028.000000	0.171850
1027.000000	0.171866
1026.000000	0.172200
1025.000000	0.172408
1024.000000	0.172541
1023.000000	0.172826
1022.000000	0.172869
1021.000000	0.173025
1020.000000	0.173195
1019.000000	0.173344
1018.000000	0.173518
1017.000000	0.173782
1016.000000	0.173923
1015.000000	0.173917
1014.000000	0.174085
1013.000000	0.174340
1012.000000	0.174518
1011.000000	0.174516
1010.000000	0.174730
1009.000000	0.174903
1008.000000	0.175076
1007.000000	0.175184
1006.000000	0.175376
1005.000000	0.175406
1004.000000	0.175545
1003.000000	0.175703
1002.000000	0.175849
1001.000000	0.175928
1000.000000	0.176097
999.000000	0.176197
998.000000	0.176351
997.000000	0.176578
996.000000	0.176726
995.000000	0.176879
994.000000	0.177141
993.000000	0.177185
992.000000	0.177164
991.000000	0.177382
990.000000	0.177589
989.000000	0.177704
988.000000	0.177781
987.000000	0.177855
986.000000	0.177974
985.000000	0.178346
984.000000	0.178428
983.000000	0.178525
982.000000	0.178694
981.000000	0.178783
980.000000	0.178905
979.000000	0.179127
978.000000	0.179235
977.000000	0.179277
976.000000	0.179403
975.000000	0.179412
974.000000	0.179577
973.000000	0.179783
972.000000	0.180002
971.000000	0.180041
970.000000	0.180310
969.000000	0.180395
968.000000	0.180486
967.000000	0.180628
966.000000	0.180758
965.000000	0.180887
964.000000	0.180957
963.000000	0.181033
962.000000	0.181051
961.000000	0.181115
960.000000	0.181294
959.000000	0.181453
958.000000	0.181555
957.000000	0.181493
956.000000	0.181731
955.000000	0.182000
954.000000	0.182070
953.000000	0.182146
952.000000	0.182359
951.000000	0.182473
950.000000	0.182551
949.000000	0.182758
948.000000	0.182982
947.000000	0.183016
946.000000	0.183053
945.000000	0.183300
944.000000	0.183487
943.000000	0.183538
942.000000	0.183637
941.000000	0.184016
940.000000	0.184256
939.000000	0.184329
938.000000	0.184614
937.000000	0.185005
936.000000	0.185144
935.000000	0.185180
934.000000	0.185377
933.000000	0.185600
932.000000	0.185899
931.000000	0.185962
930.000000	0.185956
929.000000	0.186241
928.000000	0.186603
927.000000	0.186789
926.000000	0.187069
925.000000	0.187489
924.000000	0.187501
923.000000	0.187630
922.000000	0.187820
921.000000	0.187818
920.000000	0.188148
919.000000	0.188534
918.000000	0.188589
917.000000	0.188792
916.000000	0.188980
915.000000	0.189273
914.000000	0.189469
913.000000	0.189627
912.000000	0.189914
911.000000	0.190600
910.000000	0.190474
909.000000	0.190156
908.000000	0.190327
907.000000	0.190607
906.000000	0.190944
905.000000	0.190975
904.000000	0.190978
903.000000	0.191182
902.000000	0.191505
901.000000	0.191532
900.000000	0.191785
899.000000	0.192181
898.000000	0.192378
897.000000	0.192186
896.000000	0.192296
895.000000	0.192573
894.000000	0.193051
893.000000	0.192893
892.000000	0.193462
891.000000	0.193707
890.000000	0.193245
889.000000	0.193465
888.000000	0.194059
887.000000	0.194447
886.000000	0.194604
885.000000	0.194328
884.000000	0.195166
883.000000	0.195436
882.000000	0.195383
881.000000	0.195264
880.000000	0.195806
879.000000	0.196141
878.000000	0.196163
877.000000	0.196372
876.000000	0.197337
875.000000	0.197267
874.000000	0.197445
873.000000	0.197172
872.000000	0.197490
871.000000	0.198219
870.000000	0.197776
869.000000	0.198759
868.000000	0.198886
867.000000	0.198095
866.000000	0.198854
865.000000	0.199384
864.000000	0.200090
863.000000	0.199274
862.000000	0.200602
861.000000	0.199933
860.000000	0.200649
859.000000	0.205555
858.000000	0.205200
857.000000	0.202159
856.000000	0.201043
855.000000	0.203914
854.000000	0.206319
853.000000	0.201314
852.000000	0.206502
851.000000	0.205965
850.000000	0.206906
849.000000	0.207631
848.000000	0.205570
847.000000	0.208844
846.000000	0.206638
845.000000	0.206617
844.000000	0.208660
843.000000	0.208106
842.000000	0.206698
841.000000	0.208017
840.000000	0.209248
839.000000	0.209016
838.000000	0.209809
837.000000	0.211298
836.000000	0.210752
835.000000	0.210106
834.000000	0.212111
833.000000	0.211685
832.000000	0.211387
831.000000	0.211488
830.000000	0.211650
829.000000	0.212841
828.000000	0.214252
827.000000	0.213099
826.000000	0.213630
825.000000	0.214668
824.000000	0.214211
823.000000	0.215123
822.000000	0.213468
821.000000	0.214741
820.000000	0.214615
819.000000	0.214756
818.000000	0.215776
817.000000	0.218064
816.000000	0.217287
815.000000	0.217643
814.000000	0.217940
813.000000	0.217847
812.000000	0.219612
811.000000	0.219392
810.000000	0.219494
809.000000	0.219747
808.000000	0.220820
807.000000	0.220468
806.000000	0.221098
805.000000	0.220743
804.000000	0.221583
803.000000	0.221579
802.000000	0.221715
801.000000	0.222238
800.000000	0.223139
799.000000	0.223775
798.000000	0.224153
797.000000	0.224062
796.000000	0.224183
795.000000	0.224384
794.000000	0.225035
793.000000	0.226041
792.000000	0.226390
791.000000	0.226738
790.000000	0.226959
789.000000	0.227324
788.000000	0.227666
787.000000	0.227301
786.000000	0.228209
785.000000	0.228267
784.000000	0.228948
783.000000	0.228932
782.000000	0.229635
781.000000	0.229953
780.000000	0.230533
779.000000	0.231072
778.000000	0.231387
777.000000	0.232030
776.000000	0.232793
775.000000	0.233150
774.000000	0.233544
773.000000	0.233524
772.000000	0.233973
771.000000	0.234628
770.000000	0.235116
769.000000	0.235503
768.000000	0.236678
767.000000	0.235948
766.000000	0.237149
765.000000	0.237802
764.000000	0.237994
763.000000	0.237781
762.000000	0.238369
761.000000	0.239429
760.000000	0.239983
759.000000	0.239929
758.000000	0.240071
757.000000	0.241764
756.000000	0.241663
755.000000	0.242467
754.000000	0.243401
753.000000	0.243474
752.000000	0.243368
751.000000	0.243128
750.000000	0.244300
749.000000	0.245191
748.000000	0.245808
747.000000	0.246666
746.000000	0.247731
745.000000	0.247836
744.000000	0.248179
743.000000	0.248030
742.000000	0.248521
741.000000	0.249459
740.000000	0.250160
739.000000	0.250621
738.000000	0.251508
737.000000	0.252215
736.000000	0.252559
735.000000	0.252973
734.000000	0.253702
733.000000	0.253795
732.000000	0.254062
731.000000	0.254868
730.000000	0.255791
729.000000	0.256463
728.000000	0.256829
727.000000	0.257464
726.000000	0.258064
725.000000	0.258613
724.000000	0.259275
723.000000	0.259926
722.000000	0.260735
721.000000	0.261270
720.000000	0.261849
719.000000	0.262477
718.000000	0.263220
717.000000	0.264054
716.000000	0.264572
715.000000	0.265007
714.000000	0.265231
713.000000	0.266184
712.000000	0.267130
711.000000	0.267410
710.000000	0.268399
709.000000	0.269159
708.000000	0.269852
707.000000	0.270737
706.000000	0.271835
705.000000	0.272446
704.000000	0.272607
703.000000	0.272946
702.000000	0.273702
701.000000	0.274946
700.000000	0.275468
699.000000	0.276089
698.000000	0.276859
697.000000	0.277715
696.000000	0.278661
695.000000	0.279647
694.000000	0.280553
693.000000	0.281463
692.000000	0.282093
691.000000	0.281961
690.000000	0.282413
689.000000	0.283754
688.000000	0.285179
687.000000	0.285973
686.000000	0.286777
685.000000	0.287474
684.000000	0.288582
683.000000	0.289839
682.000000	0.290574
681.000000	0.291055
680.000000	0.291616
679.000000	0.292754
678.000000	0.293575
677.000000	0.294486
676.000000	0.295574
675.000000	0.296236
674.000000	0.296997
673.000000	0.298131
672.000000	0.299248
671.000000	0.299940
670.000000	0.300835
669.000000	0.301732
668.000000	0.302855
667.000000	0.303911
666.000000	0.304865
665.000000	0.305970
664.000000	0.306808
663.000000	0.307444
662.000000	0.308724
661.000000	0.309852
660.000000	0.311015
659.000000	0.311711
658.000000	0.312888
657.000000	0.313697
656.000000	0.314615
655.000000	0.315551
654.000000	0.316459
653.000000	0.317452
652.000000	0.318715
651.000000	0.319688
650.000000	0.321155
649.000000	0.321992
648.000000	0.323284
647.000000	0.324117
646.000000	0.325718
645.000000	0.326826
644.000000	0.327593
643.000000	0.328971
642.000000	0.330073
641.000000	0.331272
640.000000	0.331882
639.000000	0.333283
638.000000	0.334459
637.000000	0.335949
636.000000	0.337258
635.000000	0.338018
634.000000	0.339342
633.000000	0.340476
632.000000	0.342149
631.000000	0.343177
630.000000	0.344644
629.000000	0.345303
628.000000	0.346848
627.000000	0.347956
626.000000	0.349405
625.000000	0.350795
624.000000	0.351846
623.000000	0.353511
622.000000	0.354635
621.000000	0.356341
620.000000	0.357426
619.000000	0.358776
618.000000	0.359943
617.000000	0.361765
616.000000	0.363171
615.000000	0.364807
614.000000	0.365808
613.000000	0.366913
612.000000	0.368539
611.000000	0.370023
610.000000	0.372010
609.000000	0.373215
608.000000	0.374566
607.000000	0.376427
606.000000	0.377426
605.000000	0.379005
604.000000	0.380628
603.000000	0.381832
602.000000	0.383893
601.000000	0.385376
600.000000	0.387221
599.000000	0.388927
598.000000	0.390507
597.000000	0.391764
596.000000	0.393498
595.000000	0.394950
594.000000	0.396731
593.000000	0.398457
592.000000	0.400567
591.000000	0.401774
590.000000	0.404052
589.000000	0.405343
588.000000	0.407328
587.000000	0.408818
586.000000	0.410651
585.000000	0.412516
584.000000	0.414363
583.000000	0.415801
582.000000	0.417718
581.000000	0.419435
580.000000	0.421678
579.000000	0.423510
578.000000	0.425866
577.000000	0.427286
576.000000	0.429587
575.000000	0.430967
574.000000	0.433862
573.000000	0.434878
572.000000	0.437346
571.000000	0.439296
570.000000	0.441379
569.000000	0.443432
568.000000	0.445420
567.000000	0.447434
566.000000	0.449834
565.000000	0.451965
564.000000	0.454109
563.000000	0.456248
562.000000	0.458134
561.000000	0.460535
560.000000	0.463099
559.000000	0.465203
558.000000	0.467210
557.000000	0.469636
556.000000	0.471786
555.000000	0.473932
554.000000	0.476525
553.000000	0.478812
552.000000	0.480958
551.000000	0.482902
550.000000	0.485909
549.000000	0.488507
548.000000	0.491222
547.000000	0.493212
546.000000	0.495636
545.000000	0.497907
544.000000	0.500228
543.000000	0.503320
542.000000	0.505531
541.000000	0.507889
540.000000	0.510664
539.000000	0.513159
538.000000	0.516029
537.000000	0.518283
536.000000	0.521368
535.000000	0.523797
534.000000	0.526144
533.000000	0.529007
532.000000	0.531515
531.000000	0.534312
530.000000	0.537570
529.000000	0.540019
528.000000	0.542895
527.000000	0.545592
526.000000	0.548641
525.000000	0.551326
524.000000	0.553993
523.000000	0.557362
522.000000	0.560027
521.000000	0.562700
520.000000	0.565615
519.000000	0.568280
518.000000	0.571118
517.000000	0.574189
516.000000	0.577656
515.000000	0.580478
514.000000	0.583284
513.000000	0.586286
512.000000	0.589474
511.000000	0.592553
510.000000	0.595482
509.000000	0.598883
508.000000	0.601710
507.000000	0.604881
506.000000	0.608306
505.000000	0.611636
504.000000	0.614617
503.000000	0.617732
502.000000	0.620951
501.000000	0.624139
500.000000	0.627163
499.000000	0.630186
498.000000	0.633508
497.000000	0.636639
496.000000	0.639784
495.000000	0.643391
494.000000	0.646656
493.000000	0.650038
492.000000	0.653645
491.000000	0.656590
490.000000	0.660424
489.000000	0.663570
488.000000	0.667143
487.000000	0.670105
486.000000	0.674085
485.000000	0.677672
484.000000	0.680653
483.000000	0.683777
482.000000	0.687274
481.000000	0.690570
480.000000	0.693390
479.000000	0.696681
478.000000	0.700332
477.000000	0.704025
476.000000	0.708076
475.000000	0.711778
474.000000	0.715215
473.000000	0.718508
472.000000	0.722060
471.000000	0.725973
470.000000	0.729267
469.000000	0.732613
468.000000	0.736332
467.000000	0.740066
466.000000	0.744011
465.000000	0.747869
464.000000	0.751519
463.000000	0.755427
462.000000	0.759398
461.000000	0.762689
460.000000	0.766207
459.000000	0.770130
458.000000	0.774373
457.000000	0.778620
456.000000	0.783090
455.000000	0.787387
454.000000	0.791125
453.000000	0.794775
452.000000	0.799074
451.000000	0.803411
450.000000	0.807514
449.000000	0.811962
448.000000	0.816484
447.000000	0.819730
446.000000	0.823545
445.000000	0.827783
444.000000	0.831846
443.000000	0.836006
442.000000	0.839897
441.000000	0.843157
440.000000	0.846249
439.000000	0.850627
438.000000	0.854459
437.000000	0.857954
436.000000	0.861933
435.000000	0.865503
434.000000	0.869062
433.000000	0.872685
432.000000	0.876076
431.000000	0.879752
430.000000	0.883201
429.000000	0.886755
428.000000	0.890401
427.000000	0.893788
426.000000	0.897693
425.000000	0.901461
424.000000	0.905807
423.000000	0.909022
422.000000	0.912304
421.000000	0.915985
420.000000	0.919833
419.000000	0.923229
418.000000	0.927158
417.000000	0.931747
416.000000	0.935183
415.000000	0.938674
414.000000	0.942328
413.000000	0.946836
412.000000	0.950549
411.000000	0.953763
410.000000	0.956838
409.000000	0.960035
408.000000	0.963636
407.000000	0.967012
406.000000	0.971484
405.000000	0.975766
404.000000	0.978602
403.000000	0.982110
402.000000	0.985165
401.000000	0.989607
400.000000	0.992515
399.000000	0.996778
398.000000	0.999988
397.000000	1.002641
396.000000	1.004872
395.000000	1.008581
394.000000	1.012572
393.000000	1.014764
392.000000	1.017525
391.000000	1.020137
390.000000	1.024015
389.000000	1.026697
388.000000	1.029862
387.000000	1.031814
386.000000	1.034114
385.000000	1.037672
384.000000	1.040419
383.000000	1.043420
382.000000	1.045961
381.000000	1.048867
380.000000	1.050485
379.000000	1.052622
378.000000	1.054044
377.000000	1.056404
376.000000	1.058967
375.000000	1.062747
374.000000	1.067818
373.000000	1.067035
372.000000	1.067770
371.000000	1.072344
370.000000	1.073944
369.000000	1.076346
368.000000	1.078754
367.000000	1.080418
366.000000	1.079626
365.000000	1.083287
364.000000	1.086203
363.000000	1.087454
362.000000	1.090391
361.000000	1.092016
360.000000	1.094731
359.000000	1.096884
358.000000	1.098108
357.000000	1.099004
356.000000	1.102157
355.000000	1.103013
354.000000	1.106737
353.000000	1.108528
352.000000	1.112182
351.000000	1.108532
350.000000	1.112075
349.000000	1.112517
348.000000	1.113372
347.000000	1.116474
346.000000	1.120143
345.000000	1.119517
344.000000	1.123784
343.000000	1.119404
342.000000	1.125233
341.000000	1.127191
340.000000	1.126484
339.000000	1.129975
338.000000	1.135417
337.000000	1.134315
336.000000	1.132357
335.000000	1.136083
334.000000	1.138660
333.000000	1.141157
332.000000	1.142650
331.000000	1.138831
330.000000	1.141760
329.000000	1.145315
328.000000	1.142481
327.000000	1.144931
326.000000	1.143965
325.000000	1.147477
324.000000	1.153133
323.000000	1.150623
322.000000	1.158430
321.000000	1.152783
320.000000	1.150966
319.000000	1.157277
318.000000	1.155568
317.000000	1.154585
316.000000	1.156763
315.000000	1.154905
314.000000	1.156030
313.000000	1.157866
312.000000	1.160212
311.000000	1.159745
310.000000	1.161991
309.000000	1.159504
308.000000	1.159779
307.000000	1.160235
306.000000	1.159967
305.000000	1.155755
304.000000	1.153843
303.000000	1.156811
302.000000	1.159731
301.000000	1.157509
300.000000	1.161126
299.000000	1.158800
298.000000	1.158764
297.000000	1.159685
296.000000	1.157529
295.000000	1.155167
294.000000	1.159176
293.000000	1.158067
292.000000	1.159391
291.000000	1.158028
290.000000	1.158596
289.000000	1.158797
288.000000	1.155241
287.000000	1.153281
286.000000	1.155421
285.000000	1.152362
284.000000	1.153831
283.000000	1.150963
282.000000	1.151439
281.000000	1.150172
280.000000	1.150578
279.000000	1.149801
278.000000	1.149668
277.000000	1.146914
276.000000	1.146352
275.000000	1.144393
274.000000	1.142974
273.000000	1.139897
272.000000	1.139940
271.000000	1.139538
270.000000	1.133582
269.000000	1.131589
268.000000	1.130808
267.000000	1.131789
266.000000	1.129111
265.000000	1.127348
264.000000	1.123857
263.000000	1.119563
262.000000	1.118232
261.000000	1.117744
260.000000	1.113974
259.000000	1.110858
258.000000	1.106331
257.000000	1.101946
256.000000	1.097113
255.000000	1.094507
254.000000	1.090225
253.000000	1.085622
252.000000	1.080511
251.000000	1.075294
250.000000	1.072248
249.000000	1.065827
248.000000	1.059577
247.000000	1.054433
246.000000	1.049413
245.000000	1.043574
244.000000	1.036915
243.000000	1.035127
242.000000	1.031110
241.000000	1.023092
240.000000	1.016984
239.000000	1.014448
238.000000	1.011770
237.000000	1.005482
236.000000	1.000384
235.000000	0.996527
234.000000	0.989086
233.000000	0.985467
232.000000	0.983063
231.000000	0.979824
230.000000	0.978519
229.000000	0.974782
228.000000	0.969612
227.000000	0.965805
226.000000	0.961489
225.000000	0.957678
224.000000	0.954375
223.000000	0.951314
222.000000	0.949160
221.000000	0.942345
220.000000	0.935397
219.000000	0.932420
218.000000	0.929098
217.000000	0.924628
216.000000	0.916935
215.000000	0.909508
214.000000	0.907754
213.000000	0.903918
212.000000	0.892548
211.000000	0.887350
210.000000	0.880707
209.000000	0.869973
208.000000	0.859903
207.000000	0.845711
206.000000	0.836246
205.000000	0.831351
204.000000	0.814536
203.000000	0.800402
202.000000	0.787166
201.000000	0.775308
200.000000	0.766375
