PE UV       SUBTECH     SPECTRUM    ASCII       PEDS        4.00        
   -1
mouton_fleur_humidity.asc
24/02/16
17:34:12.00
24/02/16
17:34:12.00
Administrator

250.000000
1
Lambda 750
750N8071901
PerkinElmer UV WinLab 6.0.4.0738 / 1.61.00 Lambda 900

0
0
3350/servo 860.8/2
0
0
UV/VIS
1
1
1
CommonBeamDepol,150mm sphere / downward view
0
0
0
0
Program
Program
3350/servo 860.8/2
3350/0.2 860.8/0.2
3350/0.2 860.8/0.2
0
1
 
 
 
0
 
860.8
319.2
860.8
Front
100
on
 
 
0
0
0
 
0
 
 
 
0
 
 
0
0
0
0
0
 
 
 
 
0
0


0
0
#HDR
-1
-1
#GR
nm
%R
1.0
0.0
2500.000000
-10.000000
226
8
55.289811
-3.035092
#DATA
2500.000000	4.752755
2490.000000	-2.355832
2480.000000	6.805360
2470.000000	2.132666
2460.000000	-3.035092
2450.000000	5.375002
2440.000000	-3.004544
2430.000000	1.513439
2420.000000	5.129158
2410.000000	-0.671840
2400.000000	2.133246
2390.000000	1.236994
2380.000000	0.042386
2370.000000	2.387356
2360.000000	5.480621
2350.000000	3.043412
2340.000000	7.103118
2330.000000	-0.653412
2320.000000	3.860677
2310.000000	3.472038
2300.000000	3.518900
2290.000000	3.628799
2280.000000	2.889995
2270.000000	5.832538
2260.000000	6.326477
2250.000000	5.221885
2240.000000	7.970650
2230.000000	3.677707
2220.000000	3.705660
2210.000000	5.490048
2200.000000	3.237201
2190.000000	4.790810
2180.000000	6.176344
2170.000000	5.205382
2160.000000	3.915901
2150.000000	7.766845
2140.000000	7.192626
2130.000000	6.756881
2120.000000	5.892111
2110.000000	6.667169
2100.000000	7.278553
2090.000000	5.568791
2080.000000	5.034899
2070.000000	4.180053
2060.000000	4.391510
2050.000000	3.971180
2040.000000	4.104501
2030.000000	5.354545
2020.000000	4.990039
2010.000000	3.521023
2000.000000	3.302960
1990.000000	2.385272
1980.000000	1.519438
1970.000000	1.692832
1960.000000	0.633574
1950.000000	0.654164
1940.000000	2.263877
1930.000000	4.864157
1920.000000	8.573887
1910.000000	12.316673
1900.000000	16.818277
1890.000000	21.003458
1880.000000	24.318934
1870.000000	25.145451
1860.000000	24.965484
1850.000000	24.947876
1840.000000	24.307131
1830.000000	23.931186
1820.000000	23.342988
1810.000000	23.139212
1800.000000	22.735104
1790.000000	22.044269
1780.000000	21.017900
1770.000000	21.134637
1760.000000	19.993476
1750.000000	19.281037
1740.000000	19.859385
1730.000000	21.548594
1720.000000	22.234579
1710.000000	23.361099
1700.000000	24.614819
1690.000000	26.876105
1680.000000	28.678710
1670.000000	29.354810
1660.000000	29.435797
1650.000000	28.977504
1640.000000	28.528533
1630.000000	27.477424
1620.000000	26.384640
1610.000000	25.461675
1600.000000	24.628927
1590.000000	23.860965
1580.000000	23.157602
1570.000000	22.822610
1560.000000	21.985103
1550.000000	21.172241
1540.000000	20.043163
1530.000000	19.517388
1520.000000	18.884483
1510.000000	18.543855
1500.000000	18.410224
1490.000000	18.402126
1480.000000	18.569685
1470.000000	19.061505
1460.000000	19.793244
1450.000000	21.215154
1440.000000	23.047917
1430.000000	25.791036
1420.000000	29.905018
1410.000000	34.409971
1400.000000	38.480040
1390.000000	40.899513
1380.000000	41.840055
1370.000000	43.596447
1360.000000	45.019030
1350.000000	45.821231
1340.000000	46.638092
1330.000000	48.021314
1320.000000	48.982214
1310.000000	49.556559
1300.000000	49.784907
1290.000000	50.147855
1280.000000	49.886251
1270.000000	49.618004
1260.000000	49.121668
1250.000000	48.701954
1240.000000	48.328482
1230.000000	47.765927
1220.000000	46.822566
1210.000000	46.229538
1200.000000	46.309383
1190.000000	47.400533
1180.000000	48.689952
1170.000000	50.419557
1160.000000	51.778629
1150.000000	53.042397
1140.000000	53.715386
1130.000000	53.907568
1120.000000	53.685860
1110.000000	53.860724
1100.000000	54.336801
1090.000000	54.038859
1080.000000	54.113031
1070.000000	53.699436
1060.000000	53.556420
1050.000000	53.272144
1040.000000	52.919952
1030.000000	52.765704
1020.000000	52.948571
1010.000000	53.612993
1000.000000	53.611744
990.000000	53.543552
980.000000	53.680028
970.000000	54.081490
960.000000	54.399677
950.000000	54.794430
940.000000	54.509150
930.000000	53.916681
920.000000	54.098095
910.000000	54.219516
900.000000	55.289811
890.000000	54.483690
880.000000	54.514096
870.000000	54.605251
860.000000	52.636024
850.000000	54.228251
840.000000	53.078119
830.000000	53.909072
820.000000	53.717220
810.000000	53.240160
800.000000	53.412995
790.000000	53.082859
780.000000	53.255660
770.000000	52.828670
760.000000	52.412051
750.000000	52.283862
740.000000	51.939230
730.000000	51.597630
720.000000	51.144046
710.000000	50.642844
700.000000	50.157066
690.000000	49.499685
680.000000	48.938036
670.000000	48.321037
660.000000	47.695450
650.000000	47.101174
640.000000	46.071453
630.000000	45.416208
620.000000	44.601076
610.000000	43.569976
600.000000	42.681327
590.000000	41.823945
580.000000	40.765498
570.000000	39.710318
560.000000	38.691429
550.000000	37.457383
540.000000	36.213650
530.000000	34.749350
520.000000	33.333333
510.000000	31.651225
500.000000	29.935887
490.000000	28.170749
480.000000	26.364825
470.000000	24.215643
460.000000	22.338198
450.000000	20.055559
440.000000	17.865101
430.000000	15.666631
420.000000	13.657970
410.000000	11.909465
400.000000	10.437991
390.000000	9.207108
380.000000	8.002336
370.000000	7.314222
360.000000	6.556546
350.000000	6.945929
340.000000	6.277428
330.000000	6.794216
320.000000	6.455570
310.000000	8.418214
300.000000	3.356318
290.000000	2.728660
280.000000	2.475727
270.000000	2.878046
260.000000	3.152716
250.000000	3.231346
