PE UV       SUBTECH     SPECTRUM    ASCII       PEDS        4.00        
   -1
parch_reconsitue6_side2.asc
24/02/16
17:08:36.00
24/02/16
17:08:36.00
Administrator

250.000000
1
Lambda 750
750N8071901
PerkinElmer UV WinLab 6.0.4.0738 / 1.61.00 Lambda 900

0
0
3350/servo 860.8/2
0
0
UV/VIS
1
1
1
CommonBeamDepol,150mm sphere / downward view
0
0
0
0
Program
Program
3350/servo 860.8/2
3350/0.2 860.8/0.2
3350/0.2 860.8/0.2
0
1
 
 
 
0
 
860.8
319.2
860.8
Front
100
on
 
 
0
0
0
 
0
 
 
 
0
 
 
0
0
0
0
0
 
 
 
 
0
0


0
0
#HDR
-1
-1
#GR
nm
%R
1.0
0.0
2500.000000
-10.000000
226
8
25.609786
-6.856411
#DATA
2500.000000	-6.856411
2490.000000	-1.517591
2480.000000	7.384969
2470.000000	5.992102
2460.000000	-4.404782
2450.000000	7.102516
2440.000000	2.395197
2430.000000	1.727068
2420.000000	4.769016
2410.000000	-1.492506
2400.000000	5.302583
2390.000000	4.557081
2380.000000	3.431144
2370.000000	0.978672
2360.000000	4.785579
2350.000000	4.822381
2340.000000	6.719402
2330.000000	3.350134
2320.000000	6.075425
2310.000000	3.383099
2300.000000	4.406292
2290.000000	7.068167
2280.000000	5.258280
2270.000000	6.402865
2260.000000	5.693123
2250.000000	6.790957
2240.000000	8.415456
2230.000000	7.068840
2220.000000	5.125822
2210.000000	6.800275
2200.000000	5.396930
2190.000000	5.980712
2180.000000	7.231042
2170.000000	6.259052
2160.000000	5.434599
2150.000000	7.936724
2140.000000	7.762837
2130.000000	7.187286
2120.000000	6.338943
2110.000000	7.621970
2100.000000	7.243180
2090.000000	6.672496
2080.000000	6.452258
2070.000000	6.228189
2060.000000	5.733942
2050.000000	4.650414
2040.000000	5.521074
2030.000000	6.509569
2020.000000	6.346210
2010.000000	5.434274
2000.000000	5.078053
1990.000000	5.300604
1980.000000	4.653322
1970.000000	4.502920
1960.000000	4.458540
1950.000000	3.479123
1940.000000	4.963033
1930.000000	6.280375
1920.000000	7.627504
1910.000000	10.046097
1900.000000	11.339304
1890.000000	13.309488
1880.000000	15.377477
1870.000000	15.870655
1860.000000	15.693083
1850.000000	15.035969
1840.000000	14.957647
1830.000000	15.029250
1820.000000	15.372619
1810.000000	15.001785
1800.000000	14.765246
1790.000000	14.529479
1780.000000	13.888539
1770.000000	14.286609
1760.000000	14.426894
1750.000000	14.142399
1740.000000	13.933382
1730.000000	14.587101
1720.000000	14.797567
1710.000000	15.031461
1700.000000	15.339237
1690.000000	16.039391
1680.000000	16.450415
1670.000000	17.097650
1660.000000	17.094640
1650.000000	17.259062
1640.000000	16.844246
1630.000000	16.596893
1620.000000	15.922839
1610.000000	15.691037
1600.000000	15.243033
1590.000000	14.847840
1580.000000	14.694645
1570.000000	14.628562
1560.000000	14.278192
1550.000000	13.921133
1540.000000	13.431050
1530.000000	13.152601
1520.000000	12.992181
1510.000000	12.741615
1500.000000	12.673871
1490.000000	12.672557
1480.000000	12.766486
1470.000000	13.013746
1460.000000	13.275248
1450.000000	13.708614
1440.000000	14.514902
1430.000000	15.397288
1420.000000	16.977838
1410.000000	18.682294
1400.000000	20.230545
1390.000000	21.005975
1380.000000	21.111341
1370.000000	21.678460
1360.000000	22.110293
1350.000000	22.140060
1340.000000	22.342738
1330.000000	23.327147
1320.000000	23.946561
1310.000000	24.104856
1300.000000	24.005894
1290.000000	24.110586
1280.000000	24.043914
1270.000000	23.694790
1260.000000	23.603407
1250.000000	23.648761
1240.000000	23.720721
1230.000000	23.591338
1220.000000	23.201718
1210.000000	23.062473
1200.000000	23.224117
1190.000000	23.438731
1180.000000	23.638587
1170.000000	24.090273
1160.000000	24.497879
1150.000000	24.707514
1140.000000	25.013100
1130.000000	24.972118
1120.000000	24.513118
1110.000000	24.680289
1100.000000	25.139710
1090.000000	25.027296
1080.000000	24.894979
1070.000000	24.643980
1060.000000	24.693598
1050.000000	24.513427
1040.000000	24.169606
1030.000000	23.891927
1020.000000	24.035659
1010.000000	24.303177
1000.000000	24.282171
990.000000	24.318704
980.000000	24.192823
970.000000	24.442887
960.000000	24.373558
950.000000	25.101300
940.000000	24.592249
930.000000	24.457999
920.000000	24.340220
910.000000	24.781628
900.000000	24.729923
890.000000	24.349898
880.000000	23.980683
870.000000	24.900841
860.000000	25.609786
850.000000	25.199717
840.000000	24.924259
830.000000	25.065374
820.000000	24.888025
810.000000	24.627883
800.000000	24.622999
790.000000	24.643322
780.000000	24.877107
770.000000	24.810597
760.000000	24.740668
750.000000	24.656236
740.000000	24.640027
730.000000	24.506808
720.000000	24.534378
710.000000	24.290036
700.000000	24.268917
690.000000	24.271293
680.000000	24.123549
670.000000	24.035449
660.000000	23.964407
650.000000	23.978895
640.000000	23.709589
630.000000	23.725706
620.000000	23.538754
610.000000	23.500777
600.000000	23.362729
590.000000	23.232234
580.000000	23.161313
570.000000	22.939550
560.000000	22.867240
550.000000	22.674078
540.000000	22.517937
530.000000	22.321263
520.000000	22.186049
510.000000	21.912735
500.000000	21.569638
490.000000	21.505280
480.000000	21.234911
470.000000	20.917877
460.000000	20.553362
450.000000	19.966715
440.000000	19.630765
430.000000	18.986229
420.000000	18.372178
410.000000	18.033873
400.000000	17.965092
390.000000	18.311887
380.000000	18.889335
370.000000	19.719481
360.000000	19.849904
350.000000	19.454941
340.000000	18.675287
330.000000	16.841421
320.000000	15.416207
310.000000	12.529448
300.000000	9.166411
290.000000	8.297477
280.000000	8.273018
270.000000	8.715592
260.000000	10.887504
250.000000	12.947278
