PE UV       SUBTECH     SPECTRUM    ASCII       PEDS        4.00        
   -1
parch_reconsitue3_side2_2.asc
24/02/16
17:00:33.00
24/02/16
17:00:33.00
Administrator

250.000000
1
Lambda 750
750N8071901
PerkinElmer UV WinLab 6.0.4.0738 / 1.61.00 Lambda 900

0
0
3350/servo 860.8/2
0
0
UV/VIS
1
1
1
CommonBeamDepol,150mm sphere / downward view
0
0
0
0
Program
Program
3350/servo 860.8/2
3350/0.2 860.8/0.2
3350/0.2 860.8/0.2
0
1
 
 
 
0
 
860.8
319.2
860.8
Front
100
on
 
 
0
0
0
 
0
 
 
 
0
 
 
0
0
0
0
0
 
 
 
 
0
0


0
0
#HDR
-1
-1
#GR
nm
%R
1.0
0.0
2500.000000
-10.000000
226
8
25.523498
0.257080
#DATA
2500.000000	3.701280
2490.000000	0.979478
2480.000000	6.526987
2470.000000	6.655980
2460.000000	0.257080
2450.000000	2.575674
2440.000000	1.132237
2430.000000	3.625455
2420.000000	9.214376
2410.000000	4.127423
2400.000000	11.546943
2390.000000	3.471098
2380.000000	3.466581
2370.000000	5.559950
2360.000000	4.617063
2350.000000	7.574158
2340.000000	7.012752
2330.000000	3.876494
2320.000000	5.301639
2310.000000	9.194044
2300.000000	5.514510
2290.000000	6.446147
2280.000000	5.399005
2270.000000	6.306082
2260.000000	6.990899
2250.000000	7.575842
2240.000000	8.660272
2230.000000	7.694597
2220.000000	8.163294
2210.000000	8.166095
2200.000000	7.406345
2190.000000	7.263509
2180.000000	9.031278
2170.000000	7.035661
2160.000000	7.224745
2150.000000	9.146259
2140.000000	8.004265
2130.000000	8.079798
2120.000000	7.901090
2110.000000	8.892527
2100.000000	7.909722
2090.000000	7.815448
2080.000000	6.890225
2070.000000	7.340193
2060.000000	6.262123
2050.000000	6.969326
2040.000000	7.105206
2030.000000	6.759697
2020.000000	7.436998
2010.000000	6.427598
2000.000000	5.936992
1990.000000	6.401117
1980.000000	5.326247
1970.000000	5.815095
1960.000000	5.202580
1950.000000	5.138430
1940.000000	5.885092
1930.000000	7.099191
1920.000000	9.319292
1910.000000	10.878871
1900.000000	13.027780
1890.000000	14.103637
1880.000000	15.231362
1870.000000	16.280072
1860.000000	16.350960
1850.000000	15.833368
1840.000000	16.175155
1830.000000	16.233226
1820.000000	15.931687
1810.000000	15.888524
1800.000000	15.659579
1790.000000	15.207689
1780.000000	15.190830
1770.000000	15.339723
1760.000000	15.331871
1750.000000	14.954716
1740.000000	14.855731
1730.000000	15.704779
1720.000000	15.733102
1710.000000	15.914320
1700.000000	16.086003
1690.000000	16.990880
1680.000000	17.215292
1670.000000	17.773471
1660.000000	17.564231
1650.000000	17.926673
1640.000000	17.536116
1630.000000	17.284019
1620.000000	16.815709
1610.000000	16.432215
1600.000000	16.113566
1590.000000	16.002995
1580.000000	15.550684
1570.000000	15.363320
1560.000000	15.004331
1550.000000	14.930091
1540.000000	14.348957
1530.000000	14.232293
1520.000000	14.171334
1510.000000	13.908585
1500.000000	13.847326
1490.000000	13.816952
1480.000000	13.821738
1470.000000	14.025038
1460.000000	14.503336
1450.000000	14.944750
1440.000000	15.667400
1430.000000	16.314263
1420.000000	17.881456
1410.000000	19.486159
1400.000000	20.796163
1390.000000	21.553529
1380.000000	21.669769
1370.000000	22.345711
1360.000000	22.572260
1350.000000	22.636906
1340.000000	22.700930
1330.000000	23.532699
1320.000000	23.785115
1310.000000	23.699975
1300.000000	23.491208
1290.000000	23.816280
1280.000000	23.706492
1270.000000	23.470290
1260.000000	23.283574
1250.000000	22.914422
1240.000000	23.026334
1230.000000	23.305228
1220.000000	22.984950
1210.000000	23.050775
1200.000000	23.057634
1190.000000	23.218999
1180.000000	23.288142
1170.000000	23.743384
1160.000000	24.207826
1150.000000	24.425963
1140.000000	24.732039
1130.000000	24.703498
1120.000000	24.746167
1110.000000	24.723893
1100.000000	24.917398
1090.000000	24.883524
1080.000000	24.765983
1070.000000	24.689264
1060.000000	24.773192
1050.000000	24.756882
1040.000000	24.618103
1030.000000	24.444865
1020.000000	24.375395
1010.000000	24.681807
1000.000000	24.778280
990.000000	24.767725
980.000000	24.747160
970.000000	24.994160
960.000000	25.123300
950.000000	25.395631
940.000000	25.261125
930.000000	25.478467
920.000000	24.960770
910.000000	24.984824
900.000000	24.594965
890.000000	24.970371
880.000000	24.740820
870.000000	24.680556
860.000000	25.523498
850.000000	24.533995
840.000000	24.512786
830.000000	24.641506
820.000000	24.741560
810.000000	24.346788
800.000000	24.564412
790.000000	24.636601
780.000000	24.643965
770.000000	24.406412
760.000000	24.499184
750.000000	24.499782
740.000000	24.421293
730.000000	24.451069
720.000000	24.369284
710.000000	24.353690
700.000000	24.343350
690.000000	24.174763
680.000000	24.109036
670.000000	24.101142
660.000000	23.989072
650.000000	24.023180
640.000000	23.744956
630.000000	23.801576
620.000000	23.647580
610.000000	23.590433
600.000000	23.510970
590.000000	23.429475
580.000000	23.256985
570.000000	23.145030
560.000000	23.049931
550.000000	22.829738
540.000000	22.651675
530.000000	22.499409
520.000000	22.321700
510.000000	22.191791
500.000000	21.934985
490.000000	21.705436
480.000000	21.502101
470.000000	21.125936
460.000000	20.809420
450.000000	20.350871
440.000000	19.987767
430.000000	19.397672
420.000000	18.835708
410.000000	18.463015
400.000000	18.601810
390.000000	19.091912
380.000000	19.841560
370.000000	20.762390
360.000000	20.160987
350.000000	21.137974
340.000000	19.964027
330.000000	17.844589
320.000000	16.385165
310.000000	14.687846
300.000000	10.788640
290.000000	9.631905
280.000000	9.455380
270.000000	10.073654
260.000000	12.810788
250.000000	15.483899
