PE UV       SUBTECH     SPECTRUM    ASCII       PEDS        4.00        
   -1
veau_side1_watered.Sample.asc
24/02/16
16:20:52.00
24/02/16
16:20:52.00
Administrator

250.000000
1
Lambda 750
750N8071901
PerkinElmer UV WinLab 6.0.4.0738 / 1.61.00 Lambda 900

0
0
3350/servo 860.8/2
0
0
UV/VIS
1
1
1
CommonBeamDepol,150mm sphere / downward view
0
0
0
0
Program
Program
3350/servo 860.8/2
3350/0.2 860.8/0.2
3350/0.2 860.8/0.2
0
1
 
 
 
0
 
860.8
319.2
860.8
Front
100
on
 
 
0
0
0
 
0
 
 
 
0
 
 
0
0
0
0
0
 
 
 
 
0
0


0
0
#HDR
-1
-1
#GR
nm
%R
1.0
0.0
2500.000000
-10.000000
226
8
29.726127
-2.112199
#DATA
2500.000000	-0.667905
2490.000000	-2.112199
2480.000000	1.172666
2470.000000	4.044497
2460.000000	-1.611317
2450.000000	5.681615
2440.000000	2.840622
2430.000000	5.085486
2420.000000	11.624560
2410.000000	5.858049
2400.000000	4.382519
2390.000000	2.690751
2380.000000	1.502950
2370.000000	4.275668
2360.000000	6.166572
2350.000000	4.118987
2340.000000	5.289068
2330.000000	4.269519
2320.000000	4.473516
2310.000000	5.194479
2300.000000	3.814697
2290.000000	4.230843
2280.000000	5.073623
2270.000000	5.988082
2260.000000	3.930042
2250.000000	6.725492
2240.000000	6.683126
2230.000000	6.571834
2220.000000	5.762325
2210.000000	5.349348
2200.000000	3.276829
2190.000000	5.209899
2180.000000	8.021039
2170.000000	3.987294
2160.000000	4.845874
2150.000000	7.866054
2140.000000	5.391890
2130.000000	6.413119
2120.000000	6.821070
2110.000000	7.697313
2100.000000	7.687079
2090.000000	6.375053
2080.000000	6.040500
2070.000000	5.883371
2060.000000	5.493225
2050.000000	4.697282
2040.000000	5.643951
2030.000000	6.011391
2020.000000	5.737431
2010.000000	5.403516
2000.000000	4.235361
1990.000000	4.088835
1980.000000	2.766705
1970.000000	2.997945
1960.000000	3.171436
1950.000000	3.350002
1940.000000	3.221209
1930.000000	5.693417
1920.000000	8.760410
1910.000000	11.656080
1900.000000	13.632356
1890.000000	16.483992
1880.000000	17.371162
1870.000000	17.530567
1860.000000	18.353583
1850.000000	17.890725
1840.000000	17.386418
1830.000000	17.721387
1820.000000	17.228055
1810.000000	16.788561
1800.000000	17.078466
1790.000000	16.796698
1780.000000	16.433640
1770.000000	16.494394
1760.000000	15.925242
1750.000000	15.353908
1740.000000	15.936793
1730.000000	16.702335
1720.000000	17.135708
1710.000000	17.823484
1700.000000	17.482372
1690.000000	18.511738
1680.000000	19.513399
1670.000000	19.901648
1660.000000	20.012763
1650.000000	19.745672
1640.000000	19.769469
1630.000000	18.984188
1620.000000	18.471324
1610.000000	18.116520
1600.000000	17.467729
1590.000000	17.335654
1580.000000	16.878589
1570.000000	16.825205
1560.000000	16.347133
1550.000000	16.025314
1540.000000	15.468153
1530.000000	15.163371
1520.000000	15.008734
1510.000000	14.615566
1500.000000	14.693128
1490.000000	14.839867
1480.000000	14.952858
1470.000000	15.269333
1460.000000	15.715521
1450.000000	16.198831
1440.000000	17.245658
1430.000000	18.316360
1420.000000	20.189420
1410.000000	22.250134
1400.000000	23.964593
1390.000000	24.535272
1380.000000	24.863151
1370.000000	25.666224
1360.000000	26.085967
1350.000000	26.269964
1340.000000	26.199675
1330.000000	27.103581
1320.000000	27.510494
1310.000000	27.547029
1300.000000	27.360783
1290.000000	27.235564
1280.000000	27.146107
1270.000000	27.239131
1260.000000	27.109137
1250.000000	27.050347
1240.000000	26.965350
1230.000000	26.792325
1220.000000	26.587002
1210.000000	26.394269
1200.000000	26.417701
1190.000000	26.448639
1180.000000	26.954078
1170.000000	27.531741
1160.000000	28.059926
1150.000000	28.626685
1140.000000	28.947279
1130.000000	28.731435
1120.000000	28.406133
1110.000000	28.534540
1100.000000	28.663403
1090.000000	28.945102
1080.000000	29.047857
1070.000000	29.013551
1060.000000	28.963326
1050.000000	28.908431
1040.000000	28.629622
1030.000000	28.482395
1020.000000	28.678494
1010.000000	29.151146
1000.000000	28.939481
990.000000	28.999325
980.000000	29.175139
970.000000	29.407682
960.000000	29.390396
950.000000	29.726127
940.000000	29.421339
930.000000	29.415023
920.000000	29.300730
910.000000	29.620637
900.000000	29.231944
890.000000	29.623597
880.000000	28.745335
870.000000	28.932176
860.000000	28.932465
850.000000	29.311924
840.000000	28.623244
830.000000	29.208577
820.000000	29.384667
810.000000	29.180525
800.000000	29.027396
790.000000	29.023053
780.000000	29.226006
770.000000	29.169349
760.000000	29.165606
750.000000	29.129839
740.000000	29.305302
730.000000	29.253354
720.000000	29.068505
710.000000	29.123968
700.000000	29.034517
690.000000	29.056782
680.000000	29.058556
670.000000	28.890419
660.000000	28.841021
650.000000	28.875013
640.000000	28.568090
630.000000	28.673672
620.000000	28.579563
610.000000	28.363072
600.000000	28.310813
590.000000	28.184058
580.000000	28.065736
570.000000	27.889908
560.000000	27.782258
550.000000	27.504585
540.000000	27.355931
530.000000	27.013722
520.000000	26.855028
510.000000	26.433968
500.000000	26.094913
490.000000	25.704076
480.000000	25.278931
470.000000	24.726565
460.000000	24.260523
450.000000	23.372813
440.000000	22.696492
430.000000	21.823316
420.000000	20.934640
410.000000	19.814843
400.000000	18.659806
390.000000	17.772059
380.000000	16.708650
370.000000	15.374929
360.000000	14.620941
350.000000	13.256060
340.000000	12.491192
330.000000	11.771867
320.000000	10.589197
310.000000	13.153640
300.000000	7.310246
290.000000	5.957540
280.000000	5.598389
270.000000	6.321828
260.000000	6.807691
250.000000	6.869895
