PE UV       SUBTECH     SPECTRUM    ASCII       PEDS        4.00        
   -1
18-1G-XXX-NR007-C001.Sample.asc
24/01/19
17:55:37.00
24/01/19
17:55:37.00
Administrator

250.000000
1
Lambda 750
750N8071901
PerkinElmer UV WinLab 6.0.4.0738 / 1.61.00 Lambda 900

0
0
3350/servo 860.8/2
0
0
UV/VIS
1
1
1
CommonBeamDepol,150mm sphere / downward view
0
0
0
0
Program
Program
3350/servo 860.8/2
3350/0.2 860.8/0.2
3350/0.2 860.8/0.2
0
1
 
 
 
0
 
860.8
319.2
860.8
Front
100
on
 
 
0
0
0
 
0
 
 
 
0
 
 
0
0
0
0
0
 
 
 
 
0
0


0
0
#HDR
-1
-1
#GR
nm
%R
1.0
0.0
2500.000000
-10.000000
226
8
66.514372
11.143500
#DATA
2500.000000	12.482787
2490.000000	11.143500
2480.000000	17.719562
2470.000000	15.911915
2460.000000	16.986636
2450.000000	15.531891
2440.000000	19.089813
2430.000000	20.212692
2420.000000	18.332989
2410.000000	19.232155
2400.000000	20.888794
2390.000000	18.344470
2380.000000	17.306361
2370.000000	18.676838
2360.000000	20.731157
2350.000000	20.424253
2340.000000	19.925088
2330.000000	20.002129
2320.000000	18.875484
2310.000000	19.159948
2300.000000	17.257187
2290.000000	18.741932
2280.000000	18.390874
2270.000000	20.053187
2260.000000	21.829939
2250.000000	23.308617
2240.000000	23.150782
2230.000000	22.788029
2220.000000	22.455598
2210.000000	22.138986
2200.000000	21.042634
2190.000000	21.141144
2180.000000	21.890889
2170.000000	23.582157
2160.000000	24.141873
2150.000000	25.233981
2140.000000	26.973562
2130.000000	27.063034
2120.000000	27.415349
2110.000000	26.912932
2100.000000	27.215662
2090.000000	25.934456
2080.000000	24.603738
2070.000000	23.565218
2060.000000	22.796160
2050.000000	23.220261
2040.000000	24.044567
2030.000000	24.629257
2020.000000	23.858933
2010.000000	22.695849
2000.000000	21.775127
1990.000000	20.919705
1980.000000	19.871474
1970.000000	19.669997
1960.000000	19.225538
1950.000000	20.211252
1940.000000	21.987580
1930.000000	25.374736
1920.000000	29.876052
1910.000000	35.565965
1900.000000	40.783613
1890.000000	44.720963
1880.000000	46.390736
1870.000000	47.435517
1860.000000	47.112548
1850.000000	46.893700
1840.000000	46.357997
1830.000000	45.989513
1820.000000	45.528361
1810.000000	45.104708
1800.000000	44.601602
1790.000000	44.154915
1780.000000	43.572434
1770.000000	42.810494
1760.000000	42.232273
1750.000000	41.650294
1740.000000	42.092933
1730.000000	43.268354
1720.000000	44.034670
1710.000000	44.290313
1700.000000	45.735132
1690.000000	48.016833
1680.000000	49.970434
1670.000000	50.738995
1660.000000	50.817779
1650.000000	50.432035
1640.000000	49.813516
1630.000000	48.990046
1620.000000	48.114889
1610.000000	47.221773
1600.000000	46.510185
1590.000000	45.848018
1580.000000	45.314469
1570.000000	45.026898
1560.000000	44.376296
1550.000000	43.276588
1540.000000	42.251348
1530.000000	41.667048
1520.000000	41.298092
1510.000000	41.244447
1500.000000	41.692791
1490.000000	42.369808
1480.000000	43.014971
1470.000000	43.780523
1460.000000	44.587137
1450.000000	46.000230
1440.000000	47.672517
1430.000000	49.960007
1420.000000	52.591918
1410.000000	55.250389
1400.000000	57.339120
1390.000000	58.601782
1380.000000	59.430660
1370.000000	60.263732
1360.000000	61.230062
1350.000000	62.317479
1340.000000	63.017197
1330.000000	63.452420
1320.000000	63.441969
1310.000000	63.237936
1300.000000	62.961674
1290.000000	63.006735
1280.000000	63.086927
1270.000000	63.254796
1260.000000	63.260473
1250.000000	63.034645
1240.000000	62.807021
1230.000000	62.331726
1220.000000	61.795240
1210.000000	61.291117
1200.000000	61.113230
1190.000000	61.546190
1180.000000	62.547262
1170.000000	63.556693
1160.000000	64.332227
1150.000000	64.940825
1140.000000	65.285237
1130.000000	65.470750
1120.000000	65.507776
1110.000000	65.645888
1100.000000	65.673292
1090.000000	65.523660
1080.000000	65.481897
1070.000000	65.343853
1060.000000	65.287877
1050.000000	65.209077
1040.000000	65.176510
1030.000000	65.094069
1020.000000	65.170014
1010.000000	65.324391
1000.000000	65.439447
990.000000	65.491051
980.000000	65.728298
970.000000	65.798033
960.000000	65.910794
950.000000	65.984278
940.000000	65.887889
930.000000	65.991907
920.000000	66.046573
910.000000	66.198439
900.000000	66.206808
890.000000	66.405525
880.000000	66.486180
870.000000	66.466865
860.000000	66.514372
850.000000	65.712628
840.000000	65.612695
830.000000	65.845128
820.000000	65.797928
810.000000	65.782259
800.000000	65.681287
790.000000	65.779103
780.000000	65.935227
770.000000	65.599506
760.000000	65.515280
750.000000	65.742809
740.000000	65.648936
730.000000	65.472216
720.000000	65.628049
710.000000	65.498938
700.000000	65.420857
690.000000	65.255289
680.000000	65.104517
670.000000	65.034390
660.000000	64.866364
650.000000	64.665481
640.000000	64.491688
630.000000	64.307659
620.000000	64.041793
610.000000	63.872582
600.000000	63.645544
590.000000	63.292355
580.000000	62.896701
570.000000	62.696163
560.000000	62.339440
550.000000	61.875786
540.000000	61.543100
530.000000	60.984004
520.000000	60.505879
510.000000	59.898955
500.000000	59.194719
490.000000	58.341181
480.000000	57.555160
470.000000	56.523233
460.000000	55.551708
450.000000	54.301354
440.000000	52.743089
430.000000	51.133445
420.000000	49.356050
410.000000	47.729938
400.000000	45.974979
390.000000	44.272230
380.000000	42.266516
370.000000	39.994617
360.000000	37.831995
350.000000	36.183339
340.000000	34.027279
330.000000	31.779117
320.000000	29.640109
310.000000	28.331809
300.000000	26.215098
290.000000	20.539404
280.000000	17.929502
270.000000	18.787504
260.000000	20.480893
250.000000	19.769698
