PE UV       SUBTECH     SPECTRUM    ASCII       PEDS        4.00        
   -1
18-5S-XXX-NR007-F001.Sample.asc
24/01/19
18:25:42.00
24/01/19
18:25:42.00
Administrator

250.000000
1
Lambda 750
750N8071901
PerkinElmer UV WinLab 6.0.4.0738 / 1.61.00 Lambda 900

0
0
3350/servo 860.8/2
0
0
UV/VIS
1
1
1
CommonBeamDepol,150mm sphere / downward view
0
0
0
0
Program
Program
3350/servo 860.8/2
3350/0.2 860.8/0.2
3350/0.2 860.8/0.2
0
1
 
 
 
0
 
860.8
319.2
860.8
Front
100
on
 
 
0
0
0
 
0
 
 
 
0
 
 
0
0
0
0
0
 
 
 
 
0
0


0
0
#HDR
-1
-1
#GR
nm
%R
1.0
0.0
2500.000000
-10.000000
226
8
66.659624
16.591047
#DATA
2500.000000	34.690796
2490.000000	33.613732
2480.000000	35.377388
2470.000000	35.365509
2460.000000	34.540795
2450.000000	35.958122
2440.000000	38.421808
2430.000000	37.368207
2420.000000	36.737046
2410.000000	40.025314
2400.000000	40.623503
2390.000000	37.584770
2380.000000	37.766578
2370.000000	38.534387
2360.000000	39.405278
2350.000000	38.956641
2340.000000	39.252693
2330.000000	38.752777
2320.000000	37.717557
2310.000000	37.191292
2300.000000	35.676713
2290.000000	36.734827
2280.000000	37.506382
2270.000000	39.520172
2260.000000	41.361298
2250.000000	42.850907
2240.000000	42.520844
2230.000000	42.535342
2220.000000	41.682307
2210.000000	41.145056
2200.000000	40.479095
2190.000000	40.587909
2180.000000	41.089739
2170.000000	42.779266
2160.000000	44.247217
2150.000000	44.864138
2140.000000	46.448241
2130.000000	46.664182
2120.000000	46.476535
2110.000000	46.452371
2100.000000	46.229362
2090.000000	45.382659
2080.000000	44.004713
2070.000000	42.631710
2060.000000	42.136563
2050.000000	42.444752
2040.000000	43.277891
2030.000000	43.552734
2020.000000	42.747572
2010.000000	41.698004
2000.000000	40.925166
1990.000000	39.655431
1980.000000	38.387168
1970.000000	37.804848
1960.000000	37.090158
1950.000000	37.987124
1940.000000	40.067860
1930.000000	43.505386
1920.000000	47.216047
1910.000000	51.132310
1900.000000	54.807883
1890.000000	56.923289
1880.000000	58.053413
1870.000000	58.557731
1860.000000	58.382811
1850.000000	58.301077
1840.000000	58.069599
1830.000000	57.922034
1820.000000	57.600772
1810.000000	57.341991
1800.000000	57.064252
1790.000000	56.683504
1780.000000	56.335115
1770.000000	55.891207
1760.000000	55.669051
1750.000000	55.367475
1740.000000	55.602688
1730.000000	56.317149
1720.000000	56.763446
1710.000000	57.003473
1700.000000	57.743268
1690.000000	58.806968
1680.000000	59.780698
1670.000000	60.151496
1660.000000	60.274224
1650.000000	60.059044
1640.000000	59.827027
1630.000000	59.453751
1620.000000	58.946266
1610.000000	58.577496
1600.000000	58.151891
1590.000000	57.823307
1580.000000	57.584563
1570.000000	57.487683
1560.000000	57.098182
1550.000000	56.537432
1540.000000	55.954423
1530.000000	55.662771
1520.000000	55.360937
1510.000000	55.323200
1500.000000	55.554839
1490.000000	55.965755
1480.000000	56.323550
1470.000000	56.776273
1460.000000	57.150825
1450.000000	57.809916
1440.000000	58.699254
1430.000000	59.639206
1420.000000	60.897559
1410.000000	62.156287
1400.000000	63.074130
1390.000000	63.628957
1380.000000	63.915907
1370.000000	64.319655
1360.000000	64.707843
1350.000000	65.070107
1340.000000	65.351237
1330.000000	65.457122
1320.000000	65.354233
1310.000000	65.141905
1300.000000	65.054894
1290.000000	65.182154
1280.000000	65.199986
1270.000000	65.292379
1260.000000	65.275931
1250.000000	65.306786
1240.000000	65.122647
1230.000000	64.915595
1220.000000	64.797562
1210.000000	64.598722
1200.000000	64.564173
1190.000000	64.750584
1180.000000	65.038514
1170.000000	65.448862
1160.000000	65.686048
1150.000000	65.889852
1140.000000	65.960086
1130.000000	65.994217
1120.000000	66.034137
1110.000000	66.017965
1100.000000	66.062905
1090.000000	66.022384
1080.000000	65.964342
1070.000000	65.976363
1060.000000	65.891076
1050.000000	65.942147
1040.000000	65.839376
1030.000000	65.758376
1020.000000	65.740430
1010.000000	65.845394
1000.000000	65.893016
990.000000	65.915069
980.000000	66.026003
970.000000	66.056777
960.000000	66.168844
950.000000	66.107148
940.000000	66.211971
930.000000	66.185826
920.000000	66.211539
910.000000	66.346018
900.000000	66.501550
890.000000	66.423885
880.000000	66.176432
870.000000	66.659624
860.000000	66.576685
850.000000	66.268174
840.000000	66.121284
830.000000	66.046931
820.000000	66.089319
810.000000	66.016744
800.000000	66.357068
790.000000	65.900857
780.000000	66.242512
770.000000	66.147478
760.000000	66.088248
750.000000	66.166911
740.000000	66.124176
730.000000	66.042699
720.000000	66.253971
710.000000	66.420990
700.000000	66.151582
690.000000	66.128203
680.000000	66.082627
670.000000	66.068247
660.000000	66.140879
650.000000	66.177868
640.000000	66.156184
630.000000	66.049484
620.000000	65.984825
610.000000	66.106882
600.000000	66.007789
590.000000	65.997460
580.000000	65.783321
570.000000	65.740724
560.000000	65.584734
550.000000	65.492398
540.000000	65.455853
530.000000	65.259983
520.000000	65.084360
510.000000	64.900744
500.000000	64.665104
490.000000	64.384904
480.000000	64.157825
470.000000	63.730376
460.000000	63.436837
450.000000	62.936202
440.000000	62.137104
430.000000	61.230359
420.000000	60.129377
410.000000	58.700831
400.000000	56.823790
390.000000	54.912132
380.000000	52.515717
370.000000	49.717515
360.000000	46.568084
350.000000	43.364911
340.000000	40.146704
330.000000	35.731051
320.000000	30.432123
310.000000	27.189964
300.000000	24.725235
290.000000	19.800945
280.000000	16.591047
270.000000	16.846944
260.000000	17.508221
250.000000	16.621661
