PE UV       SUBTECH     SPECTRUM    ASCII       PEDS        4.00        
   -1
18-5S-XXX-NR008-F001.Sample.asc
24/01/19
18:31:24.00
24/01/19
18:31:24.00
Administrator

250.000000
1
Lambda 750
750N8071901
PerkinElmer UV WinLab 6.0.4.0738 / 1.61.00 Lambda 900

0
0
3350/servo 860.8/2
0
0
UV/VIS
1
1
1
CommonBeamDepol,150mm sphere / downward view
0
0
0
0
Program
Program
3350/servo 860.8/2
3350/0.2 860.8/0.2
3350/0.2 860.8/0.2
0
1
 
 
 
0
 
860.8
319.2
860.8
Front
100
on
 
 
0
0
0
 
0
 
 
 
0
 
 
0
0
0
0
0
 
 
 
 
0
0


0
0
#HDR
-1
-1
#GR
nm
%R
1.0
0.0
2500.000000
-10.000000
226
8
65.179235
12.450448
#DATA
2500.000000	31.071439
2490.000000	31.536936
2480.000000	34.446475
2470.000000	33.177912
2460.000000	33.552441
2450.000000	33.219212
2440.000000	36.614780
2430.000000	37.008377
2420.000000	35.522944
2410.000000	37.579454
2400.000000	36.380315
2390.000000	37.330910
2380.000000	36.351906
2370.000000	36.968851
2360.000000	37.799056
2350.000000	37.499760
2340.000000	36.311613
2330.000000	35.352276
2320.000000	35.039095
2310.000000	34.799760
2300.000000	34.487005
2290.000000	35.789445
2280.000000	35.863879
2270.000000	36.782469
2260.000000	39.536889
2250.000000	40.823976
2240.000000	40.944635
2230.000000	40.897655
2220.000000	40.284300
2210.000000	39.528557
2200.000000	38.379199
2190.000000	38.911388
2180.000000	39.435143
2170.000000	41.084499
2160.000000	42.573700
2150.000000	43.009741
2140.000000	44.047477
2130.000000	44.658965
2120.000000	44.797740
2110.000000	44.553556
2100.000000	44.421596
2090.000000	43.426066
2080.000000	42.460483
2070.000000	40.798565
2060.000000	40.260689
2050.000000	40.557770
2040.000000	41.310788
2030.000000	41.902216
2020.000000	41.207603
2010.000000	40.181890
2000.000000	39.040943
1990.000000	37.722211
1980.000000	36.575726
1970.000000	35.840310
1960.000000	35.398383
1950.000000	36.450125
1940.000000	38.179080
1930.000000	41.486087
1920.000000	45.229949
1910.000000	49.188760
1900.000000	52.539171
1890.000000	54.622957
1880.000000	55.517884
1870.000000	56.313572
1860.000000	56.123995
1850.000000	56.040088
1840.000000	55.776471
1830.000000	55.581602
1820.000000	55.436156
1810.000000	55.071565
1800.000000	54.864133
1790.000000	54.553855
1780.000000	54.246681
1770.000000	53.864090
1760.000000	53.631002
1750.000000	53.176807
1740.000000	53.382173
1730.000000	54.207871
1720.000000	54.635499
1710.000000	54.889396
1700.000000	55.604958
1690.000000	56.540646
1680.000000	57.533137
1670.000000	57.860707
1660.000000	58.039222
1650.000000	57.865408
1640.000000	57.620230
1630.000000	57.369912
1620.000000	56.837128
1610.000000	56.519630
1600.000000	56.133168
1590.000000	55.777989
1580.000000	55.620128
1570.000000	55.491650
1560.000000	55.135354
1550.000000	54.652868
1540.000000	54.126325
1530.000000	53.778633
1520.000000	53.598341
1510.000000	53.515991
1500.000000	53.718493
1490.000000	54.109515
1480.000000	54.450881
1470.000000	54.832183
1460.000000	55.272882
1450.000000	55.920924
1440.000000	56.671690
1430.000000	57.656601
1420.000000	58.757509
1410.000000	59.902744
1400.000000	60.836515
1390.000000	61.398647
1380.000000	61.647519
1370.000000	61.991744
1360.000000	62.427274
1350.000000	62.887970
1340.000000	63.180019
1330.000000	63.342219
1320.000000	63.176690
1310.000000	62.960026
1300.000000	62.804213
1290.000000	62.865457
1280.000000	62.935724
1270.000000	63.113855
1260.000000	63.083121
1250.000000	63.119834
1240.000000	62.984113
1230.000000	62.751608
1220.000000	62.603547
1210.000000	62.500603
1200.000000	62.501612
1190.000000	62.700191
1180.000000	62.925361
1170.000000	63.295640
1160.000000	63.559828
1150.000000	63.697180
1140.000000	63.777670
1130.000000	63.900351
1120.000000	64.025902
1110.000000	64.104202
1100.000000	64.192286
1090.000000	64.072780
1080.000000	63.946225
1070.000000	63.963593
1060.000000	63.923728
1050.000000	63.965785
1040.000000	63.900415
1030.000000	63.851689
1020.000000	63.889162
1010.000000	64.027034
1000.000000	64.112089
990.000000	64.109040
980.000000	64.282990
970.000000	64.360400
960.000000	64.380857
950.000000	64.422824
940.000000	64.488430
930.000000	64.595886
920.000000	64.549855
910.000000	64.671345
900.000000	64.980895
890.000000	64.652665
880.000000	64.966643
870.000000	65.033994
860.000000	64.828157
850.000000	64.648251
840.000000	64.702432
830.000000	64.764975
820.000000	64.903014
810.000000	64.577571
800.000000	64.624990
790.000000	64.497453
780.000000	64.885401
770.000000	64.873562
760.000000	64.751073
750.000000	64.916848
740.000000	64.873346
730.000000	64.857303
720.000000	65.075241
710.000000	65.179235
700.000000	65.042975
690.000000	65.160401
680.000000	65.170422
670.000000	65.162695
660.000000	65.049861
650.000000	65.140226
640.000000	65.140581
630.000000	65.065784
620.000000	65.006807
610.000000	64.991388
600.000000	65.017564
590.000000	64.972822
580.000000	64.930203
570.000000	64.803489
560.000000	64.767475
550.000000	64.588876
540.000000	64.488514
530.000000	64.339598
520.000000	64.189846
510.000000	63.990158
500.000000	63.778792
490.000000	63.570647
480.000000	63.265865
470.000000	62.836177
460.000000	62.420114
450.000000	61.912189
440.000000	60.972726
430.000000	60.152830
420.000000	59.019211
410.000000	57.241687
400.000000	55.308383
390.000000	53.053319
380.000000	50.566345
370.000000	47.240919
360.000000	43.302419
350.000000	40.013904
340.000000	36.035489
330.000000	31.654629
320.000000	26.454356
310.000000	22.698431
300.000000	18.890264
290.000000	14.916695
280.000000	12.450448
270.000000	12.942133
260.000000	13.557188
250.000000	12.511904
