PE UV       SUBTECH     SPECTRUM    ASCII       PEDS        4.00        
   -1
TTgAgneauUK 22.Sample.asc
18/03/08
11:10:50.00
18/03/08
11:10:50.00
Administrator

200.000000
1
Lambda 750
750N8071901
PerkinElmer UV WinLab 6.0.4.0738 / 1.61.00 Lambda 900

0
0
3350/servo 860.8/2
0
0
UV/VIS
1
1
1
CommonBeamDepol,150mm sphere / downward view
0
0
0
0
Program
Program
3350/servo 860.8/2
3350/0.2 860.8/0.2
3350/0.2 860.8/0.2
0
1
 
 
 
0
 
860.8
319.2
860.8
Front
100
on
 
 
0
0
0
 
0
 
 
 
0
 
 
0
0
0
0
0
 
 
 
 
0
0


0
0
#HDR
-1
-1
#GR
nm
%T
1.0
0.0
2350.000000
-1.000000
2151
8
30.751769
0.069081
#DATA
2350.000000	10.510167
2349.000000	10.635130
2348.000000	10.447856
2347.000000	11.315505
2346.000000	10.587392
2345.000000	10.467153
2344.000000	10.416356
2343.000000	9.737862
2342.000000	10.381924
2341.000000	10.699963
2340.000000	10.622919
2339.000000	10.720144
2338.000000	10.843902
2337.000000	10.704092
2336.000000	10.837618
2335.000000	11.157553
2334.000000	11.064134
2333.000000	11.050808
2332.000000	11.231538
2331.000000	11.224696
2330.000000	11.045706
2329.000000	11.190855
2328.000000	11.129935
2327.000000	10.969950
2326.000000	11.095411
2325.000000	11.302386
2324.000000	11.084206
2323.000000	10.907470
2322.000000	11.032379
2321.000000	10.815884
2320.000000	10.686224
2319.000000	10.794641
2318.000000	10.616397
2317.000000	10.694663
2316.000000	10.830150
2315.000000	10.608776
2314.000000	10.557282
2313.000000	10.616058
2312.000000	10.404321
2311.000000	10.360109
2310.000000	10.521935
2309.000000	10.384272
2308.000000	10.309536
2307.000000	10.535952
2306.000000	10.446275
2305.000000	10.268360
2304.000000	10.299316
2303.000000	10.307195
2302.000000	10.136058
2301.000000	10.115927
2300.000000	9.868245
2299.000000	10.003134
2298.000000	9.918030
2297.000000	9.835397
2296.000000	9.851189
2295.000000	9.767731
2294.000000	9.713071
2293.000000	9.532086
2292.000000	9.488982
2291.000000	9.530980
2290.000000	9.523182
2289.000000	9.592338
2288.000000	9.663054
2287.000000	9.620737
2286.000000	9.466451
2285.000000	9.506414
2284.000000	9.636968
2283.000000	9.531097
2282.000000	9.407608
2281.000000	9.494352
2280.000000	9.421445
2279.000000	9.391786
2278.000000	9.356205
2277.000000	9.409369
2276.000000	9.357217
2275.000000	9.626920
2274.000000	9.679551
2273.000000	9.678831
2272.000000	9.832536
2271.000000	9.795074
2270.000000	9.635498
2269.000000	9.604837
2268.000000	9.597597
2267.000000	9.686134
2266.000000	9.767096
2265.000000	9.917520
2264.000000	10.052353
2263.000000	10.023126
2262.000000	10.023047
2261.000000	10.134888
2260.000000	10.323939
2259.000000	10.433526
2258.000000	10.530056
2257.000000	10.641872
2256.000000	10.649564
2255.000000	10.758032
2254.000000	10.854646
2253.000000	10.898743
2252.000000	10.982438
2251.000000	11.176441
2250.000000	11.347162
2249.000000	11.404766
2248.000000	11.551032
2247.000000	11.849212
2246.000000	11.942461
2245.000000	11.945774
2244.000000	12.085054
2243.000000	12.230531
2242.000000	12.304030
2241.000000	12.376088
2240.000000	12.455127
2239.000000	12.537679
2238.000000	12.515633
2237.000000	12.515271
2236.000000	12.599179
2235.000000	12.810510
2234.000000	12.957932
2233.000000	12.905037
2232.000000	12.888244
2231.000000	12.943076
2230.000000	12.975509
2229.000000	12.912190
2228.000000	12.976259
2227.000000	13.045045
2226.000000	12.947587
2225.000000	13.034542
2224.000000	13.059248
2223.000000	12.938755
2222.000000	12.958776
2221.000000	12.955929
2220.000000	12.966528
2219.000000	13.018216
2218.000000	12.879687
2217.000000	12.800592
2216.000000	12.824374
2215.000000	12.768945
2214.000000	12.731631
2213.000000	12.792408
2212.000000	12.867935
2211.000000	12.648994
2210.000000	12.609381
2209.000000	12.662659
2208.000000	12.658478
2207.000000	12.485368
2206.000000	12.295364
2205.000000	12.328774
2204.000000	12.449583
2203.000000	12.302800
2202.000000	12.222425
2201.000000	12.189266
2200.000000	12.127959
2199.000000	12.161794
2198.000000	12.072988
2197.000000	12.054400
2196.000000	11.939302
2195.000000	11.945565
2194.000000	11.974237
2193.000000	11.920776
2192.000000	11.900972
2191.000000	11.724526
2190.000000	11.732661
2189.000000	11.721643
2188.000000	11.688374
2187.000000	11.564598
2186.000000	11.607836
2185.000000	11.574141
2184.000000	11.609421
2183.000000	11.493479
2182.000000	11.304957
2181.000000	11.317740
2180.000000	11.290496
2179.000000	11.397044
2178.000000	11.371814
2177.000000	11.341688
2176.000000	11.304239
2175.000000	11.250690
2174.000000	11.228211
2173.000000	11.279484
2172.000000	11.371315
2171.000000	11.282135
2170.000000	11.341219
2169.000000	11.570396
2168.000000	11.630665
2167.000000	11.654731
2166.000000	11.524212
2165.000000	11.649874
2164.000000	11.546603
2163.000000	11.753218
2162.000000	11.913861
2161.000000	11.748827
2160.000000	12.085429
2159.000000	11.986030
2158.000000	12.115540
2157.000000	12.137476
2156.000000	12.346350
2155.000000	12.338822
2154.000000	12.583966
2153.000000	12.651632
2152.000000	12.584690
2151.000000	12.602657
2150.000000	12.829675
2149.000000	12.831315
2148.000000	12.868242
2147.000000	13.034144
2146.000000	12.796851
2145.000000	13.160081
2144.000000	13.238121
2143.000000	13.227282
2142.000000	13.454996
2141.000000	13.623207
2140.000000	13.586718
2139.000000	13.517694
2138.000000	13.611664
2137.000000	13.795515
2136.000000	13.810038
2135.000000	13.874799
2134.000000	13.760014
2133.000000	13.871816
2132.000000	14.193680
2131.000000	14.058811
2130.000000	14.327289
2129.000000	13.929086
2128.000000	13.934695
2127.000000	14.145754
2126.000000	14.107177
2125.000000	14.132973
2124.000000	14.241047
2123.000000	14.339431
2122.000000	14.233017
2121.000000	14.400601
2120.000000	14.436412
2119.000000	14.441969
2118.000000	14.444444
2117.000000	14.293153
2116.000000	14.461516
2115.000000	14.451739
2114.000000	14.500908
2113.000000	14.549896
2112.000000	14.461527
2111.000000	14.544902
2110.000000	14.547665
2109.000000	14.482351
2108.000000	14.587980
2107.000000	14.529597
2106.000000	14.535003
2105.000000	14.550591
2104.000000	14.425526
2103.000000	14.524893
2102.000000	14.599199
2101.000000	14.663941
2100.000000	14.685834
2099.000000	14.713407
2098.000000	14.571496
2097.000000	14.569833
2096.000000	14.532573
2095.000000	14.552337
2094.000000	14.575149
2093.000000	14.564785
2092.000000	14.579789
2091.000000	14.562340
2090.000000	14.505622
2089.000000	14.524125
2088.000000	14.524937
2087.000000	14.436124
2086.000000	14.429079
2085.000000	14.488219
2084.000000	14.482265
2083.000000	14.408987
2082.000000	14.320258
2081.000000	14.215314
2080.000000	14.237832
2079.000000	14.178459
2078.000000	14.111913
2077.000000	14.071686
2076.000000	13.977281
2075.000000	13.997604
2074.000000	13.912085
2073.000000	13.868545
2072.000000	13.746060
2071.000000	13.642413
2070.000000	13.650843
2069.000000	13.580793
2068.000000	13.460119
2067.000000	13.356624
2066.000000	13.208028
2065.000000	13.081319
2064.000000	13.075381
2063.000000	13.002683
2062.000000	12.922211
2061.000000	12.789349
2060.000000	12.682953
2059.000000	12.594640
2058.000000	12.488571
2057.000000	12.407808
2056.000000	12.321321
2055.000000	12.245739
2054.000000	12.161554
2053.000000	12.038938
2052.000000	11.962139
2051.000000	11.949544
2050.000000	11.882503
2049.000000	11.768849
2048.000000	11.755962
2047.000000	11.682291
2046.000000	11.585271
2045.000000	11.557852
2044.000000	11.556635
2043.000000	11.575047
2042.000000	11.543086
2041.000000	11.572718
2040.000000	11.641787
2039.000000	11.659687
2038.000000	11.677594
2037.000000	11.644114
2036.000000	11.696022
2035.000000	11.812084
2034.000000	11.868657
2033.000000	11.930183
2032.000000	12.005514
2031.000000	12.025673
2030.000000	12.080206
2029.000000	12.183246
2028.000000	12.280301
2027.000000	12.354302
2026.000000	12.408909
2025.000000	12.447490
2024.000000	12.497883
2023.000000	12.514710
2022.000000	12.558615
2021.000000	12.624402
2020.000000	12.674570
2019.000000	12.678296
2018.000000	12.688473
2017.000000	12.748212
2016.000000	12.759384
2015.000000	12.723906
2014.000000	12.722628
2013.000000	12.719008
2012.000000	12.692492
2011.000000	12.712900
2010.000000	12.709837
2009.000000	12.668008
2008.000000	12.610662
2007.000000	12.538926
2006.000000	12.524298
2005.000000	12.464741
2004.000000	12.389486
2003.000000	12.340486
2002.000000	12.264573
2001.000000	12.250679
2000.000000	12.188896
1999.000000	12.107251
1998.000000	12.035095
1997.000000	11.981692
1996.000000	11.974072
1995.000000	11.906722
1994.000000	11.841199
1993.000000	11.793700
1992.000000	11.689251
1991.000000	11.617397
1990.000000	11.571828
1989.000000	11.509897
1988.000000	11.448441
1987.000000	11.390840
1986.000000	11.327932
1985.000000	11.294304
1984.000000	11.250177
1983.000000	11.140393
1982.000000	11.072677
1981.000000	11.049693
1980.000000	10.970791
1979.000000	10.887268
1978.000000	10.841981
1977.000000	10.783850
1976.000000	10.706620
1975.000000	10.652444
1974.000000	10.568629
1973.000000	10.587068
1972.000000	10.515951
1971.000000	10.416446
1970.000000	10.350595
1969.000000	10.277133
1968.000000	10.259363
1967.000000	10.209426
1966.000000	10.150938
1965.000000	10.071077
1964.000000	10.024089
1963.000000	9.987062
1962.000000	9.920923
1961.000000	9.863624
1960.000000	9.827741
1959.000000	9.730196
1958.000000	9.671287
1957.000000	9.672072
1956.000000	9.643868
1955.000000	9.590028
1954.000000	9.531460
1953.000000	9.525822
1952.000000	9.441321
1951.000000	9.444157
1950.000000	9.444268
1949.000000	9.442869
1948.000000	9.356736
1947.000000	9.348947
1946.000000	9.340235
1945.000000	9.323333
1944.000000	9.421805
1943.000000	9.432661
1942.000000	9.342016
1941.000000	9.376027
1940.000000	9.441234
1939.000000	9.437394
1938.000000	9.511208
1937.000000	9.567054
1936.000000	9.676303
1935.000000	9.713421
1934.000000	9.752963
1933.000000	9.806268
1932.000000	9.794944
1931.000000	9.955317
1930.000000	9.976083
1929.000000	10.126306
1928.000000	10.297611
1927.000000	10.372580
1926.000000	10.497857
1925.000000	10.656309
1924.000000	10.788151
1923.000000	10.904602
1922.000000	11.047696
1921.000000	11.233167
1920.000000	11.440120
1919.000000	11.630531
1918.000000	11.746477
1917.000000	12.001265
1916.000000	12.129228
1915.000000	12.371501
1914.000000	12.632287
1913.000000	12.940838
1912.000000	13.041623
1911.000000	13.298580
1910.000000	13.571795
1909.000000	13.841301
1908.000000	14.084808
1907.000000	14.259994
1906.000000	14.639611
1905.000000	14.915134
1904.000000	15.226896
1903.000000	15.497625
1902.000000	15.832415
1901.000000	16.159727
1900.000000	16.394446
1899.000000	16.739706
1898.000000	17.112079
1897.000000	17.399036
1896.000000	17.700075
1895.000000	18.012069
1894.000000	18.317572
1893.000000	18.603117
1892.000000	18.928631
1891.000000	19.193057
1890.000000	19.490477
1889.000000	19.775085
1888.000000	20.042408
1887.000000	20.271461
1886.000000	20.575252
1885.000000	20.888945
1884.000000	21.110102
1883.000000	21.381673
1882.000000	21.602837
1881.000000	21.884596
1880.000000	21.987998
1879.000000	22.126288
1878.000000	22.363264
1877.000000	22.577006
1876.000000	22.734288
1875.000000	22.910280
1874.000000	23.083148
1873.000000	23.239797
1872.000000	23.323734
1871.000000	23.499818
1870.000000	23.565539
1869.000000	23.646840
1868.000000	23.783112
1867.000000	23.824585
1866.000000	23.912376
1865.000000	23.951160
1864.000000	24.009331
1863.000000	24.052519
1862.000000	24.101857
1861.000000	24.103915
1860.000000	24.123196
1859.000000	24.179486
1858.000000	24.234061
1857.000000	24.238242
1856.000000	24.284320
1855.000000	24.268799
1854.000000	24.330700
1853.000000	24.336414
1852.000000	24.339123
1851.000000	24.363411
1850.000000	24.382909
1849.000000	24.410315
1848.000000	24.386615
1847.000000	24.378694
1846.000000	24.351221
1845.000000	24.364388
1844.000000	24.356189
1843.000000	24.337290
1842.000000	24.312577
1841.000000	24.257609
1840.000000	24.248010
1839.000000	24.262259
1838.000000	24.231549
1837.000000	24.186901
1836.000000	24.163815
1835.000000	24.137064
1834.000000	24.087550
1833.000000	24.047156
1832.000000	24.017043
1831.000000	23.975048
1830.000000	23.959803
1829.000000	23.929680
1828.000000	23.875953
1827.000000	23.878250
1826.000000	23.856485
1825.000000	23.821095
1824.000000	23.812062
1823.000000	23.792216
1822.000000	23.769073
1821.000000	23.737474
1820.000000	23.701545
1819.000000	23.653646
1818.000000	23.641755
1817.000000	23.620974
1816.000000	23.598741
1815.000000	23.597553
1814.000000	23.581783
1813.000000	23.540921
1812.000000	23.507999
1811.000000	23.491456
1810.000000	23.478901
1809.000000	23.469620
1808.000000	23.446494
1807.000000	23.424019
1806.000000	23.404043
1805.000000	23.389210
1804.000000	23.354835
1803.000000	23.321451
1802.000000	23.294152
1801.000000	23.286581
1800.000000	23.284096
1799.000000	23.267180
1798.000000	23.248629
1797.000000	23.240262
1796.000000	23.233648
1795.000000	23.209280
1794.000000	23.203514
1793.000000	23.185643
1792.000000	23.167113
1791.000000	23.167837
1790.000000	23.157594
1789.000000	23.146149
1788.000000	23.128910
1787.000000	23.111244
1786.000000	23.114154
1785.000000	23.112122
1784.000000	23.088295
1783.000000	23.071696
1782.000000	23.052245
1781.000000	23.023955
1780.000000	23.018271
1779.000000	22.996679
1778.000000	22.970790
1777.000000	22.935060
1776.000000	22.898567
1775.000000	22.869026
1774.000000	22.827980
1773.000000	22.789369
1772.000000	22.755712
1771.000000	22.707727
1770.000000	22.691391
1769.000000	22.665639
1768.000000	22.623965
1767.000000	22.598157
1766.000000	22.565878
1765.000000	22.521893
1764.000000	22.475125
1763.000000	22.439474
1762.000000	22.409381
1761.000000	22.379478
1760.000000	22.326412
1759.000000	22.287532
1758.000000	22.267015
1757.000000	22.225025
1756.000000	22.198411
1755.000000	22.166663
1754.000000	22.122901
1753.000000	22.072533
1752.000000	22.059361
1751.000000	22.033847
1750.000000	21.995461
1749.000000	21.975643
1748.000000	21.890000
1747.000000	21.856071
1746.000000	21.847443
1745.000000	21.802284
1744.000000	21.767349
1743.000000	21.759896
1742.000000	21.696295
1741.000000	21.675246
1740.000000	21.628449
1739.000000	21.615235
1738.000000	21.593267
1737.000000	21.561189
1736.000000	21.519568
1735.000000	21.551273
1734.000000	21.549116
1733.000000	21.505993
1732.000000	21.499544
1731.000000	21.510951
1730.000000	21.512016
1729.000000	21.550501
1728.000000	21.584164
1727.000000	21.572764
1726.000000	21.600730
1725.000000	21.667370
1724.000000	21.713592
1723.000000	21.757568
1722.000000	21.788877
1721.000000	21.859566
1720.000000	21.944248
1719.000000	22.017647
1718.000000	22.034200
1717.000000	22.084894
1716.000000	22.142385
1715.000000	22.186166
1714.000000	22.276446
1713.000000	22.331080
1712.000000	22.356228
1711.000000	22.392706
1710.000000	22.442639
1709.000000	22.480973
1708.000000	22.501182
1707.000000	22.521980
1706.000000	22.542710
1705.000000	22.564475
1704.000000	22.603097
1703.000000	22.568938
1702.000000	22.580219
1701.000000	22.592838
1700.000000	22.613434
1699.000000	22.600607
1698.000000	22.649959
1697.000000	22.680586
1696.000000	22.677714
1695.000000	22.667754
1694.000000	22.707789
1693.000000	22.715473
1692.000000	22.758034
1691.000000	22.804671
1690.000000	22.812569
1689.000000	22.890222
1688.000000	22.957863
1687.000000	23.023167
1686.000000	23.091138
1685.000000	23.168395
1684.000000	23.257958
1683.000000	23.345990
1682.000000	23.441015
1681.000000	23.516860
1680.000000	23.616991
1679.000000	23.731178
1678.000000	23.814975
1677.000000	23.921625
1676.000000	24.043297
1675.000000	24.131431
1674.000000	24.224382
1673.000000	24.310296
1672.000000	24.426873
1671.000000	24.507831
1670.000000	24.608072
1669.000000	24.710138
1668.000000	24.762618
1667.000000	24.867224
1666.000000	24.908893
1665.000000	24.953963
1664.000000	25.010188
1663.000000	25.055095
1662.000000	25.110441
1661.000000	25.156767
1660.000000	25.205330
1659.000000	25.226018
1658.000000	25.260183
1657.000000	25.295858
1656.000000	25.324908
1655.000000	25.333656
1654.000000	25.363411
1653.000000	25.363771
1652.000000	25.365383
1651.000000	25.371592
1650.000000	25.362850
1649.000000	25.360497
1648.000000	25.352410
1647.000000	25.341800
1646.000000	25.326616
1645.000000	25.320374
1644.000000	25.314534
1643.000000	25.289368
1642.000000	25.281270
1641.000000	25.250491
1640.000000	25.240694
1639.000000	25.228734
1638.000000	25.207930
1637.000000	25.198353
1636.000000	25.170206
1635.000000	25.147651
1634.000000	25.115369
1633.000000	25.082240
1632.000000	25.075052
1631.000000	25.043064
1630.000000	25.003328
1629.000000	24.992962
1628.000000	24.969183
1627.000000	24.930867
1626.000000	24.891403
1625.000000	24.862015
1624.000000	24.838750
1623.000000	24.816050
1622.000000	24.795903
1621.000000	24.762503
1620.000000	24.732026
1619.000000	24.688211
1618.000000	24.649794
1617.000000	24.627904
1616.000000	24.591020
1615.000000	24.555972
1614.000000	24.529818
1613.000000	24.487872
1612.000000	24.453804
1611.000000	24.424246
1610.000000	24.388031
1609.000000	24.350363
1608.000000	24.306742
1607.000000	24.280792
1606.000000	24.236430
1605.000000	24.186626
1604.000000	24.155967
1603.000000	24.112714
1602.000000	24.068697
1601.000000	24.030138
1600.000000	24.007600
1599.000000	23.970900
1598.000000	23.921787
1597.000000	23.892078
1596.000000	23.863350
1595.000000	23.826445
1594.000000	23.776359
1593.000000	23.748370
1592.000000	23.738943
1591.000000	23.704426
1590.000000	23.668280
1589.000000	23.629347
1588.000000	23.596282
1587.000000	23.574477
1586.000000	23.535794
1585.000000	23.503984
1584.000000	23.483433
1583.000000	23.462747
1582.000000	23.427341
1581.000000	23.395494
1580.000000	23.366606
1579.000000	23.341815
1578.000000	23.318418
1577.000000	23.291814
1576.000000	23.253997
1575.000000	23.219379
1574.000000	23.183122
1573.000000	23.151900
1572.000000	23.140592
1571.000000	23.111801
1570.000000	23.075970
1569.000000	23.043997
1568.000000	23.021565
1567.000000	23.004056
1566.000000	22.973276
1565.000000	22.944540
1564.000000	22.930079
1563.000000	22.923535
1562.000000	22.909681
1561.000000	22.885065
1560.000000	22.858045
1559.000000	22.833612
1558.000000	22.821004
1557.000000	22.818054
1556.000000	22.788096
1555.000000	22.773043
1554.000000	22.743270
1553.000000	22.726996
1552.000000	22.715862
1551.000000	22.686429
1550.000000	22.667360
1549.000000	22.646240
1548.000000	22.606546
1547.000000	22.570054
1546.000000	22.533755
1545.000000	22.491366
1544.000000	22.447469
1543.000000	22.403183
1542.000000	22.352094
1541.000000	22.298853
1540.000000	22.254383
1539.000000	22.195186
1538.000000	22.135051
1537.000000	22.070554
1536.000000	22.014576
1535.000000	21.994328
1534.000000	21.986083
1533.000000	21.986158
1532.000000	21.949991
1531.000000	21.903778
1530.000000	21.820768
1529.000000	21.751053
1528.000000	21.682050
1527.000000	21.636287
1526.000000	21.579906
1525.000000	21.544455
1524.000000	21.502108
1523.000000	21.465796
1522.000000	21.438951
1521.000000	21.400250
1520.000000	21.365451
1519.000000	21.363745
1518.000000	21.314735
1517.000000	21.272823
1516.000000	21.259129
1515.000000	21.250495
1514.000000	21.211047
1513.000000	21.186634
1512.000000	21.159898
1511.000000	21.138874
1510.000000	21.131772
1509.000000	21.119709
1508.000000	21.080220
1507.000000	21.058533
1506.000000	21.049851
1505.000000	21.026109
1504.000000	21.014817
1503.000000	20.992258
1502.000000	20.991916
1501.000000	20.989814
1500.000000	21.002415
1499.000000	21.004151
1498.000000	21.015051
1497.000000	21.003821
1496.000000	20.999708
1495.000000	21.004656
1494.000000	21.001055
1493.000000	21.021281
1492.000000	21.026639
1491.000000	21.054160
1490.000000	21.056309
1489.000000	21.081448
1488.000000	21.077806
1487.000000	21.079768
1486.000000	21.108480
1485.000000	21.152841
1484.000000	21.173891
1483.000000	21.219986
1482.000000	21.254259
1481.000000	21.296469
1480.000000	21.334401
1479.000000	21.378006
1478.000000	21.405674
1477.000000	21.425142
1476.000000	21.463972
1475.000000	21.490696
1474.000000	21.527160
1473.000000	21.552271
1472.000000	21.567435
1471.000000	21.605606
1470.000000	21.626938
1469.000000	21.645455
1468.000000	21.718586
1467.000000	21.760488
1466.000000	21.756295
1465.000000	21.773846
1464.000000	21.794075
1463.000000	21.850228
1462.000000	21.881901
1461.000000	21.896286
1460.000000	21.912398
1459.000000	21.951175
1458.000000	22.002497
1457.000000	22.042082
1456.000000	22.072633
1455.000000	22.086635
1454.000000	22.128382
1453.000000	22.177578
1452.000000	22.217159
1451.000000	22.253200
1450.000000	22.275097
1449.000000	22.321489
1448.000000	22.366559
1447.000000	22.432469
1446.000000	22.484007
1445.000000	22.517714
1444.000000	22.552077
1443.000000	22.618688
1442.000000	22.658571
1441.000000	22.723873
1440.000000	22.804327
1439.000000	22.877737
1438.000000	22.907382
1437.000000	22.961255
1436.000000	23.028850
1435.000000	23.090110
1434.000000	23.163635
1433.000000	23.221589
1432.000000	23.295431
1431.000000	23.369864
1430.000000	23.445514
1429.000000	23.518949
1428.000000	23.609241
1427.000000	23.692286
1426.000000	23.780650
1425.000000	23.887108
1424.000000	23.977713
1423.000000	24.065920
1422.000000	24.160048
1421.000000	24.238313
1420.000000	24.326947
1419.000000	24.450137
1418.000000	24.571458
1417.000000	24.662839
1416.000000	24.765381
1415.000000	24.885077
1414.000000	25.005951
1413.000000	25.102207
1412.000000	25.219453
1411.000000	25.345147
1410.000000	25.454024
1409.000000	25.571368
1408.000000	25.687333
1407.000000	25.818252
1406.000000	25.929895
1405.000000	26.016711
1404.000000	26.119472
1403.000000	26.234386
1402.000000	26.349661
1401.000000	26.459061
1400.000000	26.569820
1399.000000	26.673133
1398.000000	26.764736
1397.000000	26.858606
1396.000000	26.954158
1395.000000	27.043303
1394.000000	27.132793
1393.000000	27.211716
1392.000000	27.289085
1391.000000	27.367977
1390.000000	27.433573
1389.000000	27.503425
1388.000000	27.581393
1387.000000	27.646176
1386.000000	27.693082
1385.000000	27.757824
1384.000000	27.841317
1383.000000	27.913775
1382.000000	27.964041
1381.000000	28.007707
1380.000000	28.054687
1379.000000	28.090432
1378.000000	28.129034
1377.000000	28.181996
1376.000000	28.197734
1375.000000	28.222498
1374.000000	28.250077
1373.000000	28.284030
1372.000000	28.331007
1371.000000	28.344450
1370.000000	28.361744
1369.000000	28.397008
1368.000000	28.417662
1367.000000	28.434798
1366.000000	28.462030
1365.000000	28.498987
1364.000000	28.524728
1363.000000	28.541199
1362.000000	28.566361
1361.000000	28.588991
1360.000000	28.618370
1359.000000	28.650216
1358.000000	28.657939
1357.000000	28.686351
1356.000000	28.725843
1355.000000	28.752315
1354.000000	28.778920
1353.000000	28.780034
1352.000000	28.789687
1351.000000	28.829089
1350.000000	28.880368
1349.000000	28.887989
1348.000000	28.899362
1347.000000	28.935774
1346.000000	28.966055
1345.000000	29.000020
1344.000000	29.014741
1343.000000	29.032925
1342.000000	29.043462
1341.000000	29.074940
1340.000000	29.117247
1339.000000	29.130595
1338.000000	29.138312
1337.000000	29.157301
1336.000000	29.178115
1335.000000	29.204055
1334.000000	29.252042
1333.000000	29.262100
1332.000000	29.275512
1331.000000	29.279433
1330.000000	29.296345
1329.000000	29.316001
1328.000000	29.322018
1327.000000	29.320103
1326.000000	29.354406
1325.000000	29.370247
1324.000000	29.355113
1323.000000	29.352929
1322.000000	29.367790
1321.000000	29.406559
1320.000000	29.425894
1319.000000	29.427346
1318.000000	29.428946
1317.000000	29.395494
1316.000000	29.405813
1315.000000	29.443090
1314.000000	29.474865
1313.000000	29.470475
1312.000000	29.451650
1311.000000	29.456521
1310.000000	29.480714
1309.000000	29.476664
1308.000000	29.457119
1307.000000	29.470561
1306.000000	29.496381
1305.000000	29.498696
1304.000000	29.480304
1303.000000	29.488603
1302.000000	29.480344
1301.000000	29.508001
1300.000000	29.530894
1299.000000	29.522077
1298.000000	29.518890
1297.000000	29.520045
1296.000000	29.510800
1295.000000	29.516201
1294.000000	29.511791
1293.000000	29.506568
1292.000000	29.509695
1291.000000	29.504705
1290.000000	29.493511
1289.000000	29.458781
1288.000000	29.455141
1287.000000	29.471764
1286.000000	29.467932
1285.000000	29.467215
1284.000000	29.468022
1283.000000	29.478587
1282.000000	29.481162
1281.000000	29.475715
1280.000000	29.475102
1279.000000	29.425159
1278.000000	29.420125
1277.000000	29.421702
1276.000000	29.415009
1275.000000	29.429873
1274.000000	29.445907
1273.000000	29.435999
1272.000000	29.432856
1271.000000	29.436556
1270.000000	29.446964
1269.000000	29.469233
1268.000000	29.497067
1267.000000	29.490983
1266.000000	29.489362
1265.000000	29.453145
1264.000000	29.478542
1263.000000	29.468749
1262.000000	29.484835
1261.000000	29.513787
1260.000000	29.493672
1259.000000	29.478508
1258.000000	29.472414
1257.000000	29.464374
1256.000000	29.471342
1255.000000	29.534047
1254.000000	29.522770
1253.000000	29.540187
1252.000000	29.531855
1251.000000	29.525310
1250.000000	29.514257
1249.000000	29.502532
1248.000000	29.497904
1247.000000	29.504443
1246.000000	29.511468
1245.000000	29.509563
1244.000000	29.497158
1243.000000	29.458968
1242.000000	29.444172
1241.000000	29.447716
1240.000000	29.443530
1239.000000	29.445019
1238.000000	29.411979
1237.000000	29.403552
1236.000000	29.416540
1235.000000	29.389989
1234.000000	29.359102
1233.000000	29.350056
1232.000000	29.354371
1231.000000	29.356074
1230.000000	29.319804
1229.000000	29.298034
1228.000000	29.295808
1227.000000	29.308496
1226.000000	29.300271
1225.000000	29.303221
1224.000000	29.314502
1223.000000	29.282951
1222.000000	29.213244
1221.000000	29.212686
1220.000000	29.203869
1219.000000	29.185926
1218.000000	29.191149
1217.000000	29.215559
1216.000000	29.201837
1215.000000	29.179994
1214.000000	29.159529
1213.000000	29.139506
1212.000000	29.144341
1211.000000	29.122358
1210.000000	29.098130
1209.000000	29.076819
1208.000000	29.059808
1207.000000	29.059886
1206.000000	29.035805
1205.000000	29.031418
1204.000000	29.010775
1203.000000	28.982376
1202.000000	28.980788
1201.000000	28.953246
1200.000000	28.925370
1199.000000	28.893208
1198.000000	28.859814
1197.000000	28.856040
1196.000000	28.869518
1195.000000	28.864965
1194.000000	28.836750
1193.000000	28.824342
1192.000000	28.808471
1191.000000	28.790503
1190.000000	28.758112
1189.000000	28.708059
1188.000000	28.706302
1187.000000	28.714765
1186.000000	28.692786
1185.000000	28.689741
1184.000000	28.702664
1183.000000	28.689426
1182.000000	28.706101
1181.000000	28.722368
1180.000000	28.742727
1179.000000	28.768298
1178.000000	28.796913
1177.000000	28.812881
1176.000000	28.826222
1175.000000	28.860270
1174.000000	28.892494
1173.000000	28.915495
1172.000000	28.945152
1171.000000	28.975652
1170.000000	28.996724
1169.000000	29.022004
1168.000000	29.064009
1167.000000	29.089021
1166.000000	29.120484
1165.000000	29.165177
1164.000000	29.201204
1163.000000	29.230506
1162.000000	29.268762
1161.000000	29.303265
1160.000000	29.315586
1159.000000	29.323056
1158.000000	29.364908
1157.000000	29.414149
1156.000000	29.449547
1155.000000	29.482650
1154.000000	29.505708
1153.000000	29.538323
1152.000000	29.583221
1151.000000	29.612242
1150.000000	29.630207
1149.000000	29.650265
1148.000000	29.669026
1147.000000	29.689488
1146.000000	29.731362
1145.000000	29.758477
1144.000000	29.776791
1143.000000	29.779832
1142.000000	29.780487
1141.000000	29.786018
1140.000000	29.803617
1139.000000	29.821509
1138.000000	29.853798
1137.000000	29.881286
1136.000000	29.899600
1135.000000	29.928861
1134.000000	29.956761
1133.000000	29.964647
1132.000000	29.973933
1131.000000	29.995246
1130.000000	30.017678
1129.000000	30.009836
1128.000000	29.997654
1127.000000	30.012572
1126.000000	30.021569
1125.000000	30.031886
1124.000000	30.040220
1123.000000	30.048359
1122.000000	30.065413
1121.000000	30.079292
1120.000000	30.071843
1119.000000	30.073074
1118.000000	30.086978
1117.000000	30.074672
1116.000000	30.081864
1115.000000	30.084966
1114.000000	30.083390
1113.000000	30.089598
1112.000000	30.084762
1111.000000	30.095158
1110.000000	30.092847
1109.000000	30.089347
1108.000000	30.094830
1107.000000	30.102534
1106.000000	30.111934
1105.000000	30.111562
1104.000000	30.096240
1103.000000	30.082986
1102.000000	30.070535
1101.000000	30.065993
1100.000000	30.079076
1099.000000	30.077527
1098.000000	30.088021
1097.000000	30.101942
1096.000000	30.107238
1095.000000	30.104540
1094.000000	30.074515
1093.000000	30.075880
1092.000000	30.075299
1091.000000	30.083394
1090.000000	30.100351
1089.000000	30.095526
1088.000000	30.098974
1087.000000	30.067161
1086.000000	30.061430
1085.000000	30.077905
1084.000000	30.082284
1083.000000	30.077497
1082.000000	30.090046
1081.000000	30.089070
1080.000000	30.058091
1079.000000	30.039199
1078.000000	30.059285
1077.000000	30.060375
1076.000000	30.065337
1075.000000	30.078490
1074.000000	30.053906
1073.000000	30.047913
1072.000000	30.022843
1071.000000	30.020401
1070.000000	30.030293
1069.000000	30.042761
1068.000000	30.056168
1067.000000	30.048727
1066.000000	30.050465
1065.000000	30.020449
1064.000000	30.006723
1063.000000	29.998710
1062.000000	30.017658
1061.000000	30.035094
1060.000000	30.010069
1059.000000	30.021921
1058.000000	29.974816
1057.000000	29.966591
1056.000000	29.985003
1055.000000	29.990834
1054.000000	29.992153
1053.000000	29.965597
1052.000000	29.954144
1051.000000	29.954896
1050.000000	29.970452
1049.000000	29.977295
1048.000000	29.939338
1047.000000	29.955954
1046.000000	29.953614
1045.000000	29.968569
1044.000000	29.962643
1043.000000	29.927769
1042.000000	29.924328
1041.000000	29.948924
1040.000000	29.951216
1039.000000	29.962843
1038.000000	29.928245
1037.000000	29.924518
1036.000000	29.915074
1035.000000	29.926822
1034.000000	29.913028
1033.000000	29.917594
1032.000000	29.928582
1031.000000	29.944260
1030.000000	29.926713
1029.000000	29.922521
1028.000000	29.920629
1027.000000	29.926268
1026.000000	29.911014
1025.000000	29.906842
1024.000000	29.921931
1023.000000	29.922514
1022.000000	29.885821
1021.000000	29.914907
1020.000000	29.936126
1019.000000	29.914624
1018.000000	29.905419
1017.000000	29.917367
1016.000000	29.915823
1015.000000	29.920188
1014.000000	29.927790
1013.000000	29.929681
1012.000000	29.916387
1011.000000	29.931857
1010.000000	29.937408
1009.000000	29.919835
1008.000000	29.935208
1007.000000	29.945725
1006.000000	29.942425
1005.000000	29.944912
1004.000000	29.950962
1003.000000	29.943088
1002.000000	29.941780
1001.000000	29.935597
1000.000000	29.955536
999.000000	29.978797
998.000000	29.986793
997.000000	29.964852
996.000000	29.934020
995.000000	29.959314
994.000000	29.975467
993.000000	29.984875
992.000000	29.961939
991.000000	29.972695
990.000000	29.979880
989.000000	29.991785
988.000000	29.980789
987.000000	29.990994
986.000000	30.001911
985.000000	30.008882
984.000000	30.013416
983.000000	30.019959
982.000000	30.034179
981.000000	30.031818
980.000000	30.058834
979.000000	30.090365
978.000000	30.109651
977.000000	30.116656
976.000000	30.122792
975.000000	30.132041
974.000000	30.132821
973.000000	30.144549
972.000000	30.159379
971.000000	30.174448
970.000000	30.179878
969.000000	30.181287
968.000000	30.184473
967.000000	30.197003
966.000000	30.211024
965.000000	30.213105
964.000000	30.210919
963.000000	30.223795
962.000000	30.222719
961.000000	30.220717
960.000000	30.239213
959.000000	30.253930
958.000000	30.251127
957.000000	30.244897
956.000000	30.242010
955.000000	30.250495
954.000000	30.263113
953.000000	30.270349
952.000000	30.264593
951.000000	30.283674
950.000000	30.299714
949.000000	30.295477
948.000000	30.304551
947.000000	30.311620
946.000000	30.302621
945.000000	30.303036
944.000000	30.302368
943.000000	30.315780
942.000000	30.323447
941.000000	30.317057
940.000000	30.320317
939.000000	30.310883
938.000000	30.289791
937.000000	30.298094
936.000000	30.321874
935.000000	30.331524
934.000000	30.321876
933.000000	30.317640
932.000000	30.311587
931.000000	30.303424
930.000000	30.306401
929.000000	30.322690
928.000000	30.329623
927.000000	30.317853
926.000000	30.322028
925.000000	30.323474
924.000000	30.322257
923.000000	30.300741
922.000000	30.297314
921.000000	30.320903
920.000000	30.309864
919.000000	30.298520
918.000000	30.324835
917.000000	30.323363
916.000000	30.327236
915.000000	30.330316
914.000000	30.321871
913.000000	30.304308
912.000000	30.305137
911.000000	30.326503
910.000000	30.333894
909.000000	30.352843
908.000000	30.334693
907.000000	30.338362
906.000000	30.358150
905.000000	30.330891
904.000000	30.339460
903.000000	30.350412
902.000000	30.386515
901.000000	30.344781
900.000000	30.327674
899.000000	30.345034
898.000000	30.365107
897.000000	30.354764
896.000000	30.402713
895.000000	30.398154
894.000000	30.337842
893.000000	30.344822
892.000000	30.348052
891.000000	30.374449
890.000000	30.405972
889.000000	30.398015
888.000000	30.436796
887.000000	30.426474
886.000000	30.445447
885.000000	30.365502
884.000000	30.348685
883.000000	30.398778
882.000000	30.441869
881.000000	30.418211
880.000000	30.435578
879.000000	30.399454
878.000000	30.372352
877.000000	30.423085
876.000000	30.427568
875.000000	30.477236
874.000000	30.456052
873.000000	30.471678
872.000000	30.438890
871.000000	30.457576
870.000000	30.393598
869.000000	30.427702
868.000000	30.486505
867.000000	30.452395
866.000000	30.408931
865.000000	30.393799
864.000000	30.347953
863.000000	30.336723
862.000000	30.392344
861.000000	30.457688
860.000000	30.505810
859.000000	30.551711
858.000000	30.622331
857.000000	30.428406
856.000000	30.454308
855.000000	30.649410
854.000000	30.751769
853.000000	30.579709
852.000000	30.439966
851.000000	30.589511
850.000000	30.645004
849.000000	30.512394
848.000000	30.521721
847.000000	30.560377
846.000000	30.490660
845.000000	30.649546
844.000000	30.642868
843.000000	30.682515
842.000000	30.498151
841.000000	30.605232
840.000000	30.626718
839.000000	30.644070
838.000000	30.462249
837.000000	30.558764
836.000000	30.505307
835.000000	30.656259
834.000000	30.692854
833.000000	30.514566
832.000000	30.590924
831.000000	30.558391
830.000000	30.509730
829.000000	30.634579
828.000000	30.581968
827.000000	30.553735
826.000000	30.451792
825.000000	30.511327
824.000000	30.519136
823.000000	30.490741
822.000000	30.523570
821.000000	30.553248
820.000000	30.590411
819.000000	30.520877
818.000000	30.370208
817.000000	30.488931
816.000000	30.496194
815.000000	30.488784
814.000000	30.458084
813.000000	30.403947
812.000000	30.544430
811.000000	30.519727
810.000000	30.541268
809.000000	30.557112
808.000000	30.491173
807.000000	30.519871
806.000000	30.432776
805.000000	30.478848
804.000000	30.559210
803.000000	30.541523
802.000000	30.476271
801.000000	30.420191
800.000000	30.478729
799.000000	30.441133
798.000000	30.525224
797.000000	30.521022
796.000000	30.526695
795.000000	30.480171
794.000000	30.533429
793.000000	30.537111
792.000000	30.479753
791.000000	30.473346
790.000000	30.455428
789.000000	30.498759
788.000000	30.496869
787.000000	30.470170
786.000000	30.451935
785.000000	30.484637
784.000000	30.450350
783.000000	30.400258
782.000000	30.459765
781.000000	30.485152
780.000000	30.431652
779.000000	30.451429
778.000000	30.509990
777.000000	30.482915
776.000000	30.462213
775.000000	30.462179
774.000000	30.475726
773.000000	30.483487
772.000000	30.453342
771.000000	30.462909
770.000000	30.394945
769.000000	30.411365
768.000000	30.415962
767.000000	30.411013
766.000000	30.458491
765.000000	30.430461
764.000000	30.395009
763.000000	30.466137
762.000000	30.503670
761.000000	30.406133
760.000000	30.384556
759.000000	30.360665
758.000000	30.397273
757.000000	30.384981
756.000000	30.373308
755.000000	30.408903
754.000000	30.379563
753.000000	30.422037
752.000000	30.383698
751.000000	30.393592
750.000000	30.424379
749.000000	30.453624
748.000000	30.382680
747.000000	30.325056
746.000000	30.345756
745.000000	30.371634
744.000000	30.399161
743.000000	30.366970
742.000000	30.323848
741.000000	30.331493
740.000000	30.316128
739.000000	30.326592
738.000000	30.334001
737.000000	30.342952
736.000000	30.369173
735.000000	30.368770
734.000000	30.368665
733.000000	30.369424
732.000000	30.355884
731.000000	30.372835
730.000000	30.322335
729.000000	30.298819
728.000000	30.336693
727.000000	30.342609
726.000000	30.334554
725.000000	30.313976
724.000000	30.309672
723.000000	30.313842
722.000000	30.318182
721.000000	30.313167
720.000000	30.319988
719.000000	30.313313
718.000000	30.316183
717.000000	30.333201
716.000000	30.306413
715.000000	30.300981
714.000000	30.322585
713.000000	30.294560
712.000000	30.284039
711.000000	30.309769
710.000000	30.284221
709.000000	30.281504
708.000000	30.278751
707.000000	30.264482
706.000000	30.263946
705.000000	30.243779
704.000000	30.240539
703.000000	30.255999
702.000000	30.267991
701.000000	30.247278
700.000000	30.237673
699.000000	30.233203
698.000000	30.230687
697.000000	30.229678
696.000000	30.216613
695.000000	30.231942
694.000000	30.241453
693.000000	30.212856
692.000000	30.205393
691.000000	30.221386
690.000000	30.225173
689.000000	30.173893
688.000000	30.149094
687.000000	30.139639
686.000000	30.138047
685.000000	30.147006
684.000000	30.135712
683.000000	30.098268
682.000000	30.107708
681.000000	30.116934
680.000000	30.086600
679.000000	30.093947
678.000000	30.135134
677.000000	30.114351
676.000000	30.066133
675.000000	30.071798
674.000000	30.083273
673.000000	30.085650
672.000000	30.085207
671.000000	30.078198
670.000000	30.049122
669.000000	30.061520
668.000000	30.045284
667.000000	30.027905
666.000000	30.025776
665.000000	30.038870
664.000000	30.036138
663.000000	30.048235
662.000000	30.063078
661.000000	30.039866
660.000000	29.998774
659.000000	30.007800
658.000000	29.978165
657.000000	29.992929
656.000000	29.979475
655.000000	29.970568
654.000000	29.984941
653.000000	29.996962
652.000000	29.952006
651.000000	29.937584
650.000000	29.908081
649.000000	29.936596
648.000000	29.944465
647.000000	29.920615
646.000000	29.924898
645.000000	29.922992
644.000000	29.896374
643.000000	29.898797
642.000000	29.910709
641.000000	29.910007
640.000000	29.897804
639.000000	29.891919
638.000000	29.866847
637.000000	29.837933
636.000000	29.840275
635.000000	29.841995
634.000000	29.822025
633.000000	29.820975
632.000000	29.802235
631.000000	29.821204
630.000000	29.846667
629.000000	29.788192
628.000000	29.792512
627.000000	29.787110
626.000000	29.777703
625.000000	29.767049
624.000000	29.769014
623.000000	29.754756
622.000000	29.730331
621.000000	29.704268
620.000000	29.711180
619.000000	29.744029
618.000000	29.715764
617.000000	29.732493
616.000000	29.681475
615.000000	29.694430
614.000000	29.667641
613.000000	29.678845
612.000000	29.655398
611.000000	29.657433
610.000000	29.645121
609.000000	29.597354
608.000000	29.607512
607.000000	29.613063
606.000000	29.605924
605.000000	29.610543
604.000000	29.572634
603.000000	29.567454
602.000000	29.546130
601.000000	29.554360
600.000000	29.552001
599.000000	29.518131
598.000000	29.534264
597.000000	29.523541
596.000000	29.512801
595.000000	29.499202
594.000000	29.498791
593.000000	29.424103
592.000000	29.450365
591.000000	29.427618
590.000000	29.396472
589.000000	29.424181
588.000000	29.437110
587.000000	29.403804
586.000000	29.364519
585.000000	29.369483
584.000000	29.346700
583.000000	29.320002
582.000000	29.329880
581.000000	29.311303
580.000000	29.286235
579.000000	29.262138
578.000000	29.236563
577.000000	29.240543
576.000000	29.239078
575.000000	29.227044
574.000000	29.171621
573.000000	29.186640
572.000000	29.179124
571.000000	29.182069
570.000000	29.154497
569.000000	29.166810
568.000000	29.097138
567.000000	29.119276
566.000000	29.082132
565.000000	29.060224
564.000000	29.047423
563.000000	29.045131
562.000000	29.021272
561.000000	29.033497
560.000000	29.003539
559.000000	28.993507
558.000000	28.956665
557.000000	28.945310
556.000000	28.949106
555.000000	28.934658
554.000000	28.899642
553.000000	28.895501
552.000000	28.859302
551.000000	28.851320
550.000000	28.820976
549.000000	28.795805
548.000000	28.785904
547.000000	28.780205
546.000000	28.732702
545.000000	28.736221
544.000000	28.725900
543.000000	28.685900
542.000000	28.669055
541.000000	28.665553
540.000000	28.632547
539.000000	28.593141
538.000000	28.595500
537.000000	28.568494
536.000000	28.528481
535.000000	28.524310
534.000000	28.491780
533.000000	28.452565
532.000000	28.427650
531.000000	28.436912
530.000000	28.400991
529.000000	28.388080
528.000000	28.341650
527.000000	28.310600
526.000000	28.298481
525.000000	28.288478
524.000000	28.251875
523.000000	28.220838
522.000000	28.188174
521.000000	28.165423
520.000000	28.129506
519.000000	28.095657
518.000000	28.074416
517.000000	28.045667
516.000000	28.001166
515.000000	27.981049
514.000000	27.955463
513.000000	27.915339
512.000000	27.903496
511.000000	27.892064
510.000000	27.835682
509.000000	27.815833
508.000000	27.782083
507.000000	27.754026
506.000000	27.704013
505.000000	27.685376
504.000000	27.656069
503.000000	27.625603
502.000000	27.599857
501.000000	27.560124
500.000000	27.534991
499.000000	27.505556
498.000000	27.465203
497.000000	27.431630
496.000000	27.382918
495.000000	27.334091
494.000000	27.305332
493.000000	27.266723
492.000000	27.230699
491.000000	27.201752
490.000000	27.153470
489.000000	27.125168
488.000000	27.087838
487.000000	27.034491
486.000000	26.989699
485.000000	26.998060
484.000000	26.969188
483.000000	26.913831
482.000000	26.871032
481.000000	26.826241
480.000000	26.793404
479.000000	26.753244
478.000000	26.705074
477.000000	26.652549
476.000000	26.607957
475.000000	26.557241
474.000000	26.493018
473.000000	26.451465
472.000000	26.430825
471.000000	26.373196
470.000000	26.313536
469.000000	26.280458
468.000000	26.226292
467.000000	26.179669
466.000000	26.129976
465.000000	26.082577
464.000000	26.037922
463.000000	25.965754
462.000000	25.907294
461.000000	25.889014
460.000000	25.827938
459.000000	25.755219
458.000000	25.709708
457.000000	25.629872
456.000000	25.566384
455.000000	25.510286
454.000000	25.451991
453.000000	25.382003
452.000000	25.310267
451.000000	25.252158
450.000000	25.186050
449.000000	25.102725
448.000000	25.029255
447.000000	24.971532
446.000000	24.886587
445.000000	24.824957
444.000000	24.748933
443.000000	24.658879
442.000000	24.579555
441.000000	24.490891
440.000000	24.444405
439.000000	24.378564
438.000000	24.272165
437.000000	24.175709
436.000000	24.103131
435.000000	24.016662
434.000000	23.920827
433.000000	23.831383
432.000000	23.741721
431.000000	23.643505
430.000000	23.543326
429.000000	23.442775
428.000000	23.375543
427.000000	23.283976
426.000000	23.160570
425.000000	23.063058
424.000000	22.961818
423.000000	22.830841
422.000000	22.705705
421.000000	22.604873
420.000000	22.519924
419.000000	22.421254
418.000000	22.294233
417.000000	22.171257
416.000000	22.067965
415.000000	21.898222
414.000000	21.765638
413.000000	21.659538
412.000000	21.549399
411.000000	21.418733
410.000000	21.293042
409.000000	21.163303
408.000000	21.029965
407.000000	20.908234
406.000000	20.753943
405.000000	20.616321
404.000000	20.477598
403.000000	20.362926
402.000000	20.226965
401.000000	20.122641
400.000000	19.973305
399.000000	19.802710
398.000000	19.649752
397.000000	19.509224
396.000000	19.388785
395.000000	19.239078
394.000000	19.107688
393.000000	18.941528
392.000000	18.812219
391.000000	18.664415
390.000000	18.508626
389.000000	18.358919
388.000000	18.176177
387.000000	18.015959
386.000000	17.864274
385.000000	17.685342
384.000000	17.508068
383.000000	17.361422
382.000000	17.147264
381.000000	16.973682
380.000000	16.824268
379.000000	16.657924
378.000000	16.469133
377.000000	16.328547
376.000000	16.178310
375.000000	15.973601
374.000000	15.806332
373.000000	15.583788
372.000000	15.448788
371.000000	15.173758
370.000000	15.018797
369.000000	14.820924
368.000000	14.668540
367.000000	14.484267
366.000000	14.332302
365.000000	14.145993
364.000000	13.932945
363.000000	13.801138
362.000000	13.598338
361.000000	13.374145
360.000000	13.231958
359.000000	13.067084
358.000000	12.877387
357.000000	12.744355
356.000000	12.511745
355.000000	12.360305
354.000000	12.206681
353.000000	12.038726
352.000000	11.826186
351.000000	11.732433
350.000000	11.475586
349.000000	11.333886
348.000000	11.113394
347.000000	10.955898
346.000000	10.800788
345.000000	10.616107
344.000000	10.432638
343.000000	10.231996
342.000000	10.041061
341.000000	9.850132
340.000000	9.556953
339.000000	9.402633
338.000000	9.213835
337.000000	8.967979
336.000000	8.737812
335.000000	8.471683
334.000000	8.253276
333.000000	7.993414
332.000000	7.687459
331.000000	7.431777
330.000000	7.204899
329.000000	6.944844
328.000000	6.715024
327.000000	6.474700
326.000000	6.203426
325.000000	6.045230
324.000000	5.874941
323.000000	5.702926
322.000000	5.559848
321.000000	5.399922
320.000000	5.219707
319.000000	5.062764
318.000000	5.016780
317.000000	4.904257
316.000000	4.802647
315.000000	4.752911
314.000000	4.571336
313.000000	4.484854
312.000000	4.417139
311.000000	4.321596
310.000000	4.227106
309.000000	4.142582
308.000000	4.040682
307.000000	3.956688
306.000000	3.854528
305.000000	3.787078
304.000000	3.708936
303.000000	3.624881
302.000000	3.562734
301.000000	3.449775
300.000000	3.354194
299.000000	3.259148
298.000000	3.118614
297.000000	3.011184
296.000000	2.903690
295.000000	2.746574
294.000000	2.612356
293.000000	2.411150
292.000000	2.223220
291.000000	2.011753
290.000000	1.813025
289.000000	1.635907
288.000000	1.478033
287.000000	1.367661
286.000000	1.288671
285.000000	1.245378
284.000000	1.220398
283.000000	1.201719
282.000000	1.194283
281.000000	1.180131
280.000000	1.182831
279.000000	1.191521
278.000000	1.191535
277.000000	1.210998
276.000000	1.250201
275.000000	1.270180
274.000000	1.299628
273.000000	1.335320
272.000000	1.363617
271.000000	1.370563
270.000000	1.367630
269.000000	1.362834
268.000000	1.403535
267.000000	1.429223
266.000000	1.482683
265.000000	1.517079
264.000000	1.556569
263.000000	1.582858
262.000000	1.628769
261.000000	1.683193
260.000000	1.697271
259.000000	1.716501
258.000000	1.764538
257.000000	1.806025
256.000000	1.875339
255.000000	1.921736
254.000000	1.898595
253.000000	1.849083
252.000000	1.838795
251.000000	1.793073
250.000000	1.723874
249.000000	1.620901
248.000000	1.511271
247.000000	1.385337
246.000000	1.253461
245.000000	1.108154
244.000000	0.964699
243.000000	0.838447
242.000000	0.727450
241.000000	0.624633
240.000000	0.532075
239.000000	0.480634
238.000000	0.439672
237.000000	0.396973
236.000000	0.356197
235.000000	0.326028
234.000000	0.312961
233.000000	0.289708
232.000000	0.264024
231.000000	0.247351
230.000000	0.225390
229.000000	0.201409
228.000000	0.173401
227.000000	0.157962
226.000000	0.142642
225.000000	0.127948
224.000000	0.131429
223.000000	0.122949
222.000000	0.098963
221.000000	0.080633
220.000000	0.079089
219.000000	0.095016
218.000000	0.093196
217.000000	0.073542
216.000000	0.070359
215.000000	0.069081
214.000000	0.077307
213.000000	0.093684
212.000000	0.072013
211.000000	0.080698
210.000000	0.096903
209.000000	0.080030
208.000000	0.081257
207.000000	0.095302
206.000000	0.116850
205.000000	0.127925
204.000000	0.120912
203.000000	0.096365
202.000000	0.139987
201.000000	0.192468
200.000000	0.162695
