PE UV       SUBTECH     SPECTRUM    ASCII       PEDS        4.00        
   -1
TTgAgneauUK 42.Sample.asc
18/03/08
11:30:57.00
18/03/08
11:30:57.00
Administrator

200.000000
1
Lambda 750
750N8071901
PerkinElmer UV WinLab 6.0.4.0738 / 1.61.00 Lambda 900

0
0
3350/servo 860.8/2
0
0
UV/VIS
1
1
1
CommonBeamDepol,150mm sphere / downward view
0
0
0
0
Program
Program
3350/servo 860.8/2
3350/0.2 860.8/0.2
3350/0.2 860.8/0.2
0
1
 
 
 
0
 
860.8
319.2
860.8
Front
100
on
 
 
0
0
0
 
0
 
 
 
0
 
 
0
0
0
0
0
 
 
 
 
0
0


0
0
#HDR
-1
-1
#GR
nm
%T
1.0
0.0
2350.000000
-1.000000
2151
8
31.035685
0.049996
#DATA
2350.000000	10.308750
2349.000000	10.174930
2348.000000	9.908223
2347.000000	10.600735
2346.000000	10.367182
2345.000000	9.839844
2344.000000	10.128974
2343.000000	9.966982
2342.000000	9.902644
2341.000000	10.172428
2340.000000	10.068879
2339.000000	10.670057
2338.000000	10.667923
2337.000000	10.631522
2336.000000	10.831761
2335.000000	10.653007
2334.000000	10.544134
2333.000000	10.906936
2332.000000	10.950154
2331.000000	10.866913
2330.000000	10.942608
2329.000000	10.645154
2328.000000	10.453087
2327.000000	10.713293
2326.000000	10.784204
2325.000000	10.604463
2324.000000	10.318378
2323.000000	10.393180
2322.000000	10.419774
2321.000000	10.509603
2320.000000	10.202807
2319.000000	10.340664
2318.000000	10.556325
2317.000000	10.374226
2316.000000	10.402438
2315.000000	10.465388
2314.000000	10.313938
2313.000000	10.021705
2312.000000	9.961352
2311.000000	10.045342
2310.000000	9.849190
2309.000000	9.904552
2308.000000	9.949806
2307.000000	9.891065
2306.000000	9.826004
2305.000000	9.801695
2304.000000	9.758025
2303.000000	9.727997
2302.000000	9.840659
2301.000000	9.709300
2300.000000	9.405087
2299.000000	9.431671
2298.000000	9.351355
2297.000000	9.300520
2296.000000	9.313417
2295.000000	9.277984
2294.000000	9.318715
2293.000000	9.248155
2292.000000	9.171255
2291.000000	9.076300
2290.000000	9.128900
2289.000000	9.249031
2288.000000	9.258835
2287.000000	9.174754
2286.000000	9.097239
2285.000000	9.234405
2284.000000	9.120901
2283.000000	8.873825
2282.000000	8.903984
2281.000000	8.954365
2280.000000	8.848019
2279.000000	9.001675
2278.000000	8.923052
2277.000000	8.992695
2276.000000	9.147316
2275.000000	9.135501
2274.000000	9.109820
2273.000000	9.057762
2272.000000	9.114426
2271.000000	9.148357
2270.000000	9.227644
2269.000000	9.274546
2268.000000	9.137898
2267.000000	9.190262
2266.000000	9.327421
2265.000000	9.426084
2264.000000	9.548701
2263.000000	9.582105
2262.000000	9.576890
2261.000000	9.684958
2260.000000	9.827995
2259.000000	9.981124
2258.000000	10.153711
2257.000000	10.181211
2256.000000	10.217069
2255.000000	10.302856
2254.000000	10.474734
2253.000000	10.485307
2252.000000	10.505147
2251.000000	10.722942
2250.000000	10.880525
2249.000000	11.089681
2248.000000	11.211914
2247.000000	11.256452
2246.000000	11.291209
2245.000000	11.393804
2244.000000	11.508152
2243.000000	11.568322
2242.000000	11.740895
2241.000000	11.890068
2240.000000	11.889104
2239.000000	11.980665
2238.000000	12.131318
2237.000000	12.193912
2236.000000	12.308150
2235.000000	12.364866
2234.000000	12.358989
2233.000000	12.371543
2232.000000	12.442060
2231.000000	12.511397
2230.000000	12.508323
2229.000000	12.579346
2228.000000	12.733007
2227.000000	12.783742
2226.000000	12.638527
2225.000000	12.530585
2224.000000	12.527010
2223.000000	12.546115
2222.000000	12.641422
2221.000000	12.473475
2220.000000	12.392488
2219.000000	12.378493
2218.000000	12.417563
2217.000000	12.484315
2216.000000	12.475943
2215.000000	12.410875
2214.000000	12.289754
2213.000000	12.317736
2212.000000	12.308310
2211.000000	12.183780
2210.000000	12.216101
2209.000000	12.089438
2208.000000	12.096375
2207.000000	12.013905
2206.000000	11.830550
2205.000000	11.872307
2204.000000	11.985290
2203.000000	11.878870
2202.000000	11.824006
2201.000000	11.782350
2200.000000	11.739698
2199.000000	11.620280
2198.000000	11.614355
2197.000000	11.583774
2196.000000	11.526991
2195.000000	11.353601
2194.000000	11.418575
2193.000000	11.261555
2192.000000	11.130821
2191.000000	11.096385
2190.000000	11.257983
2189.000000	11.241812
2188.000000	11.142352
2187.000000	11.120965
2186.000000	11.119092
2185.000000	11.009566
2184.000000	11.061629
2183.000000	11.088298
2182.000000	10.980806
2181.000000	10.815361
2180.000000	10.857888
2179.000000	10.794120
2178.000000	10.805902
2177.000000	10.926407
2176.000000	10.904092
2175.000000	10.778726
2174.000000	10.882780
2173.000000	10.941807
2172.000000	10.940949
2171.000000	11.072770
2170.000000	11.101788
2169.000000	11.068814
2168.000000	10.949775
2167.000000	11.217661
2166.000000	11.057492
2165.000000	11.116891
2164.000000	11.330378
2163.000000	11.214654
2162.000000	11.352429
2161.000000	11.510724
2160.000000	11.561281
2159.000000	11.598289
2158.000000	11.660161
2157.000000	11.633371
2156.000000	11.751529
2155.000000	11.822771
2154.000000	12.070892
2153.000000	12.042883
2152.000000	12.221975
2151.000000	12.171007
2150.000000	12.238901
2149.000000	12.433939
2148.000000	12.418635
2147.000000	12.447247
2146.000000	12.604593
2145.000000	12.581877
2144.000000	12.795357
2143.000000	12.841059
2142.000000	12.971283
2141.000000	13.004314
2140.000000	13.057657
2139.000000	12.960679
2138.000000	13.337851
2137.000000	13.342005
2136.000000	13.460789
2135.000000	13.571616
2134.000000	13.542607
2133.000000	13.265545
2132.000000	13.673060
2131.000000	13.635607
2130.000000	13.701075
2129.000000	13.747657
2128.000000	13.757939
2127.000000	13.675319
2126.000000	13.621230
2125.000000	13.603374
2124.000000	13.807870
2123.000000	13.848481
2122.000000	13.924441
2121.000000	13.880732
2120.000000	14.039065
2119.000000	13.981513
2118.000000	14.006762
2117.000000	14.077699
2116.000000	14.086965
2115.000000	14.080102
2114.000000	13.961482
2113.000000	14.046504
2112.000000	14.090441
2111.000000	14.184260
2110.000000	14.023272
2109.000000	14.076797
2108.000000	13.977397
2107.000000	14.042120
2106.000000	14.122071
2105.000000	14.107261
2104.000000	14.299150
2103.000000	14.218297
2102.000000	14.195982
2101.000000	14.111624
2100.000000	14.306140
2099.000000	14.240194
2098.000000	14.155708
2097.000000	14.150456
2096.000000	14.174286
2095.000000	14.080213
2094.000000	14.155497
2093.000000	14.208601
2092.000000	14.175613
2091.000000	14.175104
2090.000000	14.126897
2089.000000	14.074070
2088.000000	14.081576
2087.000000	14.124410
2086.000000	14.126891
2085.000000	14.058774
2084.000000	13.988013
2083.000000	13.890148
2082.000000	13.854755
2081.000000	13.682852
2080.000000	13.647511
2079.000000	13.709810
2078.000000	13.727625
2077.000000	13.692103
2076.000000	13.513207
2075.000000	13.490374
2074.000000	13.467605
2073.000000	13.356128
2072.000000	13.341833
2071.000000	13.310989
2070.000000	13.156593
2069.000000	13.063998
2068.000000	12.926980
2067.000000	12.864447
2066.000000	12.745066
2065.000000	12.604064
2064.000000	12.573280
2063.000000	12.512209
2062.000000	12.438455
2061.000000	12.294588
2060.000000	12.189273
2059.000000	12.102953
2058.000000	12.053779
2057.000000	11.936748
2056.000000	11.811569
2055.000000	11.758259
2054.000000	11.740916
2053.000000	11.629793
2052.000000	11.528344
2051.000000	11.439153
2050.000000	11.365687
2049.000000	11.285208
2048.000000	11.253531
2047.000000	11.272542
2046.000000	11.198004
2045.000000	11.109007
2044.000000	11.110661
2043.000000	11.143309
2042.000000	11.097988
2041.000000	11.117101
2040.000000	11.138993
2039.000000	11.142283
2038.000000	11.184739
2037.000000	11.254456
2036.000000	11.265369
2035.000000	11.305101
2034.000000	11.384939
2033.000000	11.431389
2032.000000	11.530491
2031.000000	11.636558
2030.000000	11.702687
2029.000000	11.748152
2028.000000	11.792432
2027.000000	11.894376
2026.000000	11.977133
2025.000000	12.018686
2024.000000	12.057583
2023.000000	12.097259
2022.000000	12.131090
2021.000000	12.183505
2020.000000	12.235126
2019.000000	12.234877
2018.000000	12.263784
2017.000000	12.262928
2016.000000	12.272081
2015.000000	12.285612
2014.000000	12.264964
2013.000000	12.253997
2012.000000	12.265995
2011.000000	12.259560
2010.000000	12.229092
2009.000000	12.204486
2008.000000	12.169079
2007.000000	12.136312
2006.000000	12.064637
2005.000000	12.003689
2004.000000	11.971352
2003.000000	11.938247
2002.000000	11.891262
2001.000000	11.847702
2000.000000	11.782644
1999.000000	11.688277
1998.000000	11.604080
1997.000000	11.577835
1996.000000	11.543365
1995.000000	11.474332
1994.000000	11.369156
1993.000000	11.294902
1992.000000	11.240337
1991.000000	11.213658
1990.000000	11.143803
1989.000000	11.062394
1988.000000	11.026160
1987.000000	10.955081
1986.000000	10.887342
1985.000000	10.814582
1984.000000	10.729232
1983.000000	10.651249
1982.000000	10.581468
1981.000000	10.553263
1980.000000	10.489548
1979.000000	10.445129
1978.000000	10.369906
1977.000000	10.326810
1976.000000	10.266260
1975.000000	10.179237
1974.000000	10.121223
1973.000000	10.063443
1972.000000	10.008917
1971.000000	9.938332
1970.000000	9.897254
1969.000000	9.824424
1968.000000	9.771863
1967.000000	9.727160
1966.000000	9.670920
1965.000000	9.576728
1964.000000	9.564991
1963.000000	9.488375
1962.000000	9.441865
1961.000000	9.402771
1960.000000	9.342327
1959.000000	9.252966
1958.000000	9.227025
1957.000000	9.154372
1956.000000	9.123622
1955.000000	9.074769
1954.000000	9.012000
1953.000000	9.004806
1952.000000	8.978964
1951.000000	8.947759
1950.000000	8.998373
1949.000000	8.905581
1948.000000	8.915068
1947.000000	8.869103
1946.000000	8.887133
1945.000000	8.903115
1944.000000	8.852922
1943.000000	8.870237
1942.000000	8.854782
1941.000000	8.844771
1940.000000	8.912199
1939.000000	9.005275
1938.000000	9.018471
1937.000000	9.106193
1936.000000	9.216445
1935.000000	9.220144
1934.000000	9.221575
1933.000000	9.327569
1932.000000	9.454740
1931.000000	9.514573
1930.000000	9.584464
1929.000000	9.627470
1928.000000	9.838211
1927.000000	9.928941
1926.000000	10.089686
1925.000000	10.183511
1924.000000	10.268080
1923.000000	10.436535
1922.000000	10.637610
1921.000000	10.720614
1920.000000	10.940560
1919.000000	11.153635
1918.000000	11.289152
1917.000000	11.500148
1916.000000	11.634864
1915.000000	11.954991
1914.000000	12.108863
1913.000000	12.379820
1912.000000	12.605040
1911.000000	12.851083
1910.000000	13.052647
1909.000000	13.333543
1908.000000	13.567494
1907.000000	13.971110
1906.000000	14.161303
1905.000000	14.469041
1904.000000	14.669369
1903.000000	15.059963
1902.000000	15.402358
1901.000000	15.691010
1900.000000	16.031743
1899.000000	16.398733
1898.000000	16.676459
1897.000000	16.975713
1896.000000	17.353001
1895.000000	17.562282
1894.000000	17.946076
1893.000000	18.212106
1892.000000	18.471665
1891.000000	18.772229
1890.000000	19.138962
1889.000000	19.384596
1888.000000	19.650608
1887.000000	19.946105
1886.000000	20.181905
1885.000000	20.467546
1884.000000	20.712934
1883.000000	20.950578
1882.000000	21.224197
1881.000000	21.461845
1880.000000	21.671673
1879.000000	21.882335
1878.000000	22.040269
1877.000000	22.235668
1876.000000	22.421360
1875.000000	22.564028
1874.000000	22.771185
1873.000000	22.906170
1872.000000	23.037997
1871.000000	23.166883
1870.000000	23.281700
1869.000000	23.387050
1868.000000	23.497679
1867.000000	23.500807
1866.000000	23.584222
1865.000000	23.683528
1864.000000	23.705929
1863.000000	23.719690
1862.000000	23.788609
1861.000000	23.806706
1860.000000	23.818803
1859.000000	23.852011
1858.000000	23.894206
1857.000000	23.917550
1856.000000	23.957059
1855.000000	23.985907
1854.000000	23.990439
1853.000000	24.010943
1852.000000	24.056473
1851.000000	24.040479
1850.000000	24.036076
1849.000000	24.050909
1848.000000	24.072766
1847.000000	24.102536
1846.000000	24.070569
1845.000000	24.029596
1844.000000	24.017079
1843.000000	24.026220
1842.000000	24.025883
1841.000000	23.994650
1840.000000	23.973997
1839.000000	23.945321
1838.000000	23.920812
1837.000000	23.899266
1836.000000	23.863886
1835.000000	23.802252
1834.000000	23.756515
1833.000000	23.717122
1832.000000	23.709185
1831.000000	23.677096
1830.000000	23.639103
1829.000000	23.599710
1828.000000	23.567022
1827.000000	23.538286
1826.000000	23.511044
1825.000000	23.477015
1824.000000	23.454335
1823.000000	23.450376
1822.000000	23.410089
1821.000000	23.366269
1820.000000	23.338973
1819.000000	23.305220
1818.000000	23.291420
1817.000000	23.278268
1816.000000	23.241981
1815.000000	23.232491
1814.000000	23.212910
1813.000000	23.170453
1812.000000	23.142462
1811.000000	23.121680
1810.000000	23.100163
1809.000000	23.108915
1808.000000	23.088145
1807.000000	23.048236
1806.000000	23.025414
1805.000000	23.004172
1804.000000	22.992350
1803.000000	22.966606
1802.000000	22.943074
1801.000000	22.939138
1800.000000	22.924678
1799.000000	22.901991
1798.000000	22.888109
1797.000000	22.880158
1796.000000	22.859639
1795.000000	22.855838
1794.000000	22.847243
1793.000000	22.834820
1792.000000	22.817793
1791.000000	22.812714
1790.000000	22.807783
1789.000000	22.775878
1788.000000	22.775278
1787.000000	22.774830
1786.000000	22.756597
1785.000000	22.754659
1784.000000	22.736462
1783.000000	22.709748
1782.000000	22.689318
1781.000000	22.665982
1780.000000	22.650457
1779.000000	22.634644
1778.000000	22.602010
1777.000000	22.575290
1776.000000	22.543530
1775.000000	22.485752
1774.000000	22.444784
1773.000000	22.414184
1772.000000	22.400960
1771.000000	22.375864
1770.000000	22.326502
1769.000000	22.271904
1768.000000	22.242050
1767.000000	22.211905
1766.000000	22.192118
1765.000000	22.144389
1764.000000	22.104806
1763.000000	22.046345
1762.000000	22.010472
1761.000000	21.994162
1760.000000	21.966201
1759.000000	21.906524
1758.000000	21.873748
1757.000000	21.838321
1756.000000	21.811402
1755.000000	21.779228
1754.000000	21.725390
1753.000000	21.674994
1752.000000	21.653738
1751.000000	21.644991
1750.000000	21.593171
1749.000000	21.583969
1748.000000	21.541993
1747.000000	21.481774
1746.000000	21.452203
1745.000000	21.421074
1744.000000	21.361167
1743.000000	21.327133
1742.000000	21.287601
1741.000000	21.288580
1740.000000	21.259678
1739.000000	21.205201
1738.000000	21.187449
1737.000000	21.153561
1736.000000	21.130164
1735.000000	21.121183
1734.000000	21.088642
1733.000000	21.096898
1732.000000	21.100207
1731.000000	21.109863
1730.000000	21.116981
1729.000000	21.120467
1728.000000	21.164024
1727.000000	21.165485
1726.000000	21.203552
1725.000000	21.243738
1724.000000	21.283537
1723.000000	21.330053
1722.000000	21.392574
1721.000000	21.475499
1720.000000	21.508710
1719.000000	21.596194
1718.000000	21.635455
1717.000000	21.695453
1716.000000	21.735324
1715.000000	21.799727
1714.000000	21.868092
1713.000000	21.909906
1712.000000	21.942246
1711.000000	21.986825
1710.000000	22.031264
1709.000000	22.080491
1708.000000	22.114640
1707.000000	22.129751
1706.000000	22.160199
1705.000000	22.175666
1704.000000	22.193119
1703.000000	22.201325
1702.000000	22.217150
1701.000000	22.217917
1700.000000	22.230627
1699.000000	22.248297
1698.000000	22.264152
1697.000000	22.273630
1696.000000	22.330079
1695.000000	22.318644
1694.000000	22.323179
1693.000000	22.351043
1692.000000	22.405421
1691.000000	22.424496
1690.000000	22.462807
1689.000000	22.509007
1688.000000	22.579763
1687.000000	22.664496
1686.000000	22.734051
1685.000000	22.799700
1684.000000	22.876762
1683.000000	22.954808
1682.000000	23.074100
1681.000000	23.188289
1680.000000	23.288802
1679.000000	23.390656
1678.000000	23.493702
1677.000000	23.573833
1676.000000	23.691199
1675.000000	23.811049
1674.000000	23.914175
1673.000000	24.017631
1672.000000	24.097862
1671.000000	24.226302
1670.000000	24.337942
1669.000000	24.405999
1668.000000	24.480960
1667.000000	24.545330
1666.000000	24.600461
1665.000000	24.662702
1664.000000	24.724412
1663.000000	24.769688
1662.000000	24.835342
1661.000000	24.881592
1660.000000	24.938637
1659.000000	24.967552
1658.000000	24.995377
1657.000000	25.011534
1656.000000	25.037241
1655.000000	25.062972
1654.000000	25.077357
1653.000000	25.078749
1652.000000	25.084518
1651.000000	25.082548
1650.000000	25.071249
1649.000000	25.074700
1648.000000	25.076355
1647.000000	25.068970
1646.000000	25.054940
1645.000000	25.033147
1644.000000	25.036675
1643.000000	24.995149
1642.000000	24.993778
1641.000000	24.973737
1640.000000	24.956413
1639.000000	24.951256
1638.000000	24.949624
1637.000000	24.921553
1636.000000	24.886699
1635.000000	24.859056
1634.000000	24.826756
1633.000000	24.782751
1632.000000	24.768747
1631.000000	24.745403
1630.000000	24.714455
1629.000000	24.707499
1628.000000	24.670314
1627.000000	24.625584
1626.000000	24.616305
1625.000000	24.588027
1624.000000	24.558214
1623.000000	24.527767
1622.000000	24.486964
1621.000000	24.457015
1620.000000	24.433087
1619.000000	24.399334
1618.000000	24.355750
1617.000000	24.317833
1616.000000	24.290800
1615.000000	24.245374
1614.000000	24.214670
1613.000000	24.178812
1612.000000	24.134610
1611.000000	24.098147
1610.000000	24.071035
1609.000000	24.025964
1608.000000	23.987769
1607.000000	23.960579
1606.000000	23.922012
1605.000000	23.888591
1604.000000	23.830290
1603.000000	23.781154
1602.000000	23.757501
1601.000000	23.713455
1600.000000	23.674852
1599.000000	23.639153
1598.000000	23.595679
1597.000000	23.565320
1596.000000	23.529292
1595.000000	23.500772
1594.000000	23.472359
1593.000000	23.432085
1592.000000	23.397094
1591.000000	23.365083
1590.000000	23.336544
1589.000000	23.290036
1588.000000	23.258120
1587.000000	23.245622
1586.000000	23.223386
1585.000000	23.188141
1584.000000	23.151639
1583.000000	23.127919
1582.000000	23.095597
1581.000000	23.060093
1580.000000	23.025011
1579.000000	22.994723
1578.000000	22.972425
1577.000000	22.950095
1576.000000	22.914639
1575.000000	22.876561
1574.000000	22.839904
1573.000000	22.802928
1572.000000	22.778797
1571.000000	22.757823
1570.000000	22.722485
1569.000000	22.694574
1568.000000	22.672150
1567.000000	22.650824
1566.000000	22.629823
1565.000000	22.590106
1564.000000	22.573087
1563.000000	22.568850
1562.000000	22.547358
1561.000000	22.510038
1560.000000	22.494460
1559.000000	22.488506
1558.000000	22.451322
1557.000000	22.432734
1556.000000	22.432546
1555.000000	22.411429
1554.000000	22.397431
1553.000000	22.380029
1552.000000	22.353333
1551.000000	22.318735
1550.000000	22.291359
1549.000000	22.260999
1548.000000	22.245341
1547.000000	22.201809
1546.000000	22.155915
1545.000000	22.105168
1544.000000	22.063817
1543.000000	22.027451
1542.000000	21.988403
1541.000000	21.927716
1540.000000	21.872620
1539.000000	21.820543
1538.000000	21.751108
1537.000000	21.688584
1536.000000	21.633464
1535.000000	21.602314
1534.000000	21.590434
1533.000000	21.576737
1532.000000	21.558145
1531.000000	21.502517
1530.000000	21.419077
1529.000000	21.353548
1528.000000	21.286780
1527.000000	21.242763
1526.000000	21.188809
1525.000000	21.150948
1524.000000	21.089776
1523.000000	21.059403
1522.000000	21.039270
1521.000000	21.002030
1520.000000	20.965490
1519.000000	20.956520
1518.000000	20.913413
1517.000000	20.859476
1516.000000	20.823483
1515.000000	20.828654
1514.000000	20.819997
1513.000000	20.784574
1512.000000	20.739084
1511.000000	20.695940
1510.000000	20.730259
1509.000000	20.705920
1508.000000	20.680252
1507.000000	20.660702
1506.000000	20.646625
1505.000000	20.622443
1504.000000	20.616314
1503.000000	20.594148
1502.000000	20.576467
1501.000000	20.560105
1500.000000	20.546790
1499.000000	20.556277
1498.000000	20.566933
1497.000000	20.565302
1496.000000	20.564889
1495.000000	20.573674
1494.000000	20.586243
1493.000000	20.595333
1492.000000	20.601817
1491.000000	20.632809
1490.000000	20.637327
1489.000000	20.671553
1488.000000	20.682364
1487.000000	20.704423
1486.000000	20.737376
1485.000000	20.760351
1484.000000	20.804791
1483.000000	20.840416
1482.000000	20.860660
1481.000000	20.901628
1480.000000	20.937983
1479.000000	20.962271
1478.000000	20.995787
1477.000000	21.012568
1476.000000	21.059304
1475.000000	21.083685
1474.000000	21.101730
1473.000000	21.129498
1472.000000	21.176830
1471.000000	21.187095
1470.000000	21.211078
1469.000000	21.253714
1468.000000	21.302709
1467.000000	21.352175
1466.000000	21.359384
1465.000000	21.359699
1464.000000	21.377703
1463.000000	21.431036
1462.000000	21.465992
1461.000000	21.497939
1460.000000	21.505090
1459.000000	21.536889
1458.000000	21.587382
1457.000000	21.642273
1456.000000	21.660417
1455.000000	21.685964
1454.000000	21.710671
1453.000000	21.765734
1452.000000	21.808044
1451.000000	21.837685
1450.000000	21.868543
1449.000000	21.905691
1448.000000	21.950428
1447.000000	22.012843
1446.000000	22.089757
1445.000000	22.118831
1444.000000	22.155027
1443.000000	22.205927
1442.000000	22.249915
1441.000000	22.305737
1440.000000	22.355257
1439.000000	22.423958
1438.000000	22.514388
1437.000000	22.581529
1436.000000	22.644520
1435.000000	22.709405
1434.000000	22.768262
1433.000000	22.834031
1432.000000	22.901328
1431.000000	22.987042
1430.000000	23.065309
1429.000000	23.134805
1428.000000	23.218730
1427.000000	23.301096
1426.000000	23.398708
1425.000000	23.499168
1424.000000	23.598853
1423.000000	23.688150
1422.000000	23.770209
1421.000000	23.881083
1420.000000	23.991941
1419.000000	24.099782
1418.000000	24.196107
1417.000000	24.327250
1416.000000	24.452049
1415.000000	24.569259
1414.000000	24.671356
1413.000000	24.797815
1412.000000	24.909732
1411.000000	25.034029
1410.000000	25.150160
1409.000000	25.274839
1408.000000	25.401366
1407.000000	25.522068
1406.000000	25.623852
1405.000000	25.735799
1404.000000	25.863274
1403.000000	25.977892
1402.000000	26.088738
1401.000000	26.212714
1400.000000	26.323893
1399.000000	26.412787
1398.000000	26.508354
1397.000000	26.586545
1396.000000	26.686038
1395.000000	26.788367
1394.000000	26.880493
1393.000000	26.966135
1392.000000	27.062239
1391.000000	27.153979
1390.000000	27.238466
1389.000000	27.332265
1388.000000	27.425006
1387.000000	27.486072
1386.000000	27.546320
1385.000000	27.612863
1384.000000	27.678667
1383.000000	27.749015
1382.000000	27.797228
1381.000000	27.826857
1380.000000	27.871750
1379.000000	27.926600
1378.000000	27.967691
1377.000000	28.012339
1376.000000	28.059354
1375.000000	28.099670
1374.000000	28.123101
1373.000000	28.134331
1372.000000	28.154524
1371.000000	28.191418
1370.000000	28.242577
1369.000000	28.265616
1368.000000	28.289812
1367.000000	28.320501
1366.000000	28.342785
1365.000000	28.363170
1364.000000	28.383660
1363.000000	28.416700
1362.000000	28.436595
1361.000000	28.454329
1360.000000	28.481981
1359.000000	28.510291
1358.000000	28.547522
1357.000000	28.581356
1356.000000	28.612138
1355.000000	28.633526
1354.000000	28.652815
1353.000000	28.685100
1352.000000	28.720945
1351.000000	28.730570
1350.000000	28.740207
1349.000000	28.783973
1348.000000	28.821892
1347.000000	28.837120
1346.000000	28.854729
1345.000000	28.881696
1344.000000	28.899872
1343.000000	28.921480
1342.000000	28.947718
1341.000000	28.983665
1340.000000	29.017784
1339.000000	29.049157
1338.000000	29.059504
1337.000000	29.066438
1336.000000	29.093519
1335.000000	29.116136
1334.000000	29.155613
1333.000000	29.173583
1332.000000	29.176169
1331.000000	29.190617
1330.000000	29.211775
1329.000000	29.236495
1328.000000	29.253967
1327.000000	29.264304
1326.000000	29.252107
1325.000000	29.267957
1324.000000	29.290207
1323.000000	29.300773
1322.000000	29.299949
1321.000000	29.321400
1320.000000	29.349438
1319.000000	29.347731
1318.000000	29.360662
1317.000000	29.338977
1316.000000	29.342922
1315.000000	29.384044
1314.000000	29.399604
1313.000000	29.385395
1312.000000	29.374770
1311.000000	29.382664
1310.000000	29.379515
1309.000000	29.411926
1308.000000	29.409911
1307.000000	29.429425
1306.000000	29.443588
1305.000000	29.441350
1304.000000	29.437251
1303.000000	29.428721
1302.000000	29.424625
1301.000000	29.457030
1300.000000	29.464124
1299.000000	29.474148
1298.000000	29.468728
1297.000000	29.458939
1296.000000	29.463076
1295.000000	29.444058
1294.000000	29.440053
1293.000000	29.436161
1292.000000	29.440290
1291.000000	29.452015
1290.000000	29.435059
1289.000000	29.401147
1288.000000	29.388188
1287.000000	29.396506
1286.000000	29.389543
1285.000000	29.405134
1284.000000	29.407774
1283.000000	29.408822
1282.000000	29.420711
1281.000000	29.411521
1280.000000	29.373655
1279.000000	29.371092
1278.000000	29.362427
1277.000000	29.360870
1276.000000	29.364412
1275.000000	29.379274
1274.000000	29.381945
1273.000000	29.394203
1272.000000	29.372946
1271.000000	29.361677
1270.000000	29.377148
1269.000000	29.378974
1268.000000	29.413806
1267.000000	29.409027
1266.000000	29.449593
1265.000000	29.392449
1264.000000	29.413502
1263.000000	29.401194
1262.000000	29.414211
1261.000000	29.426380
1260.000000	29.453007
1259.000000	29.432378
1258.000000	29.424372
1257.000000	29.418766
1256.000000	29.416013
1255.000000	29.451980
1254.000000	29.476850
1253.000000	29.465222
1252.000000	29.462556
1251.000000	29.449742
1250.000000	29.453551
1249.000000	29.439916
1248.000000	29.447223
1247.000000	29.436355
1246.000000	29.430448
1245.000000	29.450493
1244.000000	29.435959
1243.000000	29.382303
1242.000000	29.382778
1241.000000	29.384303
1240.000000	29.387810
1239.000000	29.373330
1238.000000	29.341403
1237.000000	29.330562
1236.000000	29.344258
1235.000000	29.321550
1234.000000	29.284505
1233.000000	29.270634
1232.000000	29.286051
1231.000000	29.282408
1230.000000	29.235939
1229.000000	29.225194
1228.000000	29.221070
1227.000000	29.216793
1226.000000	29.215839
1225.000000	29.207676
1224.000000	29.166078
1223.000000	29.158977
1222.000000	29.154500
1221.000000	29.126291
1220.000000	29.120103
1219.000000	29.101070
1218.000000	29.092984
1217.000000	29.094160
1216.000000	29.097600
1215.000000	29.096651
1214.000000	29.072773
1213.000000	29.057985
1212.000000	29.051505
1211.000000	29.027335
1210.000000	28.990798
1209.000000	28.965032
1208.000000	28.956417
1207.000000	28.932102
1206.000000	28.908309
1205.000000	28.902694
1204.000000	28.901328
1203.000000	28.872520
1202.000000	28.843057
1201.000000	28.833308
1200.000000	28.818758
1199.000000	28.772274
1198.000000	28.741494
1197.000000	28.737506
1196.000000	28.747660
1195.000000	28.736448
1194.000000	28.716006
1193.000000	28.692100
1192.000000	28.681275
1191.000000	28.669762
1190.000000	28.634132
1189.000000	28.576199
1188.000000	28.568518
1187.000000	28.573662
1186.000000	28.564095
1185.000000	28.557727
1184.000000	28.567423
1183.000000	28.571558
1182.000000	28.581381
1181.000000	28.599975
1180.000000	28.625993
1179.000000	28.649039
1178.000000	28.661331
1177.000000	28.682178
1176.000000	28.709031
1175.000000	28.732907
1174.000000	28.753552
1173.000000	28.784826
1172.000000	28.821134
1171.000000	28.851129
1170.000000	28.887324
1169.000000	28.919270
1168.000000	28.947798
1167.000000	28.978142
1166.000000	29.016353
1165.000000	29.057037
1164.000000	29.102337
1163.000000	29.143933
1162.000000	29.162674
1161.000000	29.175649
1160.000000	29.218277
1159.000000	29.262992
1158.000000	29.298913
1157.000000	29.335180
1156.000000	29.380651
1155.000000	29.419798
1154.000000	29.457648
1153.000000	29.495394
1152.000000	29.525109
1151.000000	29.551221
1150.000000	29.581253
1149.000000	29.608049
1148.000000	29.624006
1147.000000	29.654321
1146.000000	29.680218
1145.000000	29.704325
1144.000000	29.714610
1143.000000	29.707420
1142.000000	29.725053
1141.000000	29.759707
1140.000000	29.786747
1139.000000	29.813378
1138.000000	29.838843
1137.000000	29.862018
1136.000000	29.882040
1135.000000	29.907592
1134.000000	29.936596
1133.000000	29.953612
1132.000000	29.955879
1131.000000	29.979000
1130.000000	29.969146
1129.000000	29.972437
1128.000000	29.986024
1127.000000	30.004551
1126.000000	30.022070
1125.000000	30.041806
1124.000000	30.030300
1123.000000	30.040244
1122.000000	30.051587
1121.000000	30.055349
1120.000000	30.061727
1119.000000	30.078081
1118.000000	30.083372
1117.000000	30.084587
1116.000000	30.086170
1115.000000	30.078157
1114.000000	30.065573
1113.000000	30.081790
1112.000000	30.097774
1111.000000	30.079747
1110.000000	30.082040
1109.000000	30.086345
1108.000000	30.088827
1107.000000	30.087931
1106.000000	30.083928
1105.000000	30.093058
1104.000000	30.064343
1103.000000	30.057190
1102.000000	30.059339
1101.000000	30.075088
1100.000000	30.077977
1099.000000	30.092417
1098.000000	30.106204
1097.000000	30.098646
1096.000000	30.102443
1095.000000	30.071391
1094.000000	30.055347
1093.000000	30.055418
1092.000000	30.066317
1091.000000	30.080101
1090.000000	30.088876
1089.000000	30.098419
1088.000000	30.093887
1087.000000	30.069355
1086.000000	30.055946
1085.000000	30.062252
1084.000000	30.064142
1083.000000	30.080885
1082.000000	30.092637
1081.000000	30.056690
1080.000000	30.048132
1079.000000	30.058221
1078.000000	30.065757
1077.000000	30.079090
1076.000000	30.080766
1075.000000	30.061872
1074.000000	30.043260
1073.000000	30.031302
1072.000000	30.031893
1071.000000	30.030840
1070.000000	30.024328
1069.000000	30.031231
1068.000000	30.042355
1067.000000	30.054191
1066.000000	30.012318
1065.000000	30.023131
1064.000000	30.021521
1063.000000	30.006848
1062.000000	30.015375
1061.000000	30.028444
1060.000000	30.023859
1059.000000	29.996429
1058.000000	29.976204
1057.000000	29.978586
1056.000000	30.008494
1055.000000	29.979141
1054.000000	29.994927
1053.000000	29.958762
1052.000000	29.949886
1051.000000	29.956381
1050.000000	29.964908
1049.000000	29.987490
1048.000000	29.926475
1047.000000	29.955162
1046.000000	29.971714
1045.000000	29.961945
1044.000000	29.947325
1043.000000	29.919864
1042.000000	29.933615
1041.000000	29.938552
1040.000000	29.950821
1039.000000	29.919704
1038.000000	29.920646
1037.000000	29.921064
1036.000000	29.923655
1035.000000	29.935894
1034.000000	29.918548
1033.000000	29.918580
1032.000000	29.928582
1031.000000	29.906234
1030.000000	29.920507
1029.000000	29.930202
1028.000000	29.938249
1027.000000	29.933255
1026.000000	29.925870
1025.000000	29.909202
1024.000000	29.931074
1023.000000	29.900793
1022.000000	29.904684
1021.000000	29.919523
1020.000000	29.935536
1019.000000	29.924538
1018.000000	29.923574
1017.000000	29.930611
1016.000000	29.919355
1015.000000	29.914796
1014.000000	29.940238
1013.000000	29.931445
1012.000000	29.927063
1011.000000	29.953204
1010.000000	29.953460
1009.000000	29.944392
1008.000000	29.933839
1007.000000	29.938392
1006.000000	29.939884
1005.000000	29.968069
1004.000000	29.974695
1003.000000	29.951094
1002.000000	29.928896
1001.000000	29.945744
1000.000000	29.960413
999.000000	29.982014
998.000000	29.979678
997.000000	29.983653
996.000000	29.999357
995.000000	29.993487
994.000000	29.979943
993.000000	29.982930
992.000000	30.000340
991.000000	30.023630
990.000000	29.993773
989.000000	29.983822
988.000000	29.997583
987.000000	30.012150
986.000000	30.010932
985.000000	30.021973
984.000000	30.046373
983.000000	30.055421
982.000000	30.059651
981.000000	30.072086
980.000000	30.086800
979.000000	30.110485
978.000000	30.136145
977.000000	30.150773
976.000000	30.148877
975.000000	30.148938
974.000000	30.167080
973.000000	30.171274
972.000000	30.175482
971.000000	30.197772
970.000000	30.200206
969.000000	30.203432
968.000000	30.216323
967.000000	30.222398
966.000000	30.240640
965.000000	30.245684
964.000000	30.243094
963.000000	30.248468
962.000000	30.250067
961.000000	30.261669
960.000000	30.282544
959.000000	30.293024
958.000000	30.297567
957.000000	30.286040
956.000000	30.285237
955.000000	30.300105
954.000000	30.310882
953.000000	30.309883
952.000000	30.305051
951.000000	30.310090
950.000000	30.325073
949.000000	30.339498
948.000000	30.327689
947.000000	30.324560
946.000000	30.341137
945.000000	30.347428
944.000000	30.337131
943.000000	30.337704
942.000000	30.355798
941.000000	30.355924
940.000000	30.358210
939.000000	30.362863
938.000000	30.358852
937.000000	30.355764
936.000000	30.352773
935.000000	30.366748
934.000000	30.378594
933.000000	30.366965
932.000000	30.360881
931.000000	30.365676
930.000000	30.350725
929.000000	30.353625
928.000000	30.376042
927.000000	30.355885
926.000000	30.349526
925.000000	30.366705
924.000000	30.377073
923.000000	30.373012
922.000000	30.372603
921.000000	30.374639
920.000000	30.365330
919.000000	30.347605
918.000000	30.344232
917.000000	30.360080
916.000000	30.373600
915.000000	30.365104
914.000000	30.353103
913.000000	30.356975
912.000000	30.362489
911.000000	30.389183
910.000000	30.395031
909.000000	30.399220
908.000000	30.377515
907.000000	30.377907
906.000000	30.384920
905.000000	30.405794
904.000000	30.391994
903.000000	30.396735
902.000000	30.402163
901.000000	30.393505
900.000000	30.390859
899.000000	30.381641
898.000000	30.398848
897.000000	30.373085
896.000000	30.411500
895.000000	30.423298
894.000000	30.435652
893.000000	30.405946
892.000000	30.388599
891.000000	30.435737
890.000000	30.454116
889.000000	30.415644
888.000000	30.468851
887.000000	30.499339
886.000000	30.512938
885.000000	30.480692
884.000000	30.437825
883.000000	30.406097
882.000000	30.453518
881.000000	30.459799
880.000000	30.482723
879.000000	30.495023
878.000000	30.480177
877.000000	30.468360
876.000000	30.452606
875.000000	30.504332
874.000000	30.555306
873.000000	30.478301
872.000000	30.485449
871.000000	30.425408
870.000000	30.436241
869.000000	30.473899
868.000000	30.481957
867.000000	30.471616
866.000000	30.487101
865.000000	30.566542
864.000000	30.551373
863.000000	30.470258
862.000000	30.458857
861.000000	30.439180
860.000000	30.458624
859.000000	30.696175
858.000000	30.758629
857.000000	30.790121
856.000000	30.752801
855.000000	30.736501
854.000000	31.035685
853.000000	30.807031
852.000000	30.631064
851.000000	30.697491
850.000000	30.953607
849.000000	30.835223
848.000000	30.772547
847.000000	30.778268
846.000000	30.661747
845.000000	30.720931
844.000000	30.791660
843.000000	30.813256
842.000000	30.659957
841.000000	30.796664
840.000000	30.691421
839.000000	30.737952
838.000000	30.717998
837.000000	30.640563
836.000000	30.719119
835.000000	30.773362
834.000000	30.760175
833.000000	30.728748
832.000000	30.717467
831.000000	30.820703
830.000000	30.670930
829.000000	30.772804
828.000000	30.725515
827.000000	30.674807
826.000000	30.695221
825.000000	30.754093
824.000000	30.737097
823.000000	30.704251
822.000000	30.807902
821.000000	30.668351
820.000000	30.728164
819.000000	30.695823
818.000000	30.670637
817.000000	30.674212
816.000000	30.722446
815.000000	30.748785
814.000000	30.660347
813.000000	30.652548
812.000000	30.710335
811.000000	30.648587
810.000000	30.736070
809.000000	30.770213
808.000000	30.646681
807.000000	30.775828
806.000000	30.656917
805.000000	30.649479
804.000000	30.657019
803.000000	30.704481
802.000000	30.722536
801.000000	30.692544
800.000000	30.607606
799.000000	30.569946
798.000000	30.758785
797.000000	30.680747
796.000000	30.689655
795.000000	30.736646
794.000000	30.699556
793.000000	30.694734
792.000000	30.719285
791.000000	30.628404
790.000000	30.683606
789.000000	30.699281
788.000000	30.641999
787.000000	30.691416
786.000000	30.676875
785.000000	30.602228
784.000000	30.592475
783.000000	30.601941
782.000000	30.611245
781.000000	30.640945
780.000000	30.625758
779.000000	30.610347
778.000000	30.658168
777.000000	30.615930
776.000000	30.591932
775.000000	30.591891
774.000000	30.662018
773.000000	30.639045
772.000000	30.625426
771.000000	30.635302
770.000000	30.593536
769.000000	30.605681
768.000000	30.611509
767.000000	30.666567
766.000000	30.687956
765.000000	30.626405
764.000000	30.617583
763.000000	30.665071
762.000000	30.653426
761.000000	30.608603
760.000000	30.612675
759.000000	30.612776
758.000000	30.610730
757.000000	30.606202
756.000000	30.590572
755.000000	30.600187
754.000000	30.582179
753.000000	30.614530
752.000000	30.568056
751.000000	30.580082
750.000000	30.611493
749.000000	30.625183
748.000000	30.606577
747.000000	30.577706
746.000000	30.546072
745.000000	30.538287
744.000000	30.578326
743.000000	30.530027
742.000000	30.531701
741.000000	30.545769
740.000000	30.528488
739.000000	30.532752
738.000000	30.495443
737.000000	30.505039
736.000000	30.529486
735.000000	30.526162
734.000000	30.535890
733.000000	30.575299
732.000000	30.567565
731.000000	30.553940
730.000000	30.537625
729.000000	30.511484
728.000000	30.527711
727.000000	30.554008
726.000000	30.553214
725.000000	30.539569
724.000000	30.506381
723.000000	30.493693
722.000000	30.538548
721.000000	30.549741
720.000000	30.535652
719.000000	30.516848
718.000000	30.506068
717.000000	30.531653
716.000000	30.499352
715.000000	30.482575
714.000000	30.527525
713.000000	30.549905
712.000000	30.529394
711.000000	30.506942
710.000000	30.460821
709.000000	30.469368
708.000000	30.490793
707.000000	30.473830
706.000000	30.473515
705.000000	30.463127
704.000000	30.456815
703.000000	30.464809
702.000000	30.444095
701.000000	30.422644
700.000000	30.419570
699.000000	30.411865
698.000000	30.427202
697.000000	30.447262
696.000000	30.445616
695.000000	30.437079
694.000000	30.425775
693.000000	30.408005
692.000000	30.435381
691.000000	30.441020
690.000000	30.424619
689.000000	30.376434
688.000000	30.340657
687.000000	30.362291
686.000000	30.375533
685.000000	30.375670
684.000000	30.330438
683.000000	30.312695
682.000000	30.320515
681.000000	30.313860
680.000000	30.302181
679.000000	30.290330
678.000000	30.299122
677.000000	30.312475
676.000000	30.303769
675.000000	30.293776
674.000000	30.269120
673.000000	30.264623
672.000000	30.280967
671.000000	30.248086
670.000000	30.224211
669.000000	30.231044
668.000000	30.262633
667.000000	30.267542
666.000000	30.255070
665.000000	30.253076
664.000000	30.253224
663.000000	30.259356
662.000000	30.270387
661.000000	30.259580
660.000000	30.212173
659.000000	30.207959
658.000000	30.213203
657.000000	30.254357
656.000000	30.213238
655.000000	30.176525
654.000000	30.191636
653.000000	30.192430
652.000000	30.156759
651.000000	30.178902
650.000000	30.161540
649.000000	30.156221
648.000000	30.154674
647.000000	30.132795
646.000000	30.136358
645.000000	30.131300
644.000000	30.124630
643.000000	30.111257
642.000000	30.115720
641.000000	30.119285
640.000000	30.098217
639.000000	30.119502
638.000000	30.080935
637.000000	30.066775
636.000000	30.056677
635.000000	30.051620
634.000000	30.030471
633.000000	30.019871
632.000000	30.013332
631.000000	30.033666
630.000000	30.065211
629.000000	30.023586
628.000000	30.000204
627.000000	30.027248
626.000000	29.984777
625.000000	29.982393
624.000000	29.987504
623.000000	29.983881
622.000000	29.952777
621.000000	29.953160
620.000000	29.936808
619.000000	29.927588
618.000000	29.945127
617.000000	29.958333
616.000000	29.893510
615.000000	29.923109
614.000000	29.902548
613.000000	29.895114
612.000000	29.872932
611.000000	29.869542
610.000000	29.865776
609.000000	29.836405
608.000000	29.822662
607.000000	29.823523
606.000000	29.815595
605.000000	29.815995
604.000000	29.801910
603.000000	29.800183
602.000000	29.782540
601.000000	29.764038
600.000000	29.782500
599.000000	29.754193
598.000000	29.745413
597.000000	29.753009
596.000000	29.745310
595.000000	29.693216
594.000000	29.712919
593.000000	29.679873
592.000000	29.660450
591.000000	29.650926
590.000000	29.640267
589.000000	29.639074
588.000000	29.648308
587.000000	29.619001
586.000000	29.557058
585.000000	29.563045
584.000000	29.543159
583.000000	29.537793
582.000000	29.552983
581.000000	29.542740
580.000000	29.508487
579.000000	29.514371
578.000000	29.457460
577.000000	29.489846
576.000000	29.491840
575.000000	29.433893
574.000000	29.381232
573.000000	29.428507
572.000000	29.390947
571.000000	29.383701
570.000000	29.333203
569.000000	29.391616
568.000000	29.313639
567.000000	29.323820
566.000000	29.321207
565.000000	29.309228
564.000000	29.279039
563.000000	29.261156
562.000000	29.226924
561.000000	29.246382
560.000000	29.244869
559.000000	29.233412
558.000000	29.192709
557.000000	29.191142
556.000000	29.181444
555.000000	29.146005
554.000000	29.152825
553.000000	29.143493
552.000000	29.098892
551.000000	29.079033
550.000000	29.052035
549.000000	29.027718
548.000000	29.030792
547.000000	29.014370
546.000000	28.980515
545.000000	28.973013
544.000000	28.951568
543.000000	28.926198
542.000000	28.902916
541.000000	28.889441
540.000000	28.860180
539.000000	28.832267
538.000000	28.821787
537.000000	28.808378
536.000000	28.783537
535.000000	28.766615
534.000000	28.726151
533.000000	28.691359
532.000000	28.667361
531.000000	28.655006
530.000000	28.617428
529.000000	28.612189
528.000000	28.567052
527.000000	28.535019
526.000000	28.522970
525.000000	28.497263
524.000000	28.457453
523.000000	28.446405
522.000000	28.411388
521.000000	28.388815
520.000000	28.355387
519.000000	28.308701
518.000000	28.266614
517.000000	28.261926
516.000000	28.218979
515.000000	28.194893
514.000000	28.176090
513.000000	28.142877
512.000000	28.109999
511.000000	28.092122
510.000000	28.060568
509.000000	28.029857
508.000000	27.981732
507.000000	27.961523
506.000000	27.912858
505.000000	27.882376
504.000000	27.871629
503.000000	27.850810
502.000000	27.824069
501.000000	27.786845
500.000000	27.758267
499.000000	27.714116
498.000000	27.659312
497.000000	27.631572
496.000000	27.596079
495.000000	27.548870
494.000000	27.509303
493.000000	27.481906
492.000000	27.412293
491.000000	27.398243
490.000000	27.369037
489.000000	27.298650
488.000000	27.272634
487.000000	27.241550
486.000000	27.175873
485.000000	27.158487
484.000000	27.147026
483.000000	27.094569
482.000000	27.033166
481.000000	27.024390
480.000000	26.979506
479.000000	26.924343
478.000000	26.876132
477.000000	26.831660
476.000000	26.787651
475.000000	26.729178
474.000000	26.671001
473.000000	26.633881
472.000000	26.595957
471.000000	26.546770
470.000000	26.504172
469.000000	26.455563
468.000000	26.400601
467.000000	26.363592
466.000000	26.305470
465.000000	26.239771
464.000000	26.197906
463.000000	26.146767
462.000000	26.086573
461.000000	26.047909
460.000000	25.989615
459.000000	25.911493
458.000000	25.861748
457.000000	25.799091
456.000000	25.735065
455.000000	25.673099
454.000000	25.606408
453.000000	25.516435
452.000000	25.453442
451.000000	25.374180
450.000000	25.307857
449.000000	25.253803
448.000000	25.164522
447.000000	25.106108
446.000000	25.033318
445.000000	24.933856
444.000000	24.864973
443.000000	24.804569
442.000000	24.708416
441.000000	24.621320
440.000000	24.555076
439.000000	24.465507
438.000000	24.381558
437.000000	24.308217
436.000000	24.207924
435.000000	24.098277
434.000000	24.005254
433.000000	23.939195
432.000000	23.853982
431.000000	23.744180
430.000000	23.639115
429.000000	23.504229
428.000000	23.407415
427.000000	23.309632
426.000000	23.216219
425.000000	23.086544
424.000000	22.993146
423.000000	22.904426
422.000000	22.793830
421.000000	22.664723
420.000000	22.537771
419.000000	22.437407
418.000000	22.319821
417.000000	22.167764
416.000000	22.062675
415.000000	21.941100
414.000000	21.797278
413.000000	21.670779
412.000000	21.557900
411.000000	21.392752
410.000000	21.243249
409.000000	21.123520
408.000000	20.964042
407.000000	20.850789
406.000000	20.699812
405.000000	20.546850
404.000000	20.411882
403.000000	20.283301
402.000000	20.136398
401.000000	20.022111
400.000000	19.872680
399.000000	19.679285
398.000000	19.529828
397.000000	19.408393
396.000000	19.260344
395.000000	19.096768
394.000000	18.962417
393.000000	18.807517
392.000000	18.618855
391.000000	18.482716
390.000000	18.342535
389.000000	18.179611
388.000000	18.027998
387.000000	17.811075
386.000000	17.646240
385.000000	17.480519
384.000000	17.314215
383.000000	17.145673
382.000000	16.969382
381.000000	16.803029
380.000000	16.579587
379.000000	16.421492
378.000000	16.247410
377.000000	16.087399
376.000000	15.885599
375.000000	15.751245
374.000000	15.495651
373.000000	15.369230
372.000000	15.241389
371.000000	14.969459
370.000000	14.709931
369.000000	14.609422
368.000000	14.431293
367.000000	14.216454
366.000000	14.032443
365.000000	13.867847
364.000000	13.700623
363.000000	13.519131
362.000000	13.316489
361.000000	13.136110
360.000000	12.941734
359.000000	12.799208
358.000000	12.521510
357.000000	12.359355
356.000000	12.201843
355.000000	11.989294
354.000000	11.867478
353.000000	11.784237
352.000000	11.515953
351.000000	11.323933
350.000000	11.147672
349.000000	10.973292
348.000000	10.797848
347.000000	10.673564
346.000000	10.476240
345.000000	10.187028
344.000000	10.049186
343.000000	9.886580
342.000000	9.686216
341.000000	9.505154
340.000000	9.230334
339.000000	8.991670
338.000000	8.830397
337.000000	8.610077
336.000000	8.323421
335.000000	8.082311
334.000000	7.859378
333.000000	7.538702
332.000000	7.370664
331.000000	7.032535
330.000000	6.802752
329.000000	6.514003
328.000000	6.337844
327.000000	6.036195
326.000000	5.884210
325.000000	5.583760
324.000000	5.412903
323.000000	5.303656
322.000000	5.114845
321.000000	4.985320
320.000000	4.806307
319.000000	4.664829
318.000000	4.597173
317.000000	4.468261
316.000000	4.388947
315.000000	4.243200
314.000000	4.150540
313.000000	4.081839
312.000000	3.954368
311.000000	3.881380
310.000000	3.773246
309.000000	3.672667
308.000000	3.577555
307.000000	3.509740
306.000000	3.416471
305.000000	3.320041
304.000000	3.233660
303.000000	3.150707
302.000000	3.092540
301.000000	2.986545
300.000000	2.880302
299.000000	2.789769
298.000000	2.678686
297.000000	2.551010
296.000000	2.403491
295.000000	2.237301
294.000000	2.088718
293.000000	1.916616
292.000000	1.754116
291.000000	1.560079
290.000000	1.373518
289.000000	1.227095
288.000000	1.107868
287.000000	1.002344
286.000000	0.952659
285.000000	0.909958
284.000000	0.895359
283.000000	0.888623
282.000000	0.870616
281.000000	0.872000
280.000000	0.868058
279.000000	0.873021
278.000000	0.884045
277.000000	0.900654
276.000000	0.909125
275.000000	0.932948
274.000000	0.968836
273.000000	0.976740
272.000000	0.992141
271.000000	1.011533
270.000000	1.022828
269.000000	1.026472
268.000000	1.052869
267.000000	1.076723
266.000000	1.103033
265.000000	1.126929
264.000000	1.164726
263.000000	1.199449
262.000000	1.233271
261.000000	1.250092
260.000000	1.266372
259.000000	1.266787
258.000000	1.304089
257.000000	1.349901
256.000000	1.390343
255.000000	1.414562
254.000000	1.397158
253.000000	1.379020
252.000000	1.357673
251.000000	1.319298
250.000000	1.273299
249.000000	1.207759
248.000000	1.118052
247.000000	1.020873
246.000000	0.927120
245.000000	0.824719
244.000000	0.734870
243.000000	0.650331
242.000000	0.580575
241.000000	0.523497
240.000000	0.463420
239.000000	0.409688
238.000000	0.385916
237.000000	0.364352
236.000000	0.342646
235.000000	0.314584
234.000000	0.280007
233.000000	0.267431
232.000000	0.249528
231.000000	0.233397
230.000000	0.208744
229.000000	0.198199
228.000000	0.189447
227.000000	0.161689
226.000000	0.142746
225.000000	0.134900
224.000000	0.124774
223.000000	0.111175
222.000000	0.086019
221.000000	0.083871
220.000000	0.081816
219.000000	0.074919
218.000000	0.082349
217.000000	0.076909
216.000000	0.070780
215.000000	0.074688
214.000000	0.075716
213.000000	0.077982
212.000000	0.081253
211.000000	0.078471
210.000000	0.080097
209.000000	0.078963
208.000000	0.075187
207.000000	0.049996
206.000000	0.063240
205.000000	0.077185
204.000000	0.097485
203.000000	0.086642
202.000000	0.059424
201.000000	0.113038
200.000000	0.186061
