PE UV       SUBTECH     SPECTRUM    ASCII       PEDS        4.00        
   -1
GFRAD1_2.Sample.asc
23/09/07
14:37:52.00
23/09/07
14:37:52.00
Administrator

250.000000
1
Lambda 750
750N8071901
PerkinElmer UV WinLab 6.0.4.0738 / 1.61.00 Lambda 900

0
0
3350/servo 860.8/2
0
0
UV/VIS
1
1
1
CommonBeamDepol,150mm sphere / downward view
0
0
0
0
Program
Program
3350/servo 860.8/2
3350/0.2 860.8/0.2
3350/0.2 860.8/0.2
0
1
 
 
 
0
 
860.8
319.2
860.8
Front
100
on
 
 
0
0
0
 
0
 
 
 
0
 
 
0
0
0
0
0
 
 
 
 
0
0


0
0
#HDR
-1
-1
#GR
nm
%R
1.0
0.0
2500.000000
-10.000000
226
8
75.707461
21.217785
#DATA
2500.000000	41.853780
2490.000000	43.328981
2480.000000	45.273297
2470.000000	45.308735
2460.000000	43.772936
2450.000000	44.471038
2440.000000	45.783486
2430.000000	45.071227
2420.000000	46.097410
2410.000000	46.986722
2400.000000	47.463612
2390.000000	46.705487
2380.000000	48.612100
2370.000000	47.458633
2360.000000	48.984858
2350.000000	48.586288
2340.000000	47.859795
2330.000000	47.516104
2320.000000	46.936026
2310.000000	47.044950
2300.000000	46.345772
2290.000000	46.988615
2280.000000	47.655190
2270.000000	48.513013
2260.000000	50.567457
2250.000000	50.825994
2240.000000	51.417594
2230.000000	50.407512
2220.000000	50.254912
2210.000000	49.738381
2200.000000	50.149708
2190.000000	50.197230
2180.000000	51.402042
2170.000000	52.306361
2160.000000	53.090435
2150.000000	53.902805
2140.000000	53.862288
2130.000000	54.271543
2120.000000	53.851719
2110.000000	53.907761
2100.000000	53.476263
2090.000000	52.946637
2080.000000	51.859954
2070.000000	50.838872
2060.000000	50.296627
2050.000000	50.481828
2040.000000	50.705122
2030.000000	50.668553
2020.000000	49.779050
2010.000000	49.028637
2000.000000	47.824372
1990.000000	47.100592
1980.000000	46.080819
1970.000000	45.401927
1960.000000	45.352624
1950.000000	45.883870
1940.000000	47.107758
1930.000000	49.440640
1920.000000	52.741325
1910.000000	56.186025
1900.000000	59.600630
1890.000000	62.036015
1880.000000	63.478472
1870.000000	63.955434
1860.000000	64.116638
1850.000000	63.869994
1840.000000	63.769272
1830.000000	63.519039
1820.000000	63.264284
1810.000000	63.185558
1800.000000	63.048502
1790.000000	62.893675
1780.000000	62.730388
1770.000000	62.614456
1760.000000	62.391583
1750.000000	62.262931
1740.000000	62.445329
1730.000000	63.129672
1720.000000	63.543357
1710.000000	63.754300
1700.000000	64.173516
1690.000000	65.171792
1680.000000	65.807064
1670.000000	66.168193
1660.000000	66.158909
1650.000000	66.031344
1640.000000	65.755948
1630.000000	65.447929
1620.000000	65.008943
1610.000000	64.624128
1600.000000	64.338047
1590.000000	64.028458
1580.000000	63.713797
1570.000000	63.581491
1560.000000	63.296318
1550.000000	62.786426
1540.000000	62.323652
1530.000000	62.095057
1520.000000	61.912711
1510.000000	61.819360
1500.000000	61.794875
1490.000000	61.860805
1480.000000	62.001584
1470.000000	62.212615
1460.000000	62.680599
1450.000000	63.289813
1440.000000	64.217528
1430.000000	65.358504
1420.000000	66.912645
1410.000000	68.478703
1400.000000	69.613516
1390.000000	70.382279
1380.000000	70.774574
1370.000000	71.157723
1360.000000	71.590622
1350.000000	71.923253
1340.000000	72.116600
1330.000000	72.534000
1320.000000	72.867871
1310.000000	73.114552
1300.000000	73.082080
1290.000000	72.973886
1280.000000	73.051885
1270.000000	72.981161
1260.000000	72.935034
1250.000000	72.935412
1240.000000	72.877645
1230.000000	72.790582
1220.000000	72.530974
1210.000000	72.380458
1200.000000	72.388074
1190.000000	72.579177
1180.000000	73.038910
1170.000000	73.511804
1160.000000	73.739321
1150.000000	74.059951
1140.000000	74.391719
1130.000000	74.471604
1120.000000	74.565348
1110.000000	74.580905
1100.000000	74.734703
1090.000000	74.626646
1080.000000	74.572333
1070.000000	74.523316
1060.000000	74.555769
1050.000000	74.531688
1040.000000	74.493370
1030.000000	74.382651
1020.000000	74.447021
1010.000000	74.630609
1000.000000	74.713511
990.000000	74.823461
980.000000	74.835041
970.000000	74.982571
960.000000	75.136526
950.000000	75.120291
940.000000	75.208531
930.000000	75.134729
920.000000	75.257191
910.000000	75.294912
900.000000	75.393768
890.000000	75.421297
880.000000	75.674376
870.000000	75.539457
860.000000	75.707461
850.000000	75.269286
840.000000	75.377962
830.000000	75.205801
820.000000	75.279547
810.000000	75.372060
800.000000	75.182239
790.000000	74.910767
780.000000	75.226498
770.000000	74.981441
760.000000	74.670423
750.000000	74.716436
740.000000	74.479876
730.000000	74.499019
720.000000	74.202811
710.000000	74.009699
700.000000	73.852906
690.000000	73.688698
680.000000	73.265535
670.000000	73.127836
660.000000	72.784763
650.000000	72.540749
640.000000	72.292643
630.000000	72.025848
620.000000	71.602947
610.000000	71.307941
600.000000	70.994367
590.000000	70.823968
580.000000	70.452337
570.000000	70.050809
560.000000	69.783452
550.000000	69.391387
540.000000	68.896290
530.000000	68.483072
520.000000	68.052913
510.000000	67.463454
500.000000	67.031380
490.000000	66.461788
480.000000	65.663930
470.000000	65.064536
460.000000	64.377715
450.000000	63.377543
440.000000	62.093508
430.000000	60.613063
420.000000	59.234024
410.000000	57.395250
400.000000	55.563669
390.000000	53.540712
380.000000	51.251918
370.000000	48.823959
360.000000	46.574302
350.000000	43.379365
340.000000	41.438383
330.000000	39.333705
320.000000	37.517210
310.000000	35.060345
300.000000	32.509753
290.000000	28.305393
280.000000	24.495232
270.000000	22.843620
260.000000	21.893349
250.000000	21.217785
