PE UV       SUBTECH     SPECTRUM    ASCII       PEDS        4.00        
   -1
GFRAD1_1.Sample.asc
23/09/07
14:32:22.00
23/09/07
14:32:22.00
Administrator

250.000000
1
Lambda 750
750N8071901
PerkinElmer UV WinLab 6.0.4.0738 / 1.61.00 Lambda 900

0
0
3350/servo 860.8/2
0
0
UV/VIS
1
1
1
CommonBeamDepol,150mm sphere / downward view
0
0
0
0
Program
Program
3350/servo 860.8/2
3350/0.2 860.8/0.2
3350/0.2 860.8/0.2
0
1
 
 
 
0
 
860.8
319.2
860.8
Front
100
on
 
 
0
0
0
 
0
 
 
 
0
 
 
0
0
0
0
0
 
 
 
 
0
0


0
0
#HDR
-1
-1
#GR
nm
%R
1.0
0.0
2500.000000
-10.000000
226
8
75.737668
21.568162
#DATA
2500.000000	41.525501
2490.000000	39.855409
2480.000000	42.008635
2470.000000	42.138704
2460.000000	42.012767
2450.000000	43.501489
2440.000000	43.698771
2430.000000	44.211285
2420.000000	43.575406
2410.000000	45.110133
2400.000000	44.320693
2390.000000	45.700714
2380.000000	44.893551
2370.000000	44.963527
2360.000000	46.441704
2350.000000	46.434719
2340.000000	45.885918
2330.000000	44.990973
2320.000000	45.243344
2310.000000	44.379110
2300.000000	43.580869
2290.000000	44.653431
2280.000000	45.486364
2270.000000	46.279554
2260.000000	47.386813
2250.000000	48.743106
2240.000000	48.650282
2230.000000	48.397366
2220.000000	48.264297
2210.000000	47.813184
2200.000000	47.340742
2190.000000	47.783642
2180.000000	48.787507
2170.000000	49.475087
2160.000000	50.665642
2150.000000	51.155854
2140.000000	51.979505
2130.000000	51.296456
2120.000000	51.657297
2110.000000	51.873729
2100.000000	51.250715
2090.000000	50.761836
2080.000000	49.477126
2070.000000	48.648922
2060.000000	48.009844
2050.000000	47.990923
2040.000000	48.457332
2030.000000	48.518058
2020.000000	47.486557
2010.000000	46.639490
2000.000000	45.400864
1990.000000	44.458082
1980.000000	43.183958
1970.000000	42.827065
1960.000000	42.335290
1950.000000	42.807004
1940.000000	44.086062
1930.000000	46.921482
1920.000000	50.506935
1910.000000	54.390177
1900.000000	57.730874
1890.000000	60.531160
1880.000000	62.265228
1870.000000	62.684475
1860.000000	62.901350
1850.000000	62.757885
1840.000000	62.653641
1830.000000	62.365581
1820.000000	62.075705
1810.000000	61.921085
1800.000000	61.659665
1790.000000	61.543441
1780.000000	61.293173
1770.000000	61.195666
1760.000000	61.013112
1750.000000	60.842485
1740.000000	60.939358
1730.000000	61.753786
1720.000000	62.158425
1710.000000	62.439573
1700.000000	62.896866
1690.000000	63.920948
1680.000000	64.745996
1670.000000	65.005688
1660.000000	65.176334
1650.000000	64.947188
1640.000000	64.664211
1630.000000	64.278185
1620.000000	63.854531
1610.000000	63.460336
1600.000000	63.094961
1590.000000	62.753701
1580.000000	62.428427
1570.000000	62.253289
1560.000000	61.959061
1550.000000	61.437290
1540.000000	60.906042
1530.000000	60.535106
1520.000000	60.437691
1510.000000	60.289572
1500.000000	60.208473
1490.000000	60.329716
1480.000000	60.488393
1470.000000	60.717750
1460.000000	61.255065
1450.000000	61.892822
1440.000000	62.854567
1430.000000	64.081359
1420.000000	65.785054
1410.000000	67.608458
1400.000000	68.937904
1390.000000	69.826175
1380.000000	70.215001
1370.000000	70.773163
1360.000000	71.200376
1350.000000	71.626805
1340.000000	71.873202
1330.000000	72.238569
1320.000000	72.602347
1310.000000	72.840934
1300.000000	72.835256
1290.000000	72.733768
1280.000000	72.825613
1270.000000	72.779192
1260.000000	72.684999
1250.000000	72.676160
1240.000000	72.597788
1230.000000	72.487258
1220.000000	72.226921
1210.000000	71.995599
1200.000000	72.008403
1190.000000	72.242721
1180.000000	72.672179
1170.000000	73.401067
1160.000000	73.821722
1150.000000	74.201603
1140.000000	74.463127
1130.000000	74.471128
1120.000000	74.558697
1110.000000	74.631970
1100.000000	74.788178
1090.000000	74.678822
1080.000000	74.622069
1070.000000	74.558503
1060.000000	74.574397
1050.000000	74.537105
1040.000000	74.482541
1030.000000	74.410932
1020.000000	74.502690
1010.000000	74.707929
1000.000000	74.802583
990.000000	74.868415
980.000000	74.970272
970.000000	75.080408
960.000000	75.217053
950.000000	75.220899
940.000000	75.379199
930.000000	75.185501
920.000000	75.349853
910.000000	75.276912
900.000000	75.399812
890.000000	75.380526
880.000000	75.737668
870.000000	75.239135
860.000000	75.630303
850.000000	75.267095
840.000000	75.383175
830.000000	75.242479
820.000000	75.361926
810.000000	75.662495
800.000000	75.385882
790.000000	75.137269
780.000000	75.185968
770.000000	74.939020
760.000000	74.741509
750.000000	74.516796
740.000000	74.538083
730.000000	74.399987
720.000000	74.307210
710.000000	73.970599
700.000000	73.754447
690.000000	73.461313
680.000000	73.200723
670.000000	72.733850
660.000000	72.462707
650.000000	72.196533
640.000000	71.912778
630.000000	71.628609
620.000000	71.156870
610.000000	70.820137
600.000000	70.433310
590.000000	70.191721
580.000000	69.744323
570.000000	69.306968
560.000000	69.015280
550.000000	68.564443
540.000000	68.086287
530.000000	67.590629
520.000000	67.123238
510.000000	66.551716
500.000000	66.046429
490.000000	65.463988
480.000000	64.649012
470.000000	63.991507
460.000000	63.135010
450.000000	62.041755
440.000000	60.728311
430.000000	59.106093
420.000000	57.649283
410.000000	55.737595
400.000000	53.844281
390.000000	51.703535
380.000000	49.484143
370.000000	47.191546
360.000000	44.207865
350.000000	41.756149
340.000000	39.890540
330.000000	37.900693
320.000000	35.945862
310.000000	33.661371
300.000000	31.444763
290.000000	27.751818
280.000000	24.249308
270.000000	23.030677
260.000000	22.123236
250.000000	21.568162
