PE IR       SUBTECH     SPECTRUM    ASCII       PEDS        4.00        
   -1
A5G-F001_1.ASC
23/09/14
10:54:07.00
23/09/14
11:18:22.00
uco
Sample 001 By uco Date Thursday, September 14 2023
450.000000
#HDR
-1
-1
#GR
cm-1
%T
1.0
0.0
4000.000000
-1.000000
3551
8
99.835233
81.873273
#DATA
4000.000000	99.590341
3999.000000	99.595281
3998.000000	99.600831
3997.000000	99.604220
3996.000000	99.604359
3995.000000	99.602086
3994.000000	99.598860
3993.000000	99.595686
3992.000000	99.592779
3991.000000	99.590053
3990.000000	99.587756
3989.000000	99.586649
3988.000000	99.587432
3987.000000	99.589906
3986.000000	99.592675
3985.000000	99.593805
3984.000000	99.591892
3983.000000	99.586861
3982.000000	99.579797
3981.000000	99.572168
3980.000000	99.565465
3979.000000	99.561313
3978.000000	99.561151
3977.000000	99.565307
3976.000000	99.572344
3975.000000	99.579309
3974.000000	99.583133
3973.000000	99.582286
3972.000000	99.577689
3971.000000	99.572061
3970.000000	99.568010
3969.000000	99.566629
3968.000000	99.567318
3967.000000	99.568901
3966.000000	99.570793
3965.000000	99.573030
3964.000000	99.575470
3963.000000	99.577256
3962.000000	99.577338
3961.000000	99.575463
3960.000000	99.572771
3959.000000	99.570778
3958.000000	99.569952
3957.000000	99.569730
3956.000000	99.569218
3955.000000	99.567729
3954.000000	99.564978
3953.000000	99.561436
3952.000000	99.558717
3951.000000	99.558806
3950.000000	99.562449
3949.000000	99.567915
3948.000000	99.571938
3947.000000	99.572561
3946.000000	99.570570
3945.000000	99.568336
3944.000000	99.567591
3943.000000	99.568004
3942.000000	99.568087
3941.000000	99.566488
3940.000000	99.562898
3939.000000	99.557941
3938.000000	99.552605
3937.000000	99.548635
3936.000000	99.547966
3935.000000	99.551360
3934.000000	99.557458
3933.000000	99.562988
3932.000000	99.565148
3931.000000	99.562909
3930.000000	99.556773
3929.000000	99.547833
3928.000000	99.537587
3927.000000	99.529458
3926.000000	99.527256
3925.000000	99.531922
3924.000000	99.540620
3923.000000	99.549191
3922.000000	99.555288
3921.000000	99.559152
3920.000000	99.561963
3919.000000	99.563773
3918.000000	99.562401
3917.000000	99.555703
3916.000000	99.545412
3915.000000	99.536138
3914.000000	99.530935
3913.000000	99.528887
3912.000000	99.527904
3911.000000	99.527219
3910.000000	99.527229
3909.000000	99.528143
3908.000000	99.529821
3907.000000	99.533241
3906.000000	99.540900
3905.000000	99.554508
3904.000000	99.571691
3903.000000	99.585310
3902.000000	99.587880
3901.000000	99.577523
3900.000000	99.558451
3899.000000	99.538548
3898.000000	99.524661
3897.000000	99.518561
3896.000000	99.518343
3895.000000	99.521517
3894.000000	99.526774
3893.000000	99.534018
3892.000000	99.542862
3891.000000	99.550779
3890.000000	99.555077
3889.000000	99.556057
3888.000000	99.556881
3887.000000	99.560460
3886.000000	99.566961
3885.000000	99.574051
3884.000000	99.579013
3883.000000	99.580692
3882.000000	99.578653
3881.000000	99.573057
3880.000000	99.565243
3879.000000	99.556929
3878.000000	99.549212
3877.000000	99.542967
3876.000000	99.539123
3875.000000	99.538657
3874.000000	99.542130
3873.000000	99.548917
3872.000000	99.557038
3871.000000	99.562661
3870.000000	99.561763
3869.000000	99.555032
3868.000000	99.548716
3867.000000	99.548498
3866.000000	99.553797
3865.000000	99.559257
3864.000000	99.561136
3863.000000	99.559852
3862.000000	99.558010
3861.000000	99.557868
3860.000000	99.559543
3859.000000	99.561472
3858.000000	99.561531
3857.000000	99.558733
3856.000000	99.554100
3855.000000	99.549863
3854.000000	99.550026
3853.000000	99.554110
3852.000000	99.554651
3851.000000	99.550187
3850.000000	99.545246
3849.000000	99.542036
3848.000000	99.541273
3847.000000	99.542672
3846.000000	99.544129
3845.000000	99.543055
3844.000000	99.539611
3843.000000	99.536649
3842.000000	99.536788
3841.000000	99.539559
3840.000000	99.542797
3839.000000	99.546179
3838.000000	99.550796
3837.000000	99.555597
3836.000000	99.558051
3835.000000	99.557299
3834.000000	99.554392
3833.000000	99.550116
3832.000000	99.544578
3831.000000	99.539363
3830.000000	99.537007
3829.000000	99.538651
3828.000000	99.542925
3827.000000	99.546757
3826.000000	99.548133
3825.000000	99.548148
3824.000000	99.549767
3823.000000	99.552859
3822.000000	99.553887
3821.000000	99.550236
3820.000000	99.544081
3819.000000	99.540254
3818.000000	99.540293
3817.000000	99.541011
3816.000000	99.538290
3815.000000	99.533816
3814.000000	99.532275
3813.000000	99.534385
3812.000000	99.536737
3811.000000	99.536471
3810.000000	99.533960
3809.000000	99.530758
3808.000000	99.527002
3807.000000	99.522081
3806.000000	99.517430
3805.000000	99.515943
3804.000000	99.519138
3803.000000	99.524464
3802.000000	99.526994
3801.000000	99.524721
3800.000000	99.521477
3799.000000	99.521133
3798.000000	99.523872
3797.000000	99.527069
3796.000000	99.528786
3795.000000	99.529124
3794.000000	99.528717
3793.000000	99.527739
3792.000000	99.526171
3791.000000	99.524015
3790.000000	99.520701
3789.000000	99.515303
3788.000000	99.507730
3787.000000	99.499690
3786.000000	99.493598
3785.000000	99.491268
3784.000000	99.493458
3783.000000	99.499577
3782.000000	99.506714
3781.000000	99.510572
3780.000000	99.509376
3779.000000	99.505882
3778.000000	99.504271
3777.000000	99.505667
3776.000000	99.508537
3775.000000	99.510848
3774.000000	99.511654
3773.000000	99.511527
3772.000000	99.512086
3771.000000	99.514683
3770.000000	99.519437
3769.000000	99.525160
3768.000000	99.529826
3767.000000	99.531856
3766.000000	99.530218
3765.000000	99.525065
3764.000000	99.519352
3763.000000	99.517377
3762.000000	99.520593
3761.000000	99.526876
3760.000000	99.533902
3759.000000	99.540900
3758.000000	99.546714
3757.000000	99.549564
3756.000000	99.550376
3755.000000	99.552841
3754.000000	99.560772
3753.000000	99.575927
3752.000000	99.596692
3751.000000	99.616374
3750.000000	99.624248
3749.000000	99.616510
3748.000000	99.601437
3747.000000	99.588983
3746.000000	99.580537
3745.000000	99.569373
3744.000000	99.553918
3743.000000	99.543223
3742.000000	99.544412
3741.000000	99.555231
3740.000000	99.568533
3739.000000	99.578922
3738.000000	99.582898
3737.000000	99.578343
3736.000000	99.568006
3735.000000	99.561082
3734.000000	99.565044
3733.000000	99.575370
3732.000000	99.582219
3731.000000	99.582365
3730.000000	99.579279
3729.000000	99.576941
3728.000000	99.576410
3727.000000	99.576622
3726.000000	99.576121
3725.000000	99.574150
3724.000000	99.571007
3723.000000	99.568018
3722.000000	99.566956
3721.000000	99.568013
3720.000000	99.570450
3719.000000	99.573893
3718.000000	99.576983
3717.000000	99.577336
3716.000000	99.574704
3715.000000	99.571150
3714.000000	99.566667
3713.000000	99.557833
3712.000000	99.544219
3711.000000	99.533629
3710.000000	99.533387
3709.000000	99.542206
3708.000000	99.554121
3707.000000	99.565000
3706.000000	99.574573
3705.000000	99.582907
3704.000000	99.588590
3703.000000	99.589011
3702.000000	99.582247
3701.000000	99.569565
3700.000000	99.555507
3699.000000	99.545161
3698.000000	99.540698
3697.000000	99.540475
3696.000000	99.542051
3695.000000	99.544393
3694.000000	99.546606
3693.000000	99.547564
3692.000000	99.547924
3691.000000	99.551357
3690.000000	99.559689
3689.000000	99.567275
3688.000000	99.565961
3687.000000	99.555804
3686.000000	99.543403
3685.000000	99.533577
3684.000000	99.527847
3683.000000	99.525998
3682.000000	99.526224
3681.000000	99.525347
3680.000000	99.521452
3679.000000	99.517411
3678.000000	99.519925
3677.000000	99.532943
3676.000000	99.552002
3675.000000	99.566450
3674.000000	99.569820
3673.000000	99.563478
3672.000000	99.551491
3671.000000	99.536206
3670.000000	99.521738
3669.000000	99.514725
3668.000000	99.516912
3667.000000	99.523728
3666.000000	99.529516
3665.000000	99.530023
3664.000000	99.524547
3663.000000	99.516040
3662.000000	99.508473
3661.000000	99.504488
3660.000000	99.505548
3659.000000	99.512778
3658.000000	99.525674
3657.000000	99.540309
3656.000000	99.551257
3655.000000	99.556533
3654.000000	99.558671
3653.000000	99.560116
3652.000000	99.560521
3651.000000	99.558021
3650.000000	99.550596
3649.000000	99.536531
3648.000000	99.518546
3647.000000	99.505038
3646.000000	99.500460
3645.000000	99.501657
3644.000000	99.504131
3643.000000	99.506513
3642.000000	99.509692
3641.000000	99.514567
3640.000000	99.520180
3639.000000	99.523510
3638.000000	99.521715
3637.000000	99.514378
3636.000000	99.504362
3635.000000	99.496214
3634.000000	99.493938
3633.000000	99.499593
3632.000000	99.512734
3631.000000	99.528948
3630.000000	99.539213
3629.000000	99.535014
3628.000000	99.519619
3627.000000	99.505142
3626.000000	99.497079
3625.000000	99.494257
3624.000000	99.495754
3623.000000	99.503295
3622.000000	99.517038
3621.000000	99.530447
3620.000000	99.532418
3619.000000	99.518794
3618.000000	99.498870
3617.000000	99.486527
3616.000000	99.488662
3615.000000	99.502097
3614.000000	99.516556
3613.000000	99.522276
3612.000000	99.518637
3611.000000	99.512453
3610.000000	99.508096
3609.000000	99.502756
3608.000000	99.492541
3607.000000	99.479146
3606.000000	99.467288
3605.000000	99.459114
3604.000000	99.453470
3603.000000	99.448510
3602.000000	99.443131
3601.000000	99.437410
3600.000000	99.433512
3599.000000	99.434893
3598.000000	99.442269
3597.000000	99.452135
3596.000000	99.459966
3595.000000	99.463319
3594.000000	99.463614
3593.000000	99.464731
3592.000000	99.469440
3591.000000	99.476350
3590.000000	99.479685
3589.000000	99.473349
3588.000000	99.457918
3587.000000	99.441735
3586.000000	99.432124
3585.000000	99.427377
3584.000000	99.421965
3583.000000	99.413729
3582.000000	99.404214
3581.000000	99.395259
3580.000000	99.388297
3579.000000	99.384683
3578.000000	99.384942
3577.000000	99.388131
3576.000000	99.393040
3575.000000	99.399241
3574.000000	99.405994
3573.000000	99.412289
3572.000000	99.417546
3571.000000	99.421936
3570.000000	99.424855
3569.000000	99.424801
3568.000000	99.420590
3567.000000	99.413132
3566.000000	99.404872
3565.000000	99.397839
3564.000000	99.391785
3563.000000	99.385538
3562.000000	99.378433
3561.000000	99.370863
3560.000000	99.364402
3559.000000	99.361241
3558.000000	99.361664
3557.000000	99.363393
3556.000000	99.363885
3555.000000	99.362509
3554.000000	99.359843
3553.000000	99.356693
3552.000000	99.354467
3551.000000	99.354993
3550.000000	99.358802
3549.000000	99.364468
3548.000000	99.369675
3547.000000	99.371233
3546.000000	99.364590
3545.000000	99.347088
3544.000000	99.323207
3543.000000	99.302736
3542.000000	99.293358
3541.000000	99.295969
3540.000000	99.306242
3539.000000	99.318504
3538.000000	99.327847
3537.000000	99.331453
3536.000000	99.330233
3535.000000	99.328214
3534.000000	99.328740
3533.000000	99.331373
3532.000000	99.333173
3531.000000	99.331665
3530.000000	99.326469
3529.000000	99.319645
3528.000000	99.314849
3527.000000	99.314531
3526.000000	99.316895
3525.000000	99.317050
3524.000000	99.312354
3523.000000	99.305559
3522.000000	99.301323
3521.000000	99.300958
3520.000000	99.301832
3519.000000	99.300694
3518.000000	99.295959
3517.000000	99.288079
3516.000000	99.279784
3515.000000	99.274846
3514.000000	99.275537
3513.000000	99.280870
3512.000000	99.287682
3511.000000	99.292733
3510.000000	99.293772
3509.000000	99.289988
3508.000000	99.282827
3507.000000	99.275966
3506.000000	99.273207
3505.000000	99.276704
3504.000000	99.286144
3503.000000	99.298357
3502.000000	99.308052
3501.000000	99.310525
3500.000000	99.304612
3499.000000	99.293117
3498.000000	99.280855
3497.000000	99.272233
3496.000000	99.269678
3495.000000	99.272593
3494.000000	99.277466
3493.000000	99.280362
3492.000000	99.280081
3491.000000	99.278345
3490.000000	99.276963
3489.000000	99.275608
3488.000000	99.272715
3487.000000	99.267286
3486.000000	99.259244
3485.000000	99.249235
3484.000000	99.239238
3483.000000	99.232365
3482.000000	99.230813
3481.000000	99.233835
3480.000000	99.238097
3479.000000	99.239834
3478.000000	99.237005
3477.000000	99.230571
3476.000000	99.223822
3475.000000	99.219538
3474.000000	99.217800
3473.000000	99.217789
3472.000000	99.220629
3471.000000	99.227861
3470.000000	99.237272
3469.000000	99.243246
3468.000000	99.242425
3467.000000	99.237378
3466.000000	99.233359
3465.000000	99.232900
3464.000000	99.234500
3463.000000	99.234857
3462.000000	99.231349
3461.000000	99.223664
3460.000000	99.214501
3459.000000	99.207821
3458.000000	99.205482
3457.000000	99.206196
3456.000000	99.207462
3455.000000	99.207470
3454.000000	99.205549
3453.000000	99.202232
3452.000000	99.199288
3451.000000	99.197829
3450.000000	99.196540
3449.000000	99.193718
3448.000000	99.190874
3447.000000	99.191561
3446.000000	99.195848
3445.000000	99.198913
3444.000000	99.196392
3443.000000	99.188382
3442.000000	99.177303
3441.000000	99.164863
3440.000000	99.152768
3439.000000	99.144013
3438.000000	99.140952
3437.000000	99.142958
3436.000000	99.147537
3435.000000	99.152733
3434.000000	99.157413
3433.000000	99.160080
3432.000000	99.159504
3431.000000	99.155943
3430.000000	99.150936
3429.000000	99.146176
3428.000000	99.142765
3427.000000	99.140799
3426.000000	99.139391
3425.000000	99.138025
3424.000000	99.137615
3423.000000	99.138762
3422.000000	99.139166
3421.000000	99.135090
3420.000000	99.126053
3419.000000	99.115949
3418.000000	99.108752
3417.000000	99.105316
3416.000000	99.105058
3415.000000	99.107978
3414.000000	99.113261
3413.000000	99.117815
3412.000000	99.118416
3411.000000	99.114720
3410.000000	99.109021
3409.000000	99.103766
3408.000000	99.100296
3407.000000	99.099133
3406.000000	99.099972
3405.000000	99.101471
3404.000000	99.101629
3403.000000	99.098359
3402.000000	99.090298
3401.000000	99.078247
3400.000000	99.065985
3399.000000	99.058019
3398.000000	99.055663
3397.000000	99.056046
3396.000000	99.055367
3395.000000	99.052360
3394.000000	99.048526
3393.000000	99.046415
3392.000000	99.047838
3391.000000	99.052247
3390.000000	99.056420
3389.000000	99.057114
3388.000000	99.054515
3387.000000	99.051785
3386.000000	99.050698
3385.000000	99.049218
3384.000000	99.044526
3383.000000	99.037097
3382.000000	99.030669
3381.000000	99.028689
3380.000000	99.031439
3379.000000	99.035708
3378.000000	99.037054
3377.000000	99.033403
3376.000000	99.026755
3375.000000	99.020555
3374.000000	99.015520
3373.000000	99.009517
3372.000000	99.001444
3371.000000	98.993315
3370.000000	98.987917
3369.000000	98.986279
3368.000000	98.987933
3367.000000	98.991774
3366.000000	98.995650
3365.000000	98.996927
3364.000000	98.994908
3363.000000	98.991569
3362.000000	98.988939
3361.000000	98.986809
3360.000000	98.983600
3359.000000	98.978085
3358.000000	98.969800
3357.000000	98.959473
3356.000000	98.950017
3355.000000	98.945481
3354.000000	98.947356
3353.000000	98.952710
3352.000000	98.956967
3351.000000	98.957830
3350.000000	98.955971
3349.000000	98.953258
3348.000000	98.951033
3347.000000	98.949217
3346.000000	98.946319
3345.000000	98.941079
3344.000000	98.934735
3343.000000	98.930507
3342.000000	98.930251
3341.000000	98.932452
3340.000000	98.933801
3339.000000	98.931729
3338.000000	98.925539
3337.000000	98.916927
3336.000000	98.909847
3335.000000	98.907939
3334.000000	98.910902
3333.000000	98.914535
3332.000000	98.915068
3331.000000	98.912036
3330.000000	98.906509
3329.000000	98.898551
3328.000000	98.887931
3327.000000	98.876258
3326.000000	98.866880
3325.000000	98.862624
3324.000000	98.863832
3323.000000	98.867737
3322.000000	98.869815
3321.000000	98.867232
3320.000000	98.861544
3319.000000	98.856779
3318.000000	98.854469
3317.000000	98.852003
3316.000000	98.846582
3315.000000	98.839090
3314.000000	98.832905
3313.000000	98.830083
3312.000000	98.829767
3311.000000	98.829258
3310.000000	98.825958
3309.000000	98.819517
3308.000000	98.813178
3307.000000	98.811693
3306.000000	98.816441
3305.000000	98.823190
3304.000000	98.825544
3303.000000	98.820454
3302.000000	98.810418
3301.000000	98.801141
3300.000000	98.797397
3299.000000	98.799959
3298.000000	98.805560
3297.000000	98.810002
3296.000000	98.811584
3295.000000	98.811129
3294.000000	98.809264
3293.000000	98.805464
3292.000000	98.799922
3291.000000	98.794619
3290.000000	98.791698
3289.000000	98.791679
3288.000000	98.793629
3287.000000	98.795986
3286.000000	98.796780
3285.000000	98.794541
3284.000000	98.790025
3283.000000	98.786383
3282.000000	98.786681
3281.000000	98.791185
3280.000000	98.796959
3279.000000	98.799755
3278.000000	98.796883
3277.000000	98.789376
3276.000000	98.781336
3275.000000	98.776270
3274.000000	98.774543
3273.000000	98.775108
3272.000000	98.778270
3271.000000	98.784771
3270.000000	98.792836
3269.000000	98.798747
3268.000000	98.800316
3267.000000	98.797902
3266.000000	98.792413
3265.000000	98.784828
3264.000000	98.778036
3263.000000	98.776222
3262.000000	98.781061
3261.000000	98.790236
3260.000000	98.800340
3259.000000	98.809604
3258.000000	98.817270
3257.000000	98.822689
3256.000000	98.826253
3255.000000	98.829404
3254.000000	98.832375
3253.000000	98.833511
3252.000000	98.832147
3251.000000	98.830563
3250.000000	98.831651
3249.000000	98.835558
3248.000000	98.839824
3247.000000	98.841910
3246.000000	98.840744
3245.000000	98.836673
3244.000000	98.830948
3243.000000	98.825011
3242.000000	98.820007
3241.000000	98.817291
3240.000000	98.818679
3239.000000	98.824710
3238.000000	98.832945
3237.000000	98.839854
3236.000000	98.844512
3235.000000	98.848652
3234.000000	98.852899
3233.000000	98.855411
3232.000000	98.855104
3231.000000	98.853984
3230.000000	98.854901
3229.000000	98.858501
3228.000000	98.863451
3227.000000	98.868235
3226.000000	98.871544
3225.000000	98.872227
3224.000000	98.870226
3223.000000	98.866799
3222.000000	98.863063
3221.000000	98.859326
3220.000000	98.856201
3219.000000	98.855046
3218.000000	98.856343
3217.000000	98.858958
3216.000000	98.861812
3215.000000	98.865224
3214.000000	98.869761
3213.000000	98.874728
3212.000000	98.878615
3211.000000	98.880267
3210.000000	98.879180
3209.000000	98.875615
3208.000000	98.870862
3207.000000	98.866602
3206.000000	98.863710
3205.000000	98.862433
3204.000000	98.863190
3203.000000	98.865885
3202.000000	98.868860
3201.000000	98.870404
3200.000000	98.871142
3199.000000	98.873093
3198.000000	98.876318
3197.000000	98.878886
3196.000000	98.880316
3195.000000	98.882598
3194.000000	98.887119
3193.000000	98.893114
3192.000000	98.899839
3191.000000	98.907569
3190.000000	98.914975
3189.000000	98.918192
3188.000000	98.915013
3187.000000	98.908549
3186.000000	98.904518
3185.000000	98.905694
3184.000000	98.910548
3183.000000	98.916456
3182.000000	98.922154
3181.000000	98.927235
3180.000000	98.930889
3179.000000	98.931941
3178.000000	98.930061
3177.000000	98.926833
3176.000000	98.924933
3175.000000	98.925434
3174.000000	98.926347
3173.000000	98.925165
3172.000000	98.922498
3171.000000	98.921817
3170.000000	98.925709
3169.000000	98.934024
3168.000000	98.945082
3167.000000	98.956303
3166.000000	98.963635
3165.000000	98.963673
3164.000000	98.957690
3163.000000	98.951363
3162.000000	98.949064
3161.000000	98.950147
3160.000000	98.951904
3159.000000	98.953673
3158.000000	98.956325
3157.000000	98.959700
3156.000000	98.963045
3155.000000	98.966896
3154.000000	98.972353
3153.000000	98.978761
3152.000000	98.983628
3151.000000	98.984703
3150.000000	98.981506
3149.000000	98.975433
3148.000000	98.969053
3147.000000	98.964682
3146.000000	98.962913
3145.000000	98.963080
3144.000000	98.965043
3143.000000	98.969196
3142.000000	98.974404
3141.000000	98.977643
3140.000000	98.976897
3139.000000	98.973369
3138.000000	98.970205
3137.000000	98.969866
3136.000000	98.973232
3135.000000	98.979649
3134.000000	98.986957
3133.000000	98.992509
3132.000000	98.995340
3131.000000	98.996448
3130.000000	98.996719
3129.000000	98.995960
3128.000000	98.994463
3127.000000	98.993767
3126.000000	98.994832
3125.000000	98.996785
3124.000000	98.998405
3123.000000	98.999470
3122.000000	98.999626
3121.000000	98.997489
3120.000000	98.992479
3119.000000	98.986713
3118.000000	98.983733
3117.000000	98.985623
3116.000000	98.991655
3115.000000	98.998911
3114.000000	99.003851
3113.000000	99.004671
3112.000000	99.002973
3111.000000	99.002125
3110.000000	99.003138
3109.000000	99.003273
3108.000000	98.999565
3107.000000	98.992627
3106.000000	98.986010
3105.000000	98.982560
3104.000000	98.982187
3103.000000	98.982698
3102.000000	98.982199
3101.000000	98.981093
3100.000000	98.981853
3099.000000	98.986170
3098.000000	98.992506
3097.000000	98.997334
3096.000000	98.998646
3095.000000	98.997301
3094.000000	98.995041
3093.000000	98.992454
3092.000000	98.989091
3091.000000	98.984421
3090.000000	98.978516
3089.000000	98.972796
3088.000000	98.969912
3087.000000	98.971381
3086.000000	98.975233
3085.000000	98.977580
3084.000000	98.976820
3083.000000	98.975051
3082.000000	98.974887
3081.000000	98.976240
3080.000000	98.976582
3079.000000	98.973464
3078.000000	98.966678
3077.000000	98.959101
3076.000000	98.955229
3075.000000	98.957494
3074.000000	98.963938
3073.000000	98.970706
3072.000000	98.976419
3071.000000	98.982406
3070.000000	98.989232
3069.000000	98.995404
3068.000000	98.999530
3067.000000	99.001207
3066.000000	98.999497
3065.000000	98.993301
3064.000000	98.984531
3063.000000	98.978575
3062.000000	98.979702
3061.000000	98.987085
3060.000000	98.995955
3059.000000	99.001440
3058.000000	99.000953
3057.000000	98.995027
3056.000000	98.987296
3055.000000	98.982214
3054.000000	98.981491
3053.000000	98.983289
3052.000000	98.985332
3051.000000	98.987402
3050.000000	98.990102
3049.000000	98.992640
3048.000000	98.992944
3047.000000	98.989449
3046.000000	98.982362
3045.000000	98.974136
3044.000000	98.968812
3043.000000	98.969197
3042.000000	98.973830
3041.000000	98.978103
3040.000000	98.979222
3039.000000	98.979161
3038.000000	98.982071
3037.000000	98.989867
3036.000000	99.000837
3035.000000	99.011210
3034.000000	99.017220
3033.000000	99.016997
3032.000000	99.011731
3031.000000	99.004908
3030.000000	98.999989
3029.000000	98.999020
3028.000000	99.002734
3027.000000	99.010048
3026.000000	99.017449
3025.000000	99.021042
3024.000000	99.020266
3023.000000	99.018258
3022.000000	99.017958
3021.000000	99.019254
3020.000000	99.020348
3019.000000	99.020301
3018.000000	99.019444
3017.000000	99.018858
3016.000000	99.020264
3015.000000	99.025003
3014.000000	99.032208
3013.000000	99.039213
3012.000000	99.044371
3011.000000	99.048072
3010.000000	99.050545
3009.000000	99.050574
3008.000000	99.047449
3007.000000	99.042490
3006.000000	99.037409
3005.000000	99.032600
3004.000000	99.028302
3003.000000	99.026112
3002.000000	99.027623
3001.000000	99.032200
3000.000000	99.037413
2999.000000	99.041265
2998.000000	99.043174
2997.000000	99.043473
2996.000000	99.042912
2995.000000	99.042227
2994.000000	99.041359
2993.000000	99.039384
2992.000000	99.035714
2991.000000	99.030817
2990.000000	99.025416
2989.000000	99.019498
2988.000000	99.012600
2987.000000	99.004676
2986.000000	98.996661
2985.000000	98.990582
2984.000000	98.988583
2983.000000	98.990475
2982.000000	98.992576
2981.000000	98.990609
2980.000000	98.984254
2979.000000	98.977344
2978.000000	98.973245
2977.000000	98.971640
2976.000000	98.970188
2975.000000	98.967463
2974.000000	98.963271
2973.000000	98.957915
2972.000000	98.952445
2971.000000	98.948390
2970.000000	98.945845
2969.000000	98.942583
2968.000000	98.936199
2967.000000	98.926615
2966.000000	98.915869
2965.000000	98.906147
2964.000000	98.898466
2963.000000	98.892503
2962.000000	98.887216
2961.000000	98.882394
2960.000000	98.879602
2959.000000	98.880349
2958.000000	98.883437
2957.000000	98.885751
2956.000000	98.886054
2955.000000	98.886084
2954.000000	98.887430
2953.000000	98.889480
2952.000000	98.891342
2951.000000	98.893764
2950.000000	98.897601
2949.000000	98.902047
2948.000000	98.905971
2947.000000	98.909593
2946.000000	98.913119
2945.000000	98.914734
2944.000000	98.911861
2943.000000	98.904003
2942.000000	98.893138
2941.000000	98.881840
2940.000000	98.872061
2939.000000	98.864844
2938.000000	98.859628
2937.000000	98.854082
2936.000000	98.845728
2935.000000	98.833817
2934.000000	98.819211
2933.000000	98.802963
2932.000000	98.785487
2931.000000	98.766446
2930.000000	98.744801
2929.000000	98.719884
2928.000000	98.693181
2927.000000	98.668147
2926.000000	98.647147
2925.000000	98.629044
2924.000000	98.610647
2923.000000	98.589993
2922.000000	98.567829
2921.000000	98.546687
2920.000000	98.529529
2919.000000	98.518620
2918.000000	98.515022
2917.000000	98.519391
2916.000000	98.533013
2915.000000	98.556636
2914.000000	98.587674
2913.000000	98.620195
2912.000000	98.649140
2911.000000	98.673855
2910.000000	98.696582
2909.000000	98.718353
2908.000000	98.738085
2907.000000	98.754868
2906.000000	98.769573
2905.000000	98.783736
2904.000000	98.797959
2903.000000	98.811510
2902.000000	98.822784
2901.000000	98.829446
2900.000000	98.830481
2899.000000	98.827299
2898.000000	98.824077
2897.000000	98.825581
2896.000000	98.833728
2895.000000	98.845794
2894.000000	98.856630
2893.000000	98.863493
2892.000000	98.868365
2891.000000	98.874837
2890.000000	98.883175
2889.000000	98.889882
2888.000000	98.891912
2887.000000	98.889751
2886.000000	98.885975
2885.000000	98.882373
2884.000000	98.879342
2883.000000	98.877054
2882.000000	98.875939
2881.000000	98.876369
2880.000000	98.878422
2879.000000	98.881641
2878.000000	98.884719
2877.000000	98.885948
2876.000000	98.884420
2875.000000	98.880551
2874.000000	98.875546
2873.000000	98.870923
2872.000000	98.868267
2871.000000	98.868281
2870.000000	98.869809
2869.000000	98.870704
2868.000000	98.869854
2867.000000	98.867574
2866.000000	98.864291
2865.000000	98.860247
2864.000000	98.856474
2863.000000	98.854045
2862.000000	98.851654
2861.000000	98.845776
2860.000000	98.834441
2859.000000	98.819385
2858.000000	98.803408
2857.000000	98.786934
2856.000000	98.768433
2855.000000	98.746892
2854.000000	98.722486
2853.000000	98.695902
2852.000000	98.668908
2851.000000	98.645590
2850.000000	98.631587
2849.000000	98.631754
2848.000000	98.648053
2847.000000	98.678448
2846.000000	98.716966
2845.000000	98.756062
2844.000000	98.790529
2843.000000	98.819550
2842.000000	98.844837
2841.000000	98.867474
2840.000000	98.887060
2839.000000	98.902600
2838.000000	98.913278
2837.000000	98.919187
2836.000000	98.922245
2835.000000	98.925448
2834.000000	98.929993
2833.000000	98.933918
2832.000000	98.934807
2831.000000	98.933367
2830.000000	98.932985
2829.000000	98.936305
2828.000000	98.943486
2827.000000	98.953301
2826.000000	98.964181
2825.000000	98.973881
2824.000000	98.979697
2823.000000	98.980228
2822.000000	98.976751
2821.000000	98.972373
2820.000000	98.969804
2819.000000	98.969813
2818.000000	98.971475
2817.000000	98.973606
2816.000000	98.975835
2815.000000	98.978266
2814.000000	98.980615
2813.000000	98.982412
2812.000000	98.983925
2811.000000	98.985892
2810.000000	98.988100
2809.000000	98.989181
2808.000000	98.988420
2807.000000	98.986942
2806.000000	98.986485
2805.000000	98.987763
2804.000000	98.990549
2803.000000	98.994373
2802.000000	98.998125
2801.000000	98.999833
2800.000000	98.998256
2799.000000	98.994492
2798.000000	98.990950
2797.000000	98.988870
2796.000000	98.987677
2795.000000	98.986482
2794.000000	98.985085
2793.000000	98.983587
2792.000000	98.982155
2791.000000	98.981505
2790.000000	98.982803
2789.000000	98.986517
2788.000000	98.991677
2787.000000	98.996495
2786.000000	98.999625
2785.000000	99.001061
2784.000000	99.002151
2783.000000	99.004462
2782.000000	99.008065
2781.000000	99.011111
2780.000000	99.011778
2779.000000	99.010576
2778.000000	99.010094
2777.000000	99.012407
2776.000000	99.017341
2775.000000	99.023165
2774.000000	99.028188
2773.000000	99.031375
2772.000000	99.032356
2771.000000	99.031657
2770.000000	99.030566
2769.000000	99.030015
2768.000000	99.029469
2767.000000	99.027410
2766.000000	99.023114
2765.000000	99.017810
2764.000000	99.013978
2763.000000	99.013611
2762.000000	99.016869
2761.000000	99.021926
2760.000000	99.026072
2759.000000	99.027632
2758.000000	99.027295
2757.000000	99.027243
2756.000000	99.028653
2755.000000	99.030511
2754.000000	99.031468
2753.000000	99.032121
2752.000000	99.034270
2751.000000	99.038012
2750.000000	99.041177
2749.000000	99.042250
2748.000000	99.042677
2747.000000	99.045054
2746.000000	99.049645
2745.000000	99.053801
2744.000000	99.054693
2743.000000	99.051848
2742.000000	99.047223
2741.000000	99.043556
2740.000000	99.042475
2739.000000	99.043423
2738.000000	99.044291
2737.000000	99.043538
2736.000000	99.041645
2735.000000	99.040362
2734.000000	99.040973
2733.000000	99.043594
2732.000000	99.047284
2731.000000	99.050070
2730.000000	99.049667
2729.000000	99.045531
2728.000000	99.039997
2727.000000	99.036250
2726.000000	99.035286
2725.000000	99.035840
2724.000000	99.036959
2723.000000	99.039118
2722.000000	99.042630
2721.000000	99.046465
2720.000000	99.049308
2719.000000	99.050822
2718.000000	99.051376
2717.000000	99.051477
2716.000000	99.051993
2715.000000	99.053895
2714.000000	99.057009
2713.000000	99.059724
2712.000000	99.060647
2711.000000	99.059999
2710.000000	99.058755
2709.000000	99.057078
2708.000000	99.054586
2707.000000	99.051857
2706.000000	99.050522
2705.000000	99.051464
2704.000000	99.053519
2703.000000	99.054516
2702.000000	99.053511
2701.000000	99.051568
2700.000000	99.050203
2699.000000	99.049552
2698.000000	99.048614
2697.000000	99.047066
2696.000000	99.045966
2695.000000	99.046341
2694.000000	99.047869
2693.000000	99.049432
2692.000000	99.050348
2691.000000	99.050610
2690.000000	99.050627
2689.000000	99.051257
2688.000000	99.053142
2687.000000	99.055167
2686.000000	99.054712
2685.000000	99.050879
2684.000000	99.046590
2683.000000	99.045564
2682.000000	99.047580
2681.000000	99.048854
2680.000000	99.047281
2679.000000	99.045160
2678.000000	99.045671
2677.000000	99.048341
2676.000000	99.049554
2675.000000	99.046908
2674.000000	99.041912
2673.000000	99.038537
2672.000000	99.039647
2671.000000	99.044485
2670.000000	99.049297
2669.000000	99.050623
2668.000000	99.048153
2667.000000	99.044125
2666.000000	99.040335
2665.000000	99.036711
2664.000000	99.032695
2663.000000	99.028538
2662.000000	99.024631
2661.000000	99.020740
2660.000000	99.016878
2659.000000	99.014166
2658.000000	99.013719
2657.000000	99.015012
2656.000000	99.016422
2655.000000	99.017408
2654.000000	99.019322
2653.000000	99.023719
2652.000000	99.030255
2651.000000	99.036682
2650.000000	99.040829
2649.000000	99.042255
2648.000000	99.041797
2647.000000	99.040032
2646.000000	99.037111
2645.000000	99.034152
2644.000000	99.033467
2643.000000	99.036399
2642.000000	99.041652
2641.000000	99.046710
2640.000000	99.050346
2639.000000	99.052818
2638.000000	99.054612
2637.000000	99.056584
2636.000000	99.060568
2635.000000	99.067570
2634.000000	99.075342
2633.000000	99.080039
2632.000000	99.080857
2631.000000	99.081124
2630.000000	99.083859
2629.000000	99.088048
2628.000000	99.090388
2627.000000	99.089308
2626.000000	99.086067
2625.000000	99.082960
2624.000000	99.081643
2623.000000	99.082325
2622.000000	99.083582
2621.000000	99.083587
2620.000000	99.082371
2619.000000	99.082185
2618.000000	99.084972
2617.000000	99.090079
2616.000000	99.094947
2615.000000	99.097268
2614.000000	99.096212
2613.000000	99.092795
2612.000000	99.089787
2611.000000	99.090105
2610.000000	99.094174
2609.000000	99.099372
2608.000000	99.102521
2607.000000	99.102371
2606.000000	99.099665
2605.000000	99.096239
2604.000000	99.094516
2603.000000	99.096186
2602.000000	99.100290
2601.000000	99.103817
2600.000000	99.105132
2599.000000	99.105511
2598.000000	99.106492
2597.000000	99.107331
2596.000000	99.106618
2595.000000	99.104921
2594.000000	99.103999
2593.000000	99.104370
2592.000000	99.105480
2591.000000	99.107519
2590.000000	99.111123
2589.000000	99.115762
2588.000000	99.120317
2587.000000	99.125059
2586.000000	99.130995
2585.000000	99.136999
2584.000000	99.139484
2583.000000	99.135994
2582.000000	99.128187
2581.000000	99.120561
2580.000000	99.116708
2579.000000	99.116978
2578.000000	99.119107
2577.000000	99.120386
2576.000000	99.119480
2575.000000	99.116631
2574.000000	99.112601
2573.000000	99.108011
2572.000000	99.103850
2571.000000	99.101758
2570.000000	99.102821
2569.000000	99.106144
2568.000000	99.109389
2567.000000	99.111174
2566.000000	99.112658
2565.000000	99.116410
2564.000000	99.123441
2563.000000	99.131462
2562.000000	99.136761
2561.000000	99.138155
2560.000000	99.138439
2559.000000	99.140792
2558.000000	99.144440
2557.000000	99.145528
2556.000000	99.142442
2555.000000	99.138328
2554.000000	99.137489
2553.000000	99.140739
2552.000000	99.145184
2551.000000	99.146999
2550.000000	99.143362
2549.000000	99.133804
2548.000000	99.122353
2547.000000	99.117244
2546.000000	99.124747
2545.000000	99.141900
2544.000000	99.157141
2543.000000	99.159918
2542.000000	99.149233
2541.000000	99.132885
2540.000000	99.119787
2539.000000	99.113658
2538.000000	99.112153
2537.000000	99.109708
2536.000000	99.101558
2535.000000	99.087046
2534.000000	99.070072
2533.000000	99.055873
2532.000000	99.047022
2531.000000	99.042358
2530.000000	99.039072
2529.000000	99.034779
2528.000000	99.028357
2527.000000	99.020631
2526.000000	99.014432
2525.000000	99.011926
2524.000000	99.011101
2523.000000	99.006722
2522.000000	98.996454
2521.000000	98.984603
2520.000000	98.977714
2519.000000	98.977125
2518.000000	98.977981
2517.000000	98.975374
2516.000000	98.969546
2515.000000	98.964641
2514.000000	98.963619
2513.000000	98.964637
2512.000000	98.961593
2511.000000	98.949366
2510.000000	98.930286
2509.000000	98.914725
2508.000000	98.912400
2507.000000	98.922901
2506.000000	98.937407
2505.000000	98.949263
2504.000000	98.959481
2503.000000	98.971090
2502.000000	98.982700
2501.000000	98.991169
2500.000000	98.997532
2499.000000	99.006164
2498.000000	99.018440
2497.000000	99.030715
2496.000000	99.038762
2495.000000	99.042019
2494.000000	99.043336
2493.000000	99.046267
2492.000000	99.052914
2491.000000	99.062889
2490.000000	99.073816
2489.000000	99.083427
2488.000000	99.091179
2487.000000	99.097770
2486.000000	99.104099
2485.000000	99.111217
2484.000000	99.119797
2483.000000	99.128381
2482.000000	99.133655
2481.000000	99.133960
2480.000000	99.131464
2479.000000	99.129022
2478.000000	99.126211
2477.000000	99.121075
2476.000000	99.115160
2475.000000	99.114008
2474.000000	99.121664
2473.000000	99.136128
2472.000000	99.150843
2471.000000	99.159933
2470.000000	99.162074
2469.000000	99.160506
2468.000000	99.159662
2467.000000	99.161187
2466.000000	99.162938
2465.000000	99.161776
2464.000000	99.156745
2463.000000	99.149260
2462.000000	99.141702
2461.000000	99.136957
2460.000000	99.137834
2459.000000	99.144598
2458.000000	99.153064
2457.000000	99.156932
2456.000000	99.153118
2455.000000	99.144651
2454.000000	99.138179
2453.000000	99.138881
2452.000000	99.146981
2451.000000	99.158530
2450.000000	99.169479
2449.000000	99.178699
2448.000000	99.186659
2447.000000	99.192306
2446.000000	99.193316
2445.000000	99.189547
2444.000000	99.183927
2443.000000	99.179174
2442.000000	99.175818
2441.000000	99.174310
2440.000000	99.176383
2439.000000	99.182237
2438.000000	99.188282
2437.000000	99.190055
2436.000000	99.186614
2435.000000	99.180852
2434.000000	99.176732
2433.000000	99.177078
2432.000000	99.181712
2431.000000	99.186163
2430.000000	99.184855
2429.000000	99.178019
2428.000000	99.173281
2427.000000	99.177336
2426.000000	99.187983
2425.000000	99.197904
2424.000000	99.204579
2423.000000	99.211979
2422.000000	99.222420
2421.000000	99.231252
2420.000000	99.231632
2419.000000	99.222363
2418.000000	99.209264
2417.000000	99.199633
2416.000000	99.196167
2415.000000	99.195744
2414.000000	99.193834
2413.000000	99.189912
2412.000000	99.187499
2411.000000	99.188793
2410.000000	99.191749
2409.000000	99.193866
2408.000000	99.196510
2407.000000	99.202663
2406.000000	99.211826
2405.000000	99.220271
2404.000000	99.225611
2403.000000	99.228289
2402.000000	99.228789
2401.000000	99.226379
2400.000000	99.221205
2399.000000	99.215526
2398.000000	99.212040
2397.000000	99.211837
2396.000000	99.213926
2395.000000	99.215617
2394.000000	99.213879
2393.000000	99.207734
2392.000000	99.199206
2391.000000	99.191312
2390.000000	99.185612
2389.000000	99.181962
2388.000000	99.179494
2387.000000	99.176165
2386.000000	99.170239
2385.000000	99.163575
2384.000000	99.161728
2383.000000	99.168960
2382.000000	99.182620
2381.000000	99.195994
2380.000000	99.204529
2379.000000	99.207422
2378.000000	99.204975
2377.000000	99.196908
2376.000000	99.183388
2375.000000	99.165479
2374.000000	99.147301
2373.000000	99.137844
2372.000000	99.145643
2371.000000	99.166845
2370.000000	99.184614
2369.000000	99.187046
2368.000000	99.177903
2367.000000	99.167314
2366.000000	99.158177
2365.000000	99.148022
2364.000000	99.136725
2363.000000	99.123701
2362.000000	99.105921
2361.000000	99.084175
2360.000000	99.064196
2359.000000	99.051439
2358.000000	99.050312
2357.000000	99.066282
2356.000000	99.096643
2355.000000	99.126073
2354.000000	99.149757
2353.000000	99.175152
2352.000000	99.197400
2351.000000	99.196033
2350.000000	99.165647
2349.000000	99.122826
2348.000000	99.091124
2347.000000	99.087119
2346.000000	99.105916
2345.000000	99.118961
2344.000000	99.105605
2343.000000	99.076572
2342.000000	99.056284
2341.000000	99.056794
2340.000000	99.069180
2339.000000	99.078805
2338.000000	99.082925
2337.000000	99.089021
2336.000000	99.099583
2335.000000	99.111604
2334.000000	99.125103
2333.000000	99.143852
2332.000000	99.161491
2331.000000	99.166780
2330.000000	99.155023
2329.000000	99.132095
2328.000000	99.100856
2327.000000	99.061665
2326.000000	99.019943
2325.000000	98.989246
2324.000000	98.980005
2323.000000	98.991565
2322.000000	99.011070
2321.000000	99.023444
2320.000000	99.020134
2319.000000	99.005198
2318.000000	98.989884
2317.000000	98.986905
2316.000000	99.001113
2315.000000	99.027987
2314.000000	99.054245
2313.000000	99.069353
2312.000000	99.072002
2311.000000	99.070209
2310.000000	99.070314
2309.000000	99.073434
2308.000000	99.078701
2307.000000	99.087970
2306.000000	99.100179
2305.000000	99.108517
2304.000000	99.105885
2303.000000	99.095087
2302.000000	99.086336
2301.000000	99.086891
2300.000000	99.093516
2299.000000	99.098332
2298.000000	99.096406
2297.000000	99.090066
2296.000000	99.083628
2295.000000	99.078984
2294.000000	99.074442
2293.000000	99.069467
2292.000000	99.066469
2291.000000	99.067889
2290.000000	99.072665
2289.000000	99.078828
2288.000000	99.087533
2287.000000	99.100079
2286.000000	99.111705
2285.000000	99.114395
2284.000000	99.108633
2283.000000	99.105761
2282.000000	99.115241
2281.000000	99.133764
2280.000000	99.151937
2279.000000	99.166541
2278.000000	99.179826
2277.000000	99.190457
2276.000000	99.193219
2275.000000	99.188082
2274.000000	99.182880
2273.000000	99.185382
2272.000000	99.196421
2271.000000	99.212131
2270.000000	99.228566
2269.000000	99.242245
2268.000000	99.248888
2267.000000	99.245041
2266.000000	99.230993
2265.000000	99.211682
2264.000000	99.194667
2263.000000	99.186134
2262.000000	99.187639
2261.000000	99.195963
2260.000000	99.205761
2259.000000	99.212024
2258.000000	99.211674
2257.000000	99.206246
2256.000000	99.203610
2255.000000	99.212459
2254.000000	99.232168
2253.000000	99.250964
2252.000000	99.257197
2251.000000	99.250301
2250.000000	99.238449
2249.000000	99.228909
2248.000000	99.224571
2247.000000	99.226474
2246.000000	99.235682
2245.000000	99.251147
2244.000000	99.268409
2243.000000	99.281169
2242.000000	99.284430
2241.000000	99.278369
2240.000000	99.270103
2239.000000	99.268266
2238.000000	99.273854
2237.000000	99.279593
2236.000000	99.280743
2235.000000	99.282700
2234.000000	99.293541
2233.000000	99.311838
2232.000000	99.326817
2231.000000	99.329171
2230.000000	99.316472
2229.000000	99.289491
2228.000000	99.250395
2227.000000	99.207113
2226.000000	99.174526
2225.000000	99.165984
2224.000000	99.182297
2223.000000	99.210622
2222.000000	99.234581
2221.000000	99.245744
2220.000000	99.247540
2219.000000	99.249382
2218.000000	99.256730
2217.000000	99.265410
2216.000000	99.265263
2215.000000	99.250302
2214.000000	99.226644
2213.000000	99.210313
2212.000000	99.215275
2211.000000	99.241902
2210.000000	99.277783
2209.000000	99.309487
2208.000000	99.331707
2207.000000	99.345207
2206.000000	99.350946
2205.000000	99.351052
2204.000000	99.351132
2203.000000	99.354171
2202.000000	99.352735
2201.000000	99.335641
2200.000000	99.305681
2199.000000	99.283925
2198.000000	99.289869
2197.000000	99.317748
2196.000000	99.336405
2195.000000	99.315124
2194.000000	99.251076
2193.000000	99.173840
2192.000000	99.123111
2191.000000	99.118332
2190.000000	99.148846
2189.000000	99.190006
2188.000000	99.224695
2187.000000	99.248183
2186.000000	99.258962
2185.000000	99.256143
2184.000000	99.247562
2183.000000	99.249694
2182.000000	99.271215
2181.000000	99.300727
2180.000000	99.318273
2179.000000	99.317573
2178.000000	99.310379
2177.000000	99.310384
2176.000000	99.320050
2175.000000	99.334573
2174.000000	99.351828
2173.000000	99.371369
2172.000000	99.384956
2171.000000	99.376300
2170.000000	99.334659
2169.000000	99.268156
2168.000000	99.201334
2167.000000	99.159232
2166.000000	99.154443
2165.000000	99.182907
2164.000000	99.224786
2163.000000	99.255555
2162.000000	99.268403
2161.000000	99.287938
2160.000000	99.350099
2159.000000	99.457094
2158.000000	99.563135
2157.000000	99.621797
2156.000000	99.632335
2155.000000	99.624160
2154.000000	99.615473
2153.000000	99.601746
2152.000000	99.572005
2151.000000	99.522771
2150.000000	99.459878
2149.000000	99.396981
2148.000000	99.352940
2147.000000	99.342505
2146.000000	99.365275
2145.000000	99.404247
2144.000000	99.436637
2143.000000	99.447432
2142.000000	99.435582
2141.000000	99.412069
2140.000000	99.392275
2139.000000	99.386299
2138.000000	99.393739
2137.000000	99.406541
2136.000000	99.415927
2135.000000	99.417833
2134.000000	99.414412
2133.000000	99.411560
2132.000000	99.412928
2131.000000	99.415516
2130.000000	99.413471
2129.000000	99.406214
2128.000000	99.398861
2127.000000	99.393175
2126.000000	99.383654
2125.000000	99.367040
2124.000000	99.351027
2123.000000	99.346337
2122.000000	99.352093
2121.000000	99.356101
2120.000000	99.350321
2119.000000	99.339360
2118.000000	99.331267
2117.000000	99.326051
2116.000000	99.317378
2115.000000	99.302318
2114.000000	99.284416
2113.000000	99.268567
2112.000000	99.256854
2111.000000	99.249645
2110.000000	99.247359
2109.000000	99.249177
2108.000000	99.252287
2107.000000	99.255582
2106.000000	99.263768
2105.000000	99.283346
2104.000000	99.311641
2103.000000	99.333278
2102.000000	99.333798
2101.000000	99.317506
2100.000000	99.305211
2099.000000	99.310270
2098.000000	99.322348
2097.000000	99.320779
2096.000000	99.301400
2095.000000	99.282077
2094.000000	99.281546
2093.000000	99.300046
2092.000000	99.322051
2091.000000	99.332618
2090.000000	99.327895
2089.000000	99.313723
2088.000000	99.297613
2087.000000	99.281885
2086.000000	99.265148
2085.000000	99.249642
2084.000000	99.242506
2083.000000	99.246138
2082.000000	99.251680
2081.000000	99.249322
2080.000000	99.243836
2079.000000	99.251445
2078.000000	99.278389
2077.000000	99.309720
2076.000000	99.325018
2075.000000	99.320705
2074.000000	99.310902
2073.000000	99.308231
2072.000000	99.309869
2071.000000	99.303979
2070.000000	99.285570
2069.000000	99.263181
2068.000000	99.250606
2067.000000	99.254367
2066.000000	99.270681
2065.000000	99.292149
2064.000000	99.314228
2063.000000	99.334784
2062.000000	99.350428
2061.000000	99.356294
2060.000000	99.348142
2059.000000	99.324097
2058.000000	99.288185
2057.000000	99.254252
2056.000000	99.239897
2055.000000	99.249394
2054.000000	99.265981
2053.000000	99.269067
2052.000000	99.259095
2051.000000	99.258877
2050.000000	99.289734
2049.000000	99.348951
2048.000000	99.410961
2047.000000	99.449028
2046.000000	99.452320
2045.000000	99.426254
2044.000000	99.386572
2043.000000	99.352634
2042.000000	99.339065
2041.000000	99.348301
2040.000000	99.369508
2039.000000	99.386761
2038.000000	99.390856
2037.000000	99.386161
2036.000000	99.387270
2035.000000	99.406970
2034.000000	99.445960
2033.000000	99.491405
2032.000000	99.522563
2031.000000	99.521859
2030.000000	99.488513
2029.000000	99.445182
2028.000000	99.424415
2027.000000	99.440117
2026.000000	99.475464
2025.000000	99.502013
2024.000000	99.507934
2023.000000	99.506038
2022.000000	99.517776
2021.000000	99.552203
2020.000000	99.595762
2019.000000	99.620570
2018.000000	99.607730
2017.000000	99.566482
2016.000000	99.524864
2015.000000	99.495831
2014.000000	99.466406
2013.000000	99.426123
2012.000000	99.388942
2011.000000	99.374335
2010.000000	99.379336
2009.000000	99.388151
2008.000000	99.404764
2007.000000	99.453077
2006.000000	99.536344
2005.000000	99.615966
2004.000000	99.647100
2003.000000	99.624785
2002.000000	99.579527
2001.000000	99.537046
2000.000000	99.495868
1999.000000	99.444390
1998.000000	99.390924
1997.000000	99.364814
1996.000000	99.384606
1995.000000	99.435655
1994.000000	99.484631
1993.000000	99.507326
1992.000000	99.501138
1991.000000	99.479446
1990.000000	99.459906
1989.000000	99.454859
1988.000000	99.460175
1987.000000	99.451733
1986.000000	99.405932
1985.000000	99.328353
1984.000000	99.252417
1983.000000	99.205849
1982.000000	99.190901
1981.000000	99.200745
1980.000000	99.238853
1979.000000	99.309513
1978.000000	99.397831
1977.000000	99.472606
1976.000000	99.511111
1975.000000	99.514196
1974.000000	99.500223
1973.000000	99.493909
1972.000000	99.513144
1971.000000	99.555344
1970.000000	99.599939
1969.000000	99.628560
1968.000000	99.638425
1967.000000	99.634631
1966.000000	99.618198
1965.000000	99.589725
1964.000000	99.557486
1963.000000	99.533854
1962.000000	99.528358
1961.000000	99.545320
1960.000000	99.579402
1959.000000	99.611133
1958.000000	99.617257
1957.000000	99.593368
1956.000000	99.560432
1955.000000	99.542063
1954.000000	99.540847
1953.000000	99.541787
1952.000000	99.531568
1951.000000	99.506926
1950.000000	99.470434
1949.000000	99.431457
1948.000000	99.409229
1947.000000	99.421019
1946.000000	99.463289
1945.000000	99.511439
1944.000000	99.540078
1943.000000	99.539948
1942.000000	99.518461
1941.000000	99.491058
1940.000000	99.470139
1939.000000	99.458468
1938.000000	99.451168
1937.000000	99.441148
1936.000000	99.424507
1935.000000	99.403106
1934.000000	99.383285
1933.000000	99.373118
1932.000000	99.378822
1931.000000	99.399189
1930.000000	99.421828
1929.000000	99.430430
1928.000000	99.419228
1927.000000	99.398001
1926.000000	99.382076
1925.000000	99.379019
1924.000000	99.385092
1923.000000	99.390520
1922.000000	99.389132
1921.000000	99.384442
1920.000000	99.384257
1919.000000	99.391016
1918.000000	99.397694
1917.000000	99.395546
1916.000000	99.386992
1915.000000	99.381031
1914.000000	99.382243
1913.000000	99.389149
1912.000000	99.397537
1911.000000	99.403262
1910.000000	99.403257
1909.000000	99.398457
1908.000000	99.394863
1907.000000	99.396323
1906.000000	99.398828
1905.000000	99.395691
1904.000000	99.387779
1903.000000	99.383586
1902.000000	99.389731
1901.000000	99.405418
1900.000000	99.423634
1899.000000	99.434922
1898.000000	99.432465
1897.000000	99.416988
1896.000000	99.398407
1895.000000	99.388709
1894.000000	99.391404
1893.000000	99.400245
1892.000000	99.406998
1891.000000	99.407634
1890.000000	99.402850
1889.000000	99.396179
1888.000000	99.391945
1887.000000	99.390659
1886.000000	99.389679
1885.000000	99.388926
1884.000000	99.390391
1883.000000	99.393540
1882.000000	99.396555
1881.000000	99.401845
1880.000000	99.412262
1879.000000	99.421961
1878.000000	99.420927
1877.000000	99.410202
1876.000000	99.404036
1875.000000	99.412242
1874.000000	99.428339
1873.000000	99.440180
1872.000000	99.445556
1871.000000	99.449783
1870.000000	99.452867
1869.000000	99.447047
1868.000000	99.432185
1867.000000	99.420683
1866.000000	99.417218
1865.000000	99.415828
1864.000000	99.412511
1863.000000	99.407431
1862.000000	99.399597
1861.000000	99.388025
1860.000000	99.377831
1859.000000	99.377706
1858.000000	99.390314
1857.000000	99.410365
1856.000000	99.430951
1855.000000	99.446452
1854.000000	99.452317
1853.000000	99.447535
1852.000000	99.436007
1851.000000	99.421205
1850.000000	99.404423
1849.000000	99.389478
1848.000000	99.383083
1847.000000	99.386583
1846.000000	99.392679
1845.000000	99.395559
1844.000000	99.400001
1843.000000	99.412743
1842.000000	99.428527
1841.000000	99.437860
1840.000000	99.439339
1839.000000	99.438010
1838.000000	99.437382
1837.000000	99.436247
1836.000000	99.433457
1835.000000	99.429365
1834.000000	99.423037
1833.000000	99.413396
1832.000000	99.402195
1831.000000	99.394714
1830.000000	99.394410
1829.000000	99.396951
1828.000000	99.396311
1827.000000	99.390473
1826.000000	99.382947
1825.000000	99.380214
1824.000000	99.385297
1823.000000	99.393736
1822.000000	99.396147
1821.000000	99.388562
1820.000000	99.378639
1819.000000	99.379217
1818.000000	99.394141
1817.000000	99.413010
1816.000000	99.422952
1815.000000	99.419847
1814.000000	99.406339
1813.000000	99.387478
1812.000000	99.369813
1811.000000	99.360192
1810.000000	99.357882
1809.000000	99.353006
1808.000000	99.339269
1807.000000	99.319030
1806.000000	99.294334
1805.000000	99.262520
1804.000000	99.221946
1803.000000	99.174511
1802.000000	99.121709
1801.000000	99.064014
1800.000000	99.006986
1799.000000	98.959910
1798.000000	98.924022
1797.000000	98.895747
1796.000000	98.876290
1795.000000	98.869157
1794.000000	98.875084
1793.000000	98.895489
1792.000000	98.932593
1791.000000	98.984512
1790.000000	99.041870
1789.000000	99.091823
1788.000000	99.128561
1787.000000	99.157108
1786.000000	99.186882
1785.000000	99.221491
1784.000000	99.256708
1783.000000	99.286158
1782.000000	99.306608
1781.000000	99.319939
1780.000000	99.330216
1779.000000	99.340675
1778.000000	99.350045
1777.000000	99.356772
1776.000000	99.364538
1775.000000	99.378330
1774.000000	99.400064
1773.000000	99.427032
1772.000000	99.446399
1771.000000	99.446029
1770.000000	99.430457
1769.000000	99.410973
1768.000000	99.397042
1767.000000	99.394235
1766.000000	99.399310
1765.000000	99.401960
1764.000000	99.395900
1763.000000	99.385410
1762.000000	99.380412
1761.000000	99.384432
1760.000000	99.390526
1759.000000	99.391706
1758.000000	99.388052
1757.000000	99.387283
1756.000000	99.395357
1755.000000	99.408632
1754.000000	99.420464
1753.000000	99.430941
1752.000000	99.446318
1751.000000	99.465761
1750.000000	99.476903
1749.000000	99.472957
1748.000000	99.460293
1747.000000	99.447020
1746.000000	99.435333
1745.000000	99.424064
1744.000000	99.413305
1743.000000	99.406763
1742.000000	99.407715
1741.000000	99.414193
1740.000000	99.421752
1739.000000	99.428928
1738.000000	99.436470
1737.000000	99.444622
1736.000000	99.456442
1735.000000	99.484081
1734.000000	99.528622
1733.000000	99.562612
1732.000000	99.573737
1731.000000	99.572126
1730.000000	99.568550
1729.000000	99.569767
1728.000000	99.577707
1727.000000	99.588638
1726.000000	99.598402
1725.000000	99.605688
1724.000000	99.609827
1723.000000	99.609750
1722.000000	99.604845
1721.000000	99.596467
1720.000000	99.589625
1719.000000	99.592704
1718.000000	99.605322
1717.000000	99.599515
1716.000000	99.563283
1715.000000	99.521145
1714.000000	99.488984
1713.000000	99.466779
1712.000000	99.451124
1711.000000	99.438193
1710.000000	99.423848
1709.000000	99.404924
1708.000000	99.379718
1707.000000	99.348578
1706.000000	99.313656
1705.000000	99.280052
1704.000000	99.257857
1703.000000	99.249208
1702.000000	99.242489
1701.000000	99.227036
1700.000000	99.209714
1699.000000	99.206130
1698.000000	99.203024
1697.000000	99.172329
1696.000000	99.109487
1695.000000	99.050596
1694.000000	99.018921
1693.000000	98.997464
1692.000000	98.972402
1691.000000	98.943283
1690.000000	98.913716
1689.000000	98.889153
1688.000000	98.876356
1687.000000	98.875631
1686.000000	98.872928
1685.000000	98.845963
1684.000000	98.783161
1683.000000	98.713929
1682.000000	98.667721
1681.000000	98.635832
1680.000000	98.610319
1679.000000	98.590713
1678.000000	98.569263
1677.000000	98.532979
1676.000000	98.481567
1675.000000	98.434838
1674.000000	98.409541
1673.000000	98.397233
1672.000000	98.382539
1671.000000	98.360197
1670.000000	98.327451
1669.000000	98.284857
1668.000000	98.245564
1667.000000	98.219101
1666.000000	98.200849
1665.000000	98.179715
1664.000000	98.147891
1663.000000	98.106044
1662.000000	98.060317
1661.000000	98.018238
1660.000000	97.983236
1659.000000	97.953813
1658.000000	97.928095
1657.000000	97.906661
1656.000000	97.892143
1655.000000	97.881910
1654.000000	97.864388
1653.000000	97.824982
1652.000000	97.798913
1651.000000	97.798207
1650.000000	97.798879
1649.000000	97.796222
1648.000000	97.794793
1647.000000	97.794823
1646.000000	97.793267
1645.000000	97.795079
1644.000000	97.802419
1643.000000	97.814071
1642.000000	97.827658
1641.000000	97.840598
1640.000000	97.854850
1639.000000	97.874941
1638.000000	97.899158
1637.000000	97.917539
1636.000000	97.921913
1635.000000	97.919922
1634.000000	97.929054
1633.000000	97.947262
1632.000000	97.968317
1631.000000	97.990153
1630.000000	98.010214
1629.000000	98.028662
1628.000000	98.051602
1627.000000	98.082613
1626.000000	98.116889
1625.000000	98.149331
1624.000000	98.180840
1623.000000	98.211165
1622.000000	98.234603
1621.000000	98.253424
1620.000000	98.277402
1619.000000	98.312721
1618.000000	98.355397
1617.000000	98.391728
1616.000000	98.411928
1615.000000	98.420633
1614.000000	98.425878
1613.000000	98.433574
1612.000000	98.447370
1611.000000	98.465276
1610.000000	98.479099
1609.000000	98.486072
1608.000000	98.494371
1607.000000	98.510686
1606.000000	98.531011
1605.000000	98.549494
1604.000000	98.565488
1603.000000	98.578379
1602.000000	98.584051
1601.000000	98.582264
1600.000000	98.579794
1599.000000	98.580626
1598.000000	98.580958
1597.000000	98.577092
1596.000000	98.572467
1595.000000	98.571201
1594.000000	98.569707
1593.000000	98.562972
1592.000000	98.552311
1591.000000	98.539867
1590.000000	98.522930
1589.000000	98.501128
1588.000000	98.480739
1587.000000	98.464891
1586.000000	98.447466
1585.000000	98.423676
1584.000000	98.398564
1583.000000	98.377374
1582.000000	98.357438
1581.000000	98.336773
1580.000000	98.322601
1579.000000	98.321814
1578.000000	98.330194
1577.000000	98.335911
1576.000000	98.333608
1575.000000	98.328771
1574.000000	98.325365
1573.000000	98.324410
1572.000000	98.327411
1571.000000	98.334885
1570.000000	98.341724
1569.000000	98.343041
1568.000000	98.345612
1567.000000	98.352322
1566.000000	98.356529
1565.000000	98.355290
1564.000000	98.354500
1563.000000	98.357452
1562.000000	98.356435
1561.000000	98.342359
1560.000000	98.326880
1559.000000	98.309966
1558.000000	98.248622
1557.000000	98.182981
1556.000000	98.122383
1555.000000	98.053505
1554.000000	97.973735
1553.000000	97.889267
1552.000000	97.802861
1551.000000	97.711251
1550.000000	97.611501
1549.000000	97.510529
1548.000000	97.418538
1547.000000	97.329841
1546.000000	97.230401
1545.000000	97.117911
1544.000000	97.007982
1543.000000	96.917564
1542.000000	96.839316
1541.000000	96.738918
1540.000000	96.597850
1539.000000	96.460780
1538.000000	96.364719
1537.000000	96.289272
1536.000000	96.217380
1535.000000	96.142742
1534.000000	96.057844
1533.000000	95.963879
1532.000000	95.882661
1531.000000	95.824075
1530.000000	95.766458
1529.000000	95.688125
1528.000000	95.592282
1527.000000	95.498622
1526.000000	95.418657
1525.000000	95.348745
1524.000000	95.282168
1523.000000	95.207826
1522.000000	95.101236
1521.000000	94.954202
1520.000000	94.813348
1519.000000	94.703462
1518.000000	94.591030
1517.000000	94.445579
1516.000000	94.288004
1515.000000	94.157901
1514.000000	94.046457
1513.000000	93.921220
1512.000000	93.777452
1511.000000	93.637773
1510.000000	93.514476
1509.000000	93.394672
1508.000000	93.250160
1507.000000	93.046263
1506.000000	92.814825
1505.000000	92.640744
1504.000000	92.512605
1503.000000	92.392437
1502.000000	92.256505
1501.000000	92.093703
1500.000000	91.913149
1499.000000	91.732263
1498.000000	91.548014
1497.000000	91.342463
1496.000000	91.130339
1495.000000	90.949907
1494.000000	90.799111
1493.000000	90.647410
1492.000000	90.477644
1491.000000	90.290022
1490.000000	90.085359
1489.000000	89.867830
1488.000000	89.661959
1487.000000	89.483076
1486.000000	89.315513
1485.000000	89.145287
1484.000000	88.975993
1483.000000	88.806921
1482.000000	88.627226
1481.000000	88.436013
1480.000000	88.251949
1479.000000	88.083014
1478.000000	87.912226
1477.000000	87.728227
1476.000000	87.548922
1475.000000	87.392776
1474.000000	87.236200
1473.000000	87.041410
1472.000000	86.827871
1471.000000	86.653379
1470.000000	86.518056
1469.000000	86.388585
1468.000000	86.252213
1467.000000	86.109035
1466.000000	85.948480
1465.000000	85.763700
1464.000000	85.583117
1463.000000	85.438590
1462.000000	85.319366
1461.000000	85.199610
1460.000000	85.071565
1459.000000	84.931837
1458.000000	84.757708
1457.000000	84.540593
1456.000000	84.354683
1455.000000	84.244139
1454.000000	84.157872
1453.000000	84.055215
1452.000000	83.939327
1451.000000	83.825789
1450.000000	83.710722
1449.000000	83.582631
1448.000000	83.452299
1447.000000	83.343259
1446.000000	83.255692
1445.000000	83.174007
1444.000000	83.093417
1443.000000	83.016806
1442.000000	82.940353
1441.000000	82.860992
1440.000000	82.783137
1439.000000	82.704329
1438.000000	82.610380
1437.000000	82.500395
1436.000000	82.408104
1435.000000	82.355095
1434.000000	82.314345
1433.000000	82.258432
1432.000000	82.191611
1431.000000	82.128811
1430.000000	82.072589
1429.000000	82.022493
1428.000000	81.988736
1427.000000	81.973071
1426.000000	81.959272
1425.000000	81.940020
1424.000000	81.927460
1423.000000	81.927358
1422.000000	81.923622
1421.000000	81.902403
1420.000000	81.876962
1419.000000	81.873273
1418.000000	81.894221
1417.000000	81.929170
1416.000000	81.977219
1415.000000	82.036237
1414.000000	82.095987
1413.000000	82.154669
1412.000000	82.225141
1411.000000	82.314335
1410.000000	82.411499
1409.000000	82.504687
1408.000000	82.593572
1407.000000	82.680147
1406.000000	82.762943
1405.000000	82.846496
1404.000000	82.936828
1403.000000	83.023329
1402.000000	83.085920
1401.000000	83.120022
1400.000000	83.141499
1399.000000	83.164228
1398.000000	83.187486
1397.000000	83.214038
1396.000000	83.260546
1395.000000	83.338622
1394.000000	83.439903
1393.000000	83.552422
1392.000000	83.671075
1391.000000	83.791198
1390.000000	83.908502
1389.000000	84.030933
1388.000000	84.176094
1387.000000	84.344250
1386.000000	84.513387
1385.000000	84.673855
1384.000000	84.835392
1383.000000	85.002601
1382.000000	85.167097
1381.000000	85.323196
1380.000000	85.476277
1379.000000	85.627687
1378.000000	85.769234
1377.000000	85.899615
1376.000000	86.030021
1375.000000	86.167897
1374.000000	86.308943
1373.000000	86.450708
1372.000000	86.596112
1371.000000	86.741245
1370.000000	86.881420
1369.000000	87.026208
1368.000000	87.184921
1367.000000	87.345747
1366.000000	87.490350
1365.000000	87.622104
1364.000000	87.763137
1363.000000	87.924364
1362.000000	88.093088
1361.000000	88.259287
1360.000000	88.425027
1359.000000	88.587598
1358.000000	88.741910
1357.000000	88.894161
1356.000000	89.054302
1355.000000	89.218471
1354.000000	89.374840
1353.000000	89.522312
1352.000000	89.668114
1351.000000	89.811862
1350.000000	89.947453
1349.000000	90.079322
1348.000000	90.215630
1347.000000	90.352405
1346.000000	90.481286
1345.000000	90.605856
1344.000000	90.732427
1343.000000	90.854048
1342.000000	90.961904
1341.000000	91.065264
1340.000000	91.180250
1339.000000	91.303823
1338.000000	91.422937
1337.000000	91.539759
1336.000000	91.661214
1335.000000	91.780808
1334.000000	91.889644
1333.000000	91.993816
1332.000000	92.103944
1331.000000	92.215816
1330.000000	92.318685
1329.000000	92.415601
1328.000000	92.516413
1327.000000	92.618110
1326.000000	92.710813
1325.000000	92.796847
1324.000000	92.883792
1323.000000	92.968066
1322.000000	93.043544
1321.000000	93.117150
1320.000000	93.198363
1319.000000	93.281525
1318.000000	93.356267
1317.000000	93.426547
1316.000000	93.501455
1315.000000	93.578464
1314.000000	93.652186
1313.000000	93.727912
1312.000000	93.810389
1311.000000	93.890583
1310.000000	93.959371
1309.000000	94.023372
1308.000000	94.092203
1307.000000	94.162300
1306.000000	94.227002
1305.000000	94.291885
1304.000000	94.362723
1303.000000	94.431736
1302.000000	94.491127
1301.000000	94.548363
1300.000000	94.612798
1299.000000	94.679372
1298.000000	94.740558
1297.000000	94.800978
1296.000000	94.865613
1295.000000	94.926234
1294.000000	94.975811
1293.000000	95.022532
1292.000000	95.074580
1291.000000	95.125066
1290.000000	95.166969
1289.000000	95.208732
1288.000000	95.258401
1287.000000	95.306672
1286.000000	95.342958
1285.000000	95.374593
1284.000000	95.412663
1283.000000	95.453121
1282.000000	95.487782
1281.000000	95.521333
1280.000000	95.560737
1279.000000	95.599841
1278.000000	95.630915
1277.000000	95.659391
1276.000000	95.692434
1275.000000	95.724849
1274.000000	95.751393
1273.000000	95.779697
1272.000000	95.815750
1271.000000	95.849210
1270.000000	95.869578
1269.000000	95.884468
1268.000000	95.906099
1267.000000	95.932186
1266.000000	95.955417
1265.000000	95.978278
1264.000000	96.003630
1263.000000	96.024066
1262.000000	96.035382
1261.000000	96.047683
1260.000000	96.068704
1259.000000	96.090241
1258.000000	96.105195
1257.000000	96.121683
1256.000000	96.146307
1255.000000	96.170436
1254.000000	96.186803
1253.000000	96.203557
1252.000000	96.227308
1251.000000	96.247748
1250.000000	96.254637
1249.000000	96.255843
1248.000000	96.263712
1247.000000	96.276845
1246.000000	96.289771
1245.000000	96.306062
1244.000000	96.327579
1243.000000	96.344528
1242.000000	96.350764
1241.000000	96.355720
1240.000000	96.368123
1239.000000	96.381752
1238.000000	96.389890
1237.000000	96.399460
1236.000000	96.417363
1235.000000	96.437198
1234.000000	96.452741
1233.000000	96.470725
1232.000000	96.497152
1231.000000	96.524936
1230.000000	96.547163
1229.000000	96.568231
1228.000000	96.590555
1227.000000	96.606853
1226.000000	96.617709
1225.000000	96.639333
1224.000000	96.679588
1223.000000	96.722664
1222.000000	96.752165
1221.000000	96.773068
1220.000000	96.796533
1219.000000	96.819646
1218.000000	96.836481
1217.000000	96.853411
1216.000000	96.876413
1215.000000	96.896975
1214.000000	96.906509
1213.000000	96.912312
1212.000000	96.924345
1211.000000	96.938976
1210.000000	96.949343
1209.000000	96.958903
1208.000000	96.971610
1207.000000	96.981825
1206.000000	96.986065
1205.000000	96.991693
1204.000000	97.002941
1203.000000	97.012509
1202.000000	97.017283
1201.000000	97.026715
1200.000000	97.044804
1199.000000	97.060456
1198.000000	97.067284
1197.000000	97.075474
1196.000000	97.091889
1195.000000	97.106343
1194.000000	97.110959
1193.000000	97.115561
1192.000000	97.129702
1191.000000	97.146067
1190.000000	97.155902
1189.000000	97.164886
1188.000000	97.179813
1187.000000	97.195149
1186.000000	97.205750
1185.000000	97.217057
1184.000000	97.230581
1183.000000	97.236605
1182.000000	97.233555
1181.000000	97.236336
1180.000000	97.251671
1179.000000	97.264173
1178.000000	97.262180
1177.000000	97.256900
1176.000000	97.260114
1175.000000	97.263632
1174.000000	97.257097
1173.000000	97.247872
1172.000000	97.246275
1171.000000	97.248000
1170.000000	97.247129
1169.000000	97.249626
1168.000000	97.258312
1167.000000	97.261785
1166.000000	97.254063
1165.000000	97.248153
1164.000000	97.254725
1163.000000	97.265172
1162.000000	97.270784
1161.000000	97.279635
1160.000000	97.297946
1159.000000	97.314011
1158.000000	97.318696
1157.000000	97.323311
1156.000000	97.339327
1155.000000	97.358405
1154.000000	97.370447
1153.000000	97.383051
1152.000000	97.404690
1151.000000	97.426817
1150.000000	97.441449
1149.000000	97.458392
1148.000000	97.485504
1147.000000	97.509931
1146.000000	97.518488
1145.000000	97.519750
1144.000000	97.527060
1143.000000	97.537075
1142.000000	97.543393
1141.000000	97.553787
1140.000000	97.574479
1139.000000	97.594138
1138.000000	97.602196
1137.000000	97.607264
1136.000000	97.620116
1135.000000	97.634868
1134.000000	97.643691
1133.000000	97.652686
1132.000000	97.666769
1131.000000	97.676680
1130.000000	97.677686
1129.000000	97.682142
1128.000000	97.696499
1127.000000	97.705474
1126.000000	97.697027
1125.000000	97.683319
1124.000000	97.678775
1123.000000	97.677424
1122.000000	97.670716
1121.000000	97.667790
1120.000000	97.677411
1119.000000	97.688686
1118.000000	97.689171
1117.000000	97.684527
1116.000000	97.681797
1115.000000	97.672963
1114.000000	97.653644
1113.000000	97.638653
1112.000000	97.639598
1111.000000	97.646315
1110.000000	97.648583
1109.000000	97.655140
1108.000000	97.671515
1107.000000	97.681459
1106.000000	97.672252
1105.000000	97.658139
1104.000000	97.657334
1103.000000	97.664812
1102.000000	97.668117
1101.000000	97.670216
1100.000000	97.675164
1099.000000	97.674007
1098.000000	97.662720
1097.000000	97.656722
1096.000000	97.665908
1095.000000	97.675118
1094.000000	97.668995
1093.000000	97.656429
1092.000000	97.650069
1091.000000	97.643348
1090.000000	97.628393
1089.000000	97.615984
1088.000000	97.615443
1087.000000	97.614156
1086.000000	97.598324
1085.000000	97.575450
1084.000000	97.556909
1083.000000	97.537871
1082.000000	97.514648
1081.000000	97.501012
1080.000000	97.506715
1079.000000	97.518771
1078.000000	97.524592
1077.000000	97.533138
1076.000000	97.553388
1075.000000	97.573355
1074.000000	97.581385
1073.000000	97.587521
1072.000000	97.603029
1071.000000	97.619220
1070.000000	97.626375
1069.000000	97.633554
1068.000000	97.649150
1067.000000	97.662429
1066.000000	97.663744
1065.000000	97.663131
1064.000000	97.669254
1063.000000	97.671467
1062.000000	97.661556
1061.000000	97.652096
1060.000000	97.653400
1059.000000	97.653849
1058.000000	97.642955
1057.000000	97.632164
1056.000000	97.633097
1055.000000	97.635731
1054.000000	97.628813
1053.000000	97.621132
1052.000000	97.622912
1051.000000	97.625815
1050.000000	97.621961
1049.000000	97.621312
1048.000000	97.630522
1047.000000	97.637462
1046.000000	97.634947
1045.000000	97.635434
1044.000000	97.644581
1043.000000	97.645777
1042.000000	97.628493
1041.000000	97.608862
1040.000000	97.603026
1039.000000	97.603937
1038.000000	97.601796
1037.000000	97.603763
1036.000000	97.614115
1035.000000	97.619033
1034.000000	97.610567
1033.000000	97.602563
1032.000000	97.604429
1031.000000	97.603286
1030.000000	97.591494
1029.000000	97.586137
1028.000000	97.601057
1027.000000	97.623056
1026.000000	97.636740
1025.000000	97.648159
1024.000000	97.663742
1023.000000	97.670534
1022.000000	97.659838
1021.000000	97.647164
1020.000000	97.646934
1019.000000	97.650112
1018.000000	97.646580
1017.000000	97.647007
1016.000000	97.661777
1015.000000	97.681424
1014.000000	97.696721
1013.000000	97.715644
1012.000000	97.741586
1011.000000	97.759532
1010.000000	97.762180
1009.000000	97.765984
1008.000000	97.782580
1007.000000	97.799016
1006.000000	97.804817
1005.000000	97.812734
1004.000000	97.833901
1003.000000	97.856846
1002.000000	97.871451
1001.000000	97.888654
1000.000000	97.917203
999.000000	97.944526
998.000000	97.960546
997.000000	97.975886
996.000000	97.997746
995.000000	98.013178
994.000000	98.015675
993.000000	98.022272
992.000000	98.043190
991.000000	98.061477
990.000000	98.063891
989.000000	98.066580
988.000000	98.085951
987.000000	98.110103
986.000000	98.122396
985.000000	98.130166
984.000000	98.145677
983.000000	98.161603
982.000000	98.169393
981.000000	98.179533
980.000000	98.200444
979.000000	98.218351
978.000000	98.221824
977.000000	98.224361
976.000000	98.240807
975.000000	98.261726
974.000000	98.274072
973.000000	98.285623
972.000000	98.306852
971.000000	98.329212
970.000000	98.343307
969.000000	98.358528
968.000000	98.383407
967.000000	98.407478
966.000000	98.422569
965.000000	98.441360
964.000000	98.473561
963.000000	98.506119
962.000000	98.526844
961.000000	98.546832
960.000000	98.578383
959.000000	98.612776
958.000000	98.639714
957.000000	98.666556
956.000000	98.698259
955.000000	98.720954
954.000000	98.726612
953.000000	98.731190
952.000000	98.749124
951.000000	98.771885
950.000000	98.791102
949.000000	98.817131
948.000000	98.854773
947.000000	98.885530
946.000000	98.896576
945.000000	98.903242
944.000000	98.921438
943.000000	98.942123
942.000000	98.953643
941.000000	98.965030
940.000000	98.984660
939.000000	99.001307
938.000000	99.007294
937.000000	99.016618
936.000000	99.037550
935.000000	99.053222
934.000000	99.051153
933.000000	99.047465
932.000000	99.058765
931.000000	99.075001
930.000000	99.083028
929.000000	99.091235
928.000000	99.108419
927.000000	99.122939
926.000000	99.126962
925.000000	99.135995
924.000000	99.161667
923.000000	99.188809
922.000000	99.202956
921.000000	99.215060
920.000000	99.236233
919.000000	99.253924
918.000000	99.257087
917.000000	99.259382
916.000000	99.272325
915.000000	99.281743
914.000000	99.275438
913.000000	99.269659
912.000000	99.281116
911.000000	99.298129
910.000000	99.304871
909.000000	99.311178
908.000000	99.331962
907.000000	99.360500
906.000000	99.386986
905.000000	99.419302
904.000000	99.460553
903.000000	99.490309
902.000000	99.495060
901.000000	99.493235
900.000000	99.506166
899.000000	99.527195
898.000000	99.543740
897.000000	99.563420
896.000000	99.593598
895.000000	99.620479
894.000000	99.634029
893.000000	99.648174
892.000000	99.670679
891.000000	99.679035
890.000000	99.646296
889.000000	99.557863
888.000000	99.376826
887.000000	99.027311
886.000000	98.455801
885.000000	97.685165
884.000000	96.772212
883.000000	95.737448
882.000000	94.563870
881.000000	93.251317
880.000000	91.843429
879.000000	90.421011
878.000000	89.091005
877.000000	87.959962
876.000000	87.083301
875.000000	86.445233
874.000000	86.023473
873.000000	85.871555
872.000000	86.134885
871.000000	86.957794
870.000000	88.351659
869.000000	90.129321
868.000000	91.961084
867.000000	93.539160
866.000000	94.733784
865.000000	95.601029
864.000000	96.249172
863.000000	96.738634
862.000000	97.100807
861.000000	97.380760
860.000000	97.614602
859.000000	97.800930
858.000000	97.936887
857.000000	98.048863
856.000000	98.159717
855.000000	98.259433
854.000000	98.336933
853.000000	98.405332
852.000000	98.462932
851.000000	98.468661
850.000000	98.399771
849.000000	98.305634
848.000000	98.266021
847.000000	98.314080
846.000000	98.427666
845.000000	98.569179
844.000000	98.701955
843.000000	98.794927
842.000000	98.847331
841.000000	98.891605
840.000000	98.947972
839.000000	98.998537
838.000000	99.024630
837.000000	99.039795
836.000000	99.061510
835.000000	99.082776
834.000000	99.096173
833.000000	99.114627
832.000000	99.141969
831.000000	99.155590
830.000000	99.145610
829.000000	99.138944
828.000000	99.156476
827.000000	99.179967
826.000000	99.190862
825.000000	99.204040
824.000000	99.231057
823.000000	99.249204
822.000000	99.242791
821.000000	99.234599
820.000000	99.243763
819.000000	99.252676
818.000000	99.246067
817.000000	99.242386
816.000000	99.255500
815.000000	99.264455
814.000000	99.253413
813.000000	99.245722
812.000000	99.264616
811.000000	99.294573
810.000000	99.312897
809.000000	99.326156
808.000000	99.343536
807.000000	99.348932
806.000000	99.332411
805.000000	99.316893
804.000000	99.322369
803.000000	99.335276
802.000000	99.341258
801.000000	99.352517
800.000000	99.374369
799.000000	99.382386
798.000000	99.363992
797.000000	99.345849
796.000000	99.349906
795.000000	99.359576
794.000000	99.358523
793.000000	99.362695
792.000000	99.382502
791.000000	99.392974
790.000000	99.375845
789.000000	99.355503
788.000000	99.359954
787.000000	99.379445
786.000000	99.393193
785.000000	99.403794
784.000000	99.416813
783.000000	99.419807
782.000000	99.409881
781.000000	99.409014
780.000000	99.425745
779.000000	99.435494
778.000000	99.423437
777.000000	99.411644
776.000000	99.419093
775.000000	99.432198
774.000000	99.439730
773.000000	99.457732
772.000000	99.492333
771.000000	99.517493
770.000000	99.518087
769.000000	99.516758
768.000000	99.530195
767.000000	99.538608
766.000000	99.526931
765.000000	99.515769
764.000000	99.521866
763.000000	99.527720
762.000000	99.520678
761.000000	99.520654
760.000000	99.538417
759.000000	99.547933
758.000000	99.533642
757.000000	99.524226
756.000000	99.545360
755.000000	99.577433
754.000000	99.593443
753.000000	99.600670
752.000000	99.611307
751.000000	99.611593
750.000000	99.593626
749.000000	99.580567
748.000000	99.586542
747.000000	99.589205
746.000000	99.572736
745.000000	99.559336
744.000000	99.566610
743.000000	99.574906
742.000000	99.568670
741.000000	99.567839
740.000000	99.586080
739.000000	99.600213
738.000000	99.595188
737.000000	99.595467
736.000000	99.617796
735.000000	99.634684
734.000000	99.621074
733.000000	99.594850
732.000000	99.578177
731.000000	99.562177
730.000000	99.542955
729.000000	99.544486
728.000000	99.572098
727.000000	99.589200
726.000000	99.571930
725.000000	99.543952
724.000000	99.522586
723.000000	99.480129
722.000000	99.393857
721.000000	99.287193
720.000000	99.177216
719.000000	99.018874
718.000000	98.737639
717.000000	98.275795
716.000000	97.594473
715.000000	96.720807
714.000000	95.849256
713.000000	95.308688
712.000000	95.328387
711.000000	95.845998
710.000000	96.590945
709.000000	97.309889
708.000000	97.873997
707.000000	98.250746
706.000000	98.468408
705.000000	98.597262
704.000000	98.695812
703.000000	98.769549
702.000000	98.811578
701.000000	98.850744
700.000000	98.913683
699.000000	98.981765
698.000000	99.027185
697.000000	99.061959
696.000000	99.108261
695.000000	99.151459
694.000000	99.173761
693.000000	99.195498
692.000000	99.233941
691.000000	99.265154
690.000000	99.267838
689.000000	99.266094
688.000000	99.283332
687.000000	99.292008
686.000000	99.270006
685.000000	99.253568
684.000000	99.277849
683.000000	99.316794
682.000000	99.334864
681.000000	99.347794
680.000000	99.377603
679.000000	99.399004
678.000000	99.386452
677.000000	99.360596
676.000000	99.350680
675.000000	99.350040
674.000000	99.346828
673.000000	99.359392
672.000000	99.405094
671.000000	99.475993
670.000000	99.571879
669.000000	99.714053
668.000000	99.835233
667.000000	99.766175
666.000000	99.598001
665.000000	99.466241
664.000000	99.394974
663.000000	99.357301
662.000000	99.324896
661.000000	99.309553
660.000000	99.330022
659.000000	99.366965
658.000000	99.392611
657.000000	99.406547
656.000000	99.420271
655.000000	99.427626
654.000000	99.420300
653.000000	99.413166
652.000000	99.423049
651.000000	99.437488
650.000000	99.439780
649.000000	99.443181
648.000000	99.466341
647.000000	99.495582
646.000000	99.505281
645.000000	99.500249
644.000000	99.496830
643.000000	99.486475
642.000000	99.460753
641.000000	99.440994
640.000000	99.445060
639.000000	99.454857
638.000000	99.450787
637.000000	99.448231
636.000000	99.465619
635.000000	99.482708
634.000000	99.476556
633.000000	99.465919
632.000000	99.474133
631.000000	99.484388
630.000000	99.475010
629.000000	99.463636
628.000000	99.472539
627.000000	99.482781
626.000000	99.464668
625.000000	99.431131
624.000000	99.411517
623.000000	99.403445
622.000000	99.396079
621.000000	99.406549
620.000000	99.446022
619.000000	99.485820
618.000000	99.501690
617.000000	99.517620
616.000000	99.558858
615.000000	99.601636
614.000000	99.615685
613.000000	99.611387
612.000000	99.602637
611.000000	99.570441
610.000000	99.510714
609.000000	99.467863
608.000000	99.471774
607.000000	99.485940
606.000000	99.471031
605.000000	99.454413
604.000000	99.475825
603.000000	99.512378
602.000000	99.520895
601.000000	99.509252
600.000000	99.504259
599.000000	99.495737
598.000000	99.473492
597.000000	99.472053
596.000000	99.514949
595.000000	99.561173
594.000000	99.563586
593.000000	99.541333
592.000000	99.536188
591.000000	99.541225
590.000000	99.532243
589.000000	99.522283
588.000000	99.527315
587.000000	99.528025
586.000000	99.518562
585.000000	99.536074
584.000000	99.589852
583.000000	99.617585
582.000000	99.576364
581.000000	99.515909
580.000000	99.500638
579.000000	99.516820
578.000000	99.524514
577.000000	99.535385
576.000000	99.567671
575.000000	99.589234
574.000000	99.577776
573.000000	99.574711
572.000000	99.606144
571.000000	99.623089
570.000000	99.584472
569.000000	99.538869
568.000000	99.541798
567.000000	99.560025
566.000000	99.541135
565.000000	99.510125
564.000000	99.515466
563.000000	99.541807
562.000000	99.556720
561.000000	99.579864
560.000000	99.628980
559.000000	99.656242
558.000000	99.621927
557.000000	99.571706
556.000000	99.565214
555.000000	99.586347
554.000000	99.595576
553.000000	99.605085
552.000000	99.625947
551.000000	99.610825
550.000000	99.531285
549.000000	99.451346
548.000000	99.438746
547.000000	99.470362
546.000000	99.496966
545.000000	99.531854
544.000000	99.592646
543.000000	99.630684
542.000000	99.604365
541.000000	99.556312
540.000000	99.537344
539.000000	99.520290
538.000000	99.468302
537.000000	99.417179
536.000000	99.411742
535.000000	99.424012
534.000000	99.415740
533.000000	99.409082
532.000000	99.426462
531.000000	99.430175
530.000000	99.396638
529.000000	99.374712
528.000000	99.399878
527.000000	99.423192
526.000000	99.402580
525.000000	99.392759
524.000000	99.438853
523.000000	99.480565
522.000000	99.457133
521.000000	99.409040
520.000000	99.396738
519.000000	99.398180
518.000000	99.374046
517.000000	99.362976
516.000000	99.402306
515.000000	99.442493
514.000000	99.440945
513.000000	99.441733
512.000000	99.483861
511.000000	99.516791
510.000000	99.493298
509.000000	99.462627
508.000000	99.484765
507.000000	99.523024
506.000000	99.519833
505.000000	99.502247
504.000000	99.513265
503.000000	99.527958
502.000000	99.523262
501.000000	99.548689
500.000000	99.627157
499.000000	99.682963
498.000000	99.660545
497.000000	99.612976
496.000000	99.597160
495.000000	99.576050
494.000000	99.511957
493.000000	99.461878
492.000000	99.476241
491.000000	99.489605
490.000000	99.432512
489.000000	99.352880
488.000000	99.319659
487.000000	99.309391
486.000000	99.286348
485.000000	99.295312
484.000000	99.364141
483.000000	99.404339
482.000000	99.343752
481.000000	99.254619
480.000000	99.229960
479.000000	99.247320
478.000000	99.264004
477.000000	99.325693
476.000000	99.456373
475.000000	99.546893
474.000000	99.493917
473.000000	99.364421
472.000000	99.290820
471.000000	99.268560
470.000000	99.236364
469.000000	99.228235
468.000000	99.274969
467.000000	99.290713
466.000000	99.207907
465.000000	99.111845
464.000000	99.094400
463.000000	99.106501
462.000000	99.077490
461.000000	99.069340
460.000000	99.163903
459.000000	99.308859
458.000000	99.413247
457.000000	99.506622
456.000000	99.636207
455.000000	99.721057
454.000000	99.693287
453.000000	99.624298
452.000000	99.604923
451.000000	99.597930
450.000000	99.546528
