PE IR       SUBTECH     SPECTRUM    ASCII       PEDS        4.00        
   -1
A1G-F002_1.ASC
23/09/14
11:01:49.00
23/09/14
11:18:22.00
uco
Sample 002 By uco Date Thursday, September 14 2023
450.000000
#HDR
-1
-1
#GR
cm-1
%T
1.0
0.0
4000.000000
-1.000000
3551
8
99.877237
81.588075
#DATA
4000.000000	99.747326
3999.000000	99.749739
3998.000000	99.751839
3997.000000	99.753077
3996.000000	99.753165
3995.000000	99.752169
3994.000000	99.750660
3993.000000	99.749861
3992.000000	99.750520
3991.000000	99.751665
3990.000000	99.751041
3989.000000	99.747539
3988.000000	99.742890
3987.000000	99.740392
3986.000000	99.741800
3985.000000	99.745530
3984.000000	99.748063
3983.000000	99.747218
3982.000000	99.743674
3981.000000	99.739547
3980.000000	99.736171
3979.000000	99.733553
3978.000000	99.731455
3977.000000	99.730318
3976.000000	99.730973
3975.000000	99.733578
3974.000000	99.737141
3973.000000	99.740154
3972.000000	99.741759
3971.000000	99.742054
3970.000000	99.741386
3969.000000	99.739792
3968.000000	99.737189
3967.000000	99.734233
3966.000000	99.732389
3965.000000	99.732691
3964.000000	99.734410
3963.000000	99.735358
3962.000000	99.733872
3961.000000	99.730161
3960.000000	99.725948
3959.000000	99.722662
3958.000000	99.720590
3957.000000	99.719864
3956.000000	99.720884
3955.000000	99.723523
3954.000000	99.726334
3953.000000	99.727299
3952.000000	99.725749
3951.000000	99.723070
3950.000000	99.721757
3949.000000	99.723105
3948.000000	99.725836
3947.000000	99.727591
3946.000000	99.727305
3945.000000	99.726169
3944.000000	99.726312
3943.000000	99.728325
3942.000000	99.730654
3941.000000	99.730712
3940.000000	99.727238
3939.000000	99.721326
3938.000000	99.715251
3937.000000	99.711185
3936.000000	99.709772
3935.000000	99.710191
3934.000000	99.711362
3933.000000	99.712595
3932.000000	99.713986
3931.000000	99.715279
3930.000000	99.715251
3929.000000	99.712117
3928.000000	99.704807
3927.000000	99.695394
3926.000000	99.688078
3925.000000	99.685801
3924.000000	99.688000
3923.000000	99.691720
3922.000000	99.694954
3921.000000	99.698500
3920.000000	99.704356
3919.000000	99.712677
3918.000000	99.719937
3917.000000	99.721619
3916.000000	99.717248
3915.000000	99.710568
3914.000000	99.705435
3913.000000	99.702446
3912.000000	99.700366
3911.000000	99.697911
3910.000000	99.694460
3909.000000	99.690029
3908.000000	99.685234
3907.000000	99.682473
3906.000000	99.685970
3905.000000	99.698811
3904.000000	99.718251
3903.000000	99.734617
3902.000000	99.738448
3901.000000	99.729246
3900.000000	99.714467
3899.000000	99.703044
3898.000000	99.698650
3897.000000	99.698317
3896.000000	99.697729
3895.000000	99.695207
3894.000000	99.692305
3893.000000	99.692271
3892.000000	99.697172
3891.000000	99.705091
3890.000000	99.711688
3889.000000	99.714432
3888.000000	99.714295
3887.000000	99.713587
3886.000000	99.713241
3885.000000	99.712298
3884.000000	99.708838
3883.000000	99.702339
3882.000000	99.695145
3881.000000	99.691636
3880.000000	99.694099
3879.000000	99.699618
3878.000000	99.703558
3877.000000	99.704931
3876.000000	99.705728
3875.000000	99.707251
3874.000000	99.708523
3873.000000	99.707974
3872.000000	99.705809
3871.000000	99.703192
3870.000000	99.700757
3869.000000	99.698861
3868.000000	99.698490
3867.000000	99.701019
3866.000000	99.705971
3865.000000	99.710918
3864.000000	99.714284
3863.000000	99.715966
3862.000000	99.716492
3861.000000	99.716138
3860.000000	99.713876
3859.000000	99.708750
3858.000000	99.701247
3857.000000	99.694334
3856.000000	99.692693
3855.000000	99.700131
3854.000000	99.717265
3853.000000	99.734392
3852.000000	99.738205
3851.000000	99.729921
3850.000000	99.719149
3849.000000	99.710237
3848.000000	99.702588
3847.000000	99.693566
3846.000000	99.681372
3845.000000	99.667383
3844.000000	99.656434
3843.000000	99.653232
3842.000000	99.659368
3841.000000	99.672331
3840.000000	99.687588
3839.000000	99.701264
3838.000000	99.710605
3837.000000	99.714308
3836.000000	99.713489
3835.000000	99.710836
3834.000000	99.708199
3833.000000	99.704802
3832.000000	99.698476
3831.000000	99.689664
3830.000000	99.681422
3829.000000	99.676759
3828.000000	99.676575
3827.000000	99.679377
3826.000000	99.682913
3825.000000	99.685748
3824.000000	99.687918
3823.000000	99.689183
3822.000000	99.689787
3821.000000	99.690799
3820.000000	99.691507
3819.000000	99.689861
3818.000000	99.685715
3817.000000	99.681282
3816.000000	99.678819
3815.000000	99.680234
3814.000000	99.684869
3813.000000	99.689696
3812.000000	99.691674
3811.000000	99.689331
3810.000000	99.683740
3809.000000	99.677348
3808.000000	99.671981
3807.000000	99.668233
3806.000000	99.666416
3805.000000	99.666492
3804.000000	99.668253
3803.000000	99.669786
3802.000000	99.668658
3801.000000	99.665534
3800.000000	99.664222
3799.000000	99.666361
3798.000000	99.671554
3797.000000	99.677956
3796.000000	99.682864
3795.000000	99.684169
3794.000000	99.681617
3793.000000	99.676984
3792.000000	99.672822
3791.000000	99.670885
3790.000000	99.671311
3789.000000	99.673029
3788.000000	99.674446
3787.000000	99.674556
3786.000000	99.673060
3785.000000	99.670204
3784.000000	99.666721
3783.000000	99.663484
3782.000000	99.660578
3781.000000	99.657584
3780.000000	99.655125
3779.000000	99.654712
3778.000000	99.656783
3777.000000	99.659619
3776.000000	99.661264
3775.000000	99.661031
3774.000000	99.660127
3773.000000	99.661009
3772.000000	99.665572
3771.000000	99.673321
3770.000000	99.681434
3769.000000	99.686874
3768.000000	99.687998
3767.000000	99.685732
3766.000000	99.682429
3765.000000	99.679959
3764.000000	99.679340
3763.000000	99.681130
3762.000000	99.685157
3761.000000	99.690327
3760.000000	99.695327
3759.000000	99.698851
3758.000000	99.699855
3757.000000	99.698787
3756.000000	99.697881
3755.000000	99.699310
3754.000000	99.704404
3753.000000	99.714264
3752.000000	99.729666
3751.000000	99.748041
3750.000000	99.761106
3749.000000	99.762585
3748.000000	99.755573
3747.000000	99.747113
3746.000000	99.739581
3745.000000	99.729718
3744.000000	99.717989
3743.000000	99.711121
3742.000000	99.713067
3741.000000	99.721962
3740.000000	99.732929
3739.000000	99.742445
3738.000000	99.748926
3737.000000	99.752560
3736.000000	99.754315
3735.000000	99.755378
3734.000000	99.757155
3733.000000	99.757882
3732.000000	99.754542
3731.000000	99.747195
3730.000000	99.738302
3729.000000	99.730224
3728.000000	99.723589
3727.000000	99.718014
3726.000000	99.713187
3725.000000	99.708917
3724.000000	99.704573
3723.000000	99.700045
3722.000000	99.697269
3721.000000	99.697558
3720.000000	99.700384
3719.000000	99.704305
3718.000000	99.707371
3717.000000	99.707827
3716.000000	99.705761
3715.000000	99.702905
3714.000000	99.700060
3713.000000	99.696124
3712.000000	99.691474
3711.000000	99.690088
3710.000000	99.694349
3709.000000	99.702606
3708.000000	99.711473
3707.000000	99.718485
3706.000000	99.723408
3705.000000	99.726699
3704.000000	99.728787
3703.000000	99.729899
3702.000000	99.729690
3701.000000	99.727515
3700.000000	99.723337
3699.000000	99.718943
3698.000000	99.716529
3697.000000	99.716032
3696.000000	99.715587
3695.000000	99.713343
3694.000000	99.708411
3693.000000	99.701198
3692.000000	99.694343
3691.000000	99.693022
3690.000000	99.700908
3689.000000	99.713315
3688.000000	99.718946
3687.000000	99.712567
3686.000000	99.698989
3685.000000	99.685559
3684.000000	99.677010
3683.000000	99.675171
3682.000000	99.679520
3681.000000	99.687472
3680.000000	99.695021
3679.000000	99.700373
3678.000000	99.706302
3677.000000	99.715486
3676.000000	99.724129
3675.000000	99.724290
3674.000000	99.714572
3673.000000	99.700284
3672.000000	99.686937
3671.000000	99.675440
3670.000000	99.665891
3669.000000	99.661681
3668.000000	99.664457
3667.000000	99.670934
3666.000000	99.677265
3665.000000	99.681190
3664.000000	99.682961
3663.000000	99.684071
3662.000000	99.685030
3661.000000	99.684848
3660.000000	99.682625
3659.000000	99.679870
3658.000000	99.680362
3657.000000	99.686911
3656.000000	99.697580
3655.000000	99.706640
3654.000000	99.710989
3653.000000	99.712456
3652.000000	99.714550
3651.000000	99.718690
3650.000000	99.721254
3649.000000	99.714615
3648.000000	99.697481
3647.000000	99.679520
3646.000000	99.668802
3645.000000	99.664576
3644.000000	99.662606
3643.000000	99.660436
3642.000000	99.658222
3641.000000	99.657555
3640.000000	99.658797
3639.000000	99.660156
3638.000000	99.660336
3637.000000	99.660670
3636.000000	99.663980
3635.000000	99.671081
3634.000000	99.679573
3633.000000	99.686441
3632.000000	99.690859
3631.000000	99.693167
3630.000000	99.693187
3629.000000	99.690553
3628.000000	99.687440
3627.000000	99.686861
3626.000000	99.688435
3625.000000	99.690961
3624.000000	99.693904
3623.000000	99.698283
3622.000000	99.705501
3621.000000	99.714196
3620.000000	99.719024
3619.000000	99.715649
3618.000000	99.706110
3617.000000	99.697304
3616.000000	99.695027
3615.000000	99.700165
3614.000000	99.708429
3613.000000	99.713068
3612.000000	99.710038
3611.000000	99.699608
3610.000000	99.684079
3609.000000	99.666045
3608.000000	99.649692
3607.000000	99.639695
3606.000000	99.636803
3605.000000	99.637221
3604.000000	99.636014
3603.000000	99.631190
3602.000000	99.624714
3601.000000	99.620170
3600.000000	99.620050
3599.000000	99.624716
3598.000000	99.632371
3597.000000	99.640284
3596.000000	99.646378
3595.000000	99.649341
3594.000000	99.649918
3593.000000	99.649958
3592.000000	99.650256
3591.000000	99.649564
3590.000000	99.645945
3589.000000	99.638794
3588.000000	99.630127
3587.000000	99.622866
3586.000000	99.618529
3585.000000	99.614895
3584.000000	99.608444
3583.000000	99.598673
3582.000000	99.588979
3581.000000	99.583246
3580.000000	99.582863
3579.000000	99.586106
3578.000000	99.590541
3577.000000	99.594983
3576.000000	99.599438
3575.000000	99.603673
3574.000000	99.606639
3573.000000	99.608003
3572.000000	99.608381
3571.000000	99.608599
3570.000000	99.608585
3569.000000	99.607452
3568.000000	99.603008
3567.000000	99.593306
3566.000000	99.580210
3565.000000	99.569057
3564.000000	99.562088
3563.000000	99.557740
3562.000000	99.554437
3561.000000	99.552671
3560.000000	99.553839
3559.000000	99.558396
3558.000000	99.564534
3557.000000	99.569301
3556.000000	99.570770
3555.000000	99.569346
3554.000000	99.566850
3553.000000	99.565118
3552.000000	99.565159
3551.000000	99.567105
3550.000000	99.570385
3549.000000	99.573649
3548.000000	99.574678
3547.000000	99.570527
3546.000000	99.558986
3545.000000	99.541404
3544.000000	99.523424
3543.000000	99.511166
3542.000000	99.507458
3541.000000	99.510950
3540.000000	99.517531
3539.000000	99.522877
3538.000000	99.524538
3537.000000	99.522848
3536.000000	99.520005
3535.000000	99.518042
3534.000000	99.517422
3533.000000	99.516669
3532.000000	99.513576
3531.000000	99.506947
3530.000000	99.498358
3529.000000	99.492201
3528.000000	99.492737
3527.000000	99.500106
3526.000000	99.509327
3525.000000	99.513489
3524.000000	99.508599
3523.000000	99.496762
3522.000000	99.484925
3521.000000	99.479766
3520.000000	99.482826
3519.000000	99.489962
3518.000000	99.495047
3517.000000	99.494672
3516.000000	99.490335
3515.000000	99.485702
3514.000000	99.482940
3513.000000	99.481656
3512.000000	99.480817
3511.000000	99.480347
3510.000000	99.480419
3509.000000	99.480000
3508.000000	99.477653
3507.000000	99.474262
3506.000000	99.473574
3505.000000	99.479338
3504.000000	99.490944
3503.000000	99.502331
3502.000000	99.506676
3501.000000	99.501962
3500.000000	99.491481
3499.000000	99.480266
3498.000000	99.472194
3497.000000	99.468693
3496.000000	99.468680
3495.000000	99.469464
3494.000000	99.468604
3493.000000	99.465466
3492.000000	99.461048
3491.000000	99.456731
3490.000000	99.453605
3489.000000	99.452542
3488.000000	99.454184
3487.000000	99.458244
3486.000000	99.462959
3485.000000	99.465820
3484.000000	99.465287
3483.000000	99.461806
3482.000000	99.457216
3481.000000	99.452854
3480.000000	99.448270
3479.000000	99.442138
3478.000000	99.434330
3477.000000	99.426656
3476.000000	99.421246
3475.000000	99.418549
3474.000000	99.417391
3473.000000	99.417029
3472.000000	99.418268
3471.000000	99.422105
3470.000000	99.427983
3469.000000	99.434011
3468.000000	99.438692
3467.000000	99.442052
3466.000000	99.444921
3465.000000	99.447513
3464.000000	99.448799
3463.000000	99.446943
3462.000000	99.440550
3461.000000	99.429825
3460.000000	99.416961
3459.000000	99.405281
3458.000000	99.397608
3457.000000	99.395163
3456.000000	99.397262
3455.000000	99.401789
3454.000000	99.406447
3453.000000	99.409564
3452.000000	99.410139
3451.000000	99.407266
3450.000000	99.400595
3449.000000	99.391721
3448.000000	99.384359
3447.000000	99.381998
3446.000000	99.385229
3445.000000	99.391766
3444.000000	99.398545
3443.000000	99.402895
3442.000000	99.402518
3441.000000	99.396507
3440.000000	99.386872
3439.000000	99.377967
3438.000000	99.373438
3437.000000	99.373702
3436.000000	99.376558
3435.000000	99.379849
3434.000000	99.383168
3433.000000	99.386587
3432.000000	99.388740
3431.000000	99.386897
3430.000000	99.379777
3429.000000	99.369833
3428.000000	99.361754
3427.000000	99.358497
3426.000000	99.359267
3425.000000	99.361388
3424.000000	99.363077
3423.000000	99.363801
3422.000000	99.362865
3421.000000	99.359038
3420.000000	99.351862
3419.000000	99.342789
3418.000000	99.334737
3417.000000	99.330373
3416.000000	99.330438
3415.000000	99.333246
3414.000000	99.335998
3413.000000	99.336941
3412.000000	99.336040
3411.000000	99.333857
3410.000000	99.330693
3409.000000	99.327086
3408.000000	99.324252
3407.000000	99.323347
3406.000000	99.324480
3405.000000	99.326673
3404.000000	99.328228
3403.000000	99.327059
3402.000000	99.321997
3401.000000	99.314463
3400.000000	99.308136
3399.000000	99.305636
3398.000000	99.305734
3397.000000	99.304856
3396.000000	99.301354
3395.000000	99.297403
3394.000000	99.296409
3393.000000	99.299243
3392.000000	99.303298
3391.000000	99.304988
3390.000000	99.302777
3389.000000	99.297981
3388.000000	99.293239
3387.000000	99.290401
3386.000000	99.289625
3385.000000	99.289956
3384.000000	99.290277
3383.000000	99.289675
3382.000000	99.287736
3381.000000	99.284979
3380.000000	99.282887
3379.000000	99.282708
3378.000000	99.284056
3377.000000	99.284924
3376.000000	99.283170
3375.000000	99.278088
3374.000000	99.270778
3373.000000	99.263340
3372.000000	99.257569
3371.000000	99.254115
3370.000000	99.252719
3369.000000	99.253163
3368.000000	99.255353
3367.000000	99.258193
3366.000000	99.259124
3365.000000	99.256049
3364.000000	99.249844
3363.000000	99.244177
3362.000000	99.242459
3361.000000	99.245046
3360.000000	99.249175
3359.000000	99.251122
3358.000000	99.248844
3357.000000	99.243628
3356.000000	99.239449
3355.000000	99.239808
3354.000000	99.244382
3353.000000	99.249093
3352.000000	99.249742
3351.000000	99.245351
3350.000000	99.238008
3349.000000	99.230410
3348.000000	99.224033
3347.000000	99.219032
3346.000000	99.214846
3345.000000	99.210779
3344.000000	99.206780
3343.000000	99.203774
3342.000000	99.202931
3341.000000	99.204409
3340.000000	99.207014
3339.000000	99.209126
3338.000000	99.209656
3337.000000	99.208142
3336.000000	99.204461
3335.000000	99.198959
3334.000000	99.192763
3333.000000	99.187507
3332.000000	99.184436
3331.000000	99.183600
3330.000000	99.183723
3329.000000	99.182789
3328.000000	99.179287
3327.000000	99.173737
3326.000000	99.169113
3325.000000	99.168722
3324.000000	99.172723
3323.000000	99.176966
3322.000000	99.176362
3321.000000	99.169471
3320.000000	99.159247
3319.000000	99.149574
3318.000000	99.142155
3317.000000	99.136905
3316.000000	99.133883
3315.000000	99.133420
3314.000000	99.134825
3313.000000	99.136431
3312.000000	99.137033
3311.000000	99.136601
3310.000000	99.135543
3309.000000	99.133945
3308.000000	99.131801
3307.000000	99.129551
3306.000000	99.128151
3305.000000	99.128737
3304.000000	99.131761
3303.000000	99.135866
3302.000000	99.138021
3301.000000	99.135743
3300.000000	99.129499
3299.000000	99.122365
3298.000000	99.117348
3297.000000	99.115429
3296.000000	99.115976
3295.000000	99.117938
3294.000000	99.120096
3293.000000	99.121096
3292.000000	99.120307
3291.000000	99.118588
3290.000000	99.117557
3289.000000	99.117838
3288.000000	99.118231
3287.000000	99.116724
3286.000000	99.112180
3285.000000	99.105167
3284.000000	99.097689
3283.000000	99.092450
3282.000000	99.091967
3281.000000	99.097391
3280.000000	99.107285
3279.000000	99.117664
3278.000000	99.123998
3277.000000	99.123769
3276.000000	99.117506
3275.000000	99.107845
3274.000000	99.098201
3273.000000	99.091779
3272.000000	99.090462
3271.000000	99.093909
3270.000000	99.100021
3269.000000	99.106326
3268.000000	99.110382
3267.000000	99.109502
3266.000000	99.102167
3265.000000	99.090836
3264.000000	99.081782
3263.000000	99.080245
3262.000000	99.086013
3261.000000	99.094801
3260.000000	99.103059
3259.000000	99.109821
3258.000000	99.114568
3257.000000	99.116249
3256.000000	99.115311
3255.000000	99.114697
3254.000000	99.116958
3253.000000	99.121102
3252.000000	99.123759
3251.000000	99.122951
3250.000000	99.119824
3249.000000	99.116945
3248.000000	99.115919
3247.000000	99.116643
3246.000000	99.117918
3245.000000	99.118363
3244.000000	99.117127
3243.000000	99.114245
3242.000000	99.110772
3241.000000	99.108721
3240.000000	99.110198
3239.000000	99.115656
3238.000000	99.122807
3237.000000	99.128150
3236.000000	99.130064
3235.000000	99.129966
3234.000000	99.130055
3233.000000	99.130641
3232.000000	99.130296
3231.000000	99.128093
3230.000000	99.124905
3229.000000	99.122616
3228.000000	99.122582
3227.000000	99.124721
3226.000000	99.127599
3225.000000	99.129293
3224.000000	99.128673
3223.000000	99.126119
3222.000000	99.123174
3221.000000	99.121662
3220.000000	99.122695
3219.000000	99.125553
3218.000000	99.127183
3217.000000	99.124029
3216.000000	99.115694
3215.000000	99.106784
3214.000000	99.103756
3213.000000	99.109087
3212.000000	99.118961
3211.000000	99.126779
3210.000000	99.128623
3209.000000	99.125274
3208.000000	99.120106
3207.000000	99.116176
3206.000000	99.115062
3205.000000	99.117090
3204.000000	99.121317
3203.000000	99.125558
3202.000000	99.127393
3201.000000	99.125802
3200.000000	99.121771
3199.000000	99.117490
3198.000000	99.115220
3197.000000	99.116627
3196.000000	99.122044
3195.000000	99.129833
3194.000000	99.137165
3193.000000	99.142187
3192.000000	99.145250
3191.000000	99.147557
3190.000000	99.149154
3189.000000	99.149008
3188.000000	99.146760
3187.000000	99.143300
3186.000000	99.139529
3185.000000	99.135620
3184.000000	99.131823
3183.000000	99.129334
3182.000000	99.129629
3181.000000	99.132959
3180.000000	99.137684
3179.000000	99.141026
3178.000000	99.140916
3177.000000	99.137630
3176.000000	99.133486
3175.000000	99.130701
3174.000000	99.129772
3173.000000	99.130144
3172.000000	99.131584
3171.000000	99.134152
3170.000000	99.137415
3169.000000	99.140798
3168.000000	99.144428
3167.000000	99.148513
3166.000000	99.152243
3165.000000	99.154697
3164.000000	99.156679
3163.000000	99.160009
3162.000000	99.164647
3161.000000	99.168041
3160.000000	99.168083
3159.000000	99.165450
3158.000000	99.162382
3157.000000	99.160365
3156.000000	99.159879
3155.000000	99.161137
3154.000000	99.163803
3153.000000	99.166612
3152.000000	99.168465
3151.000000	99.169505
3150.000000	99.170291
3149.000000	99.170331
3148.000000	99.168466
3147.000000	99.164593
3146.000000	99.160309
3145.000000	99.157831
3144.000000	99.158551
3143.000000	99.162133
3142.000000	99.166481
3141.000000	99.168922
3140.000000	99.168419
3139.000000	99.166639
3138.000000	99.166489
3137.000000	99.169393
3136.000000	99.174191
3135.000000	99.178259
3134.000000	99.179545
3133.000000	99.177912
3132.000000	99.175193
3131.000000	99.173458
3130.000000	99.173002
3129.000000	99.172280
3128.000000	99.170193
3127.000000	99.167752
3126.000000	99.167044
3125.000000	99.169013
3124.000000	99.172756
3123.000000	99.176364
3122.000000	99.177648
3121.000000	99.174850
3120.000000	99.168077
3119.000000	99.160350
3118.000000	99.156254
3117.000000	99.158698
3116.000000	99.166706
3115.000000	99.176328
3114.000000	99.183522
3113.000000	99.186425
3112.000000	99.185584
3111.000000	99.182608
3110.000000	99.178679
3109.000000	99.174150
3108.000000	99.169077
3107.000000	99.163685
3106.000000	99.158425
3105.000000	99.154087
3104.000000	99.151780
3103.000000	99.152370
3102.000000	99.155646
3101.000000	99.160421
3100.000000	99.165548
3099.000000	99.170434
3098.000000	99.174415
3097.000000	99.176179
3096.000000	99.174677
3095.000000	99.170901
3094.000000	99.168158
3093.000000	99.169552
3092.000000	99.174679
3091.000000	99.179312
3090.000000	99.179241
3089.000000	99.174518
3088.000000	99.169247
3087.000000	99.167028
3086.000000	99.167661
3085.000000	99.168703
3084.000000	99.168930
3083.000000	99.168990
3082.000000	99.169322
3081.000000	99.169129
3080.000000	99.167577
3079.000000	99.164952
3078.000000	99.162259
3077.000000	99.160414
3076.000000	99.159900
3075.000000	99.160409
3074.000000	99.160707
3073.000000	99.159731
3072.000000	99.158338
3071.000000	99.159186
3070.000000	99.164361
3069.000000	99.173176
3068.000000	99.182332
3067.000000	99.187967
3066.000000	99.187866
3065.000000	99.182668
3064.000000	99.175357
3063.000000	99.169321
3062.000000	99.166444
3061.000000	99.166885
3060.000000	99.169860
3059.000000	99.174052
3058.000000	99.177567
3057.000000	99.178676
3056.000000	99.177194
3055.000000	99.174508
3054.000000	99.172008
3053.000000	99.169766
3052.000000	99.167088
3051.000000	99.163883
3050.000000	99.160989
3049.000000	99.159368
3048.000000	99.159378
3047.000000	99.161031
3046.000000	99.164575
3045.000000	99.170242
3044.000000	99.177076
3043.000000	99.182474
3042.000000	99.183561
3041.000000	99.179535
3040.000000	99.172335
3039.000000	99.165184
3038.000000	99.160768
3037.000000	99.160580
3036.000000	99.164777
3035.000000	99.171764
3034.000000	99.178381
3033.000000	99.181584
3032.000000	99.180288
3031.000000	99.175778
3030.000000	99.170696
3029.000000	99.167748
3028.000000	99.168581
3027.000000	99.172740
3026.000000	99.177737
3025.000000	99.180884
3024.000000	99.181429
3023.000000	99.180881
3022.000000	99.181413
3021.000000	99.184038
3020.000000	99.187748
3019.000000	99.190320
3018.000000	99.190570
3017.000000	99.190094
3016.000000	99.191836
3015.000000	99.196744
3014.000000	99.202863
3013.000000	99.208014
3012.000000	99.211619
3011.000000	99.213071
3010.000000	99.210435
3009.000000	99.202967
3008.000000	99.193759
3007.000000	99.187336
3006.000000	99.184874
3005.000000	99.183806
3004.000000	99.182096
3003.000000	99.180845
3002.000000	99.182124
3001.000000	99.186130
3000.000000	99.191288
2999.000000	99.195836
2998.000000	99.198340
2997.000000	99.197723
2996.000000	99.194002
2995.000000	99.188908
2994.000000	99.185092
2993.000000	99.184364
2992.000000	99.186334
2991.000000	99.188494
2990.000000	99.187990
2989.000000	99.183791
2988.000000	99.176923
2987.000000	99.168563
2986.000000	99.159168
2985.000000	99.150210
2984.000000	99.145170
2983.000000	99.146446
2982.000000	99.151693
2981.000000	99.155096
2980.000000	99.152851
2979.000000	99.146069
2978.000000	99.138623
2977.000000	99.133794
2976.000000	99.133124
2975.000000	99.136365
2974.000000	99.141382
2973.000000	99.145217
2972.000000	99.146134
2971.000000	99.144237
2970.000000	99.140170
2969.000000	99.134329
2968.000000	99.127304
2967.000000	99.119752
2966.000000	99.111463
2965.000000	99.101869
2964.000000	99.091711
2963.000000	99.083030
2962.000000	99.077350
2961.000000	99.075040
2960.000000	99.076303
2959.000000	99.080761
2958.000000	99.085813
2957.000000	99.087570
2956.000000	99.084720
2955.000000	99.080033
2954.000000	99.077301
2953.000000	99.078233
2952.000000	99.082874
2951.000000	99.090929
2950.000000	99.100890
2949.000000	99.109351
2948.000000	99.113242
2947.000000	99.112513
2946.000000	99.109588
2945.000000	99.106604
2944.000000	99.104103
2943.000000	99.101602
2942.000000	99.098326
2941.000000	99.093703
2940.000000	99.088094
2939.000000	99.082794
2938.000000	99.078727
2937.000000	99.075427
2936.000000	99.071598
2935.000000	99.066094
2934.000000	99.058081
2933.000000	99.046957
2932.000000	99.032579
2931.000000	99.014934
2930.000000	98.993534
2929.000000	98.968189
2928.000000	98.940556
2927.000000	98.913517
2926.000000	98.888360
2925.000000	98.863826
2924.000000	98.838598
2923.000000	98.813409
2922.000000	98.789997
2921.000000	98.769455
2920.000000	98.752976
2919.000000	98.742849
2918.000000	98.741259
2917.000000	98.748662
2916.000000	98.764157
2915.000000	98.786480
2914.000000	98.813347
2913.000000	98.841012
2912.000000	98.866224
2911.000000	98.888588
2910.000000	98.909649
2909.000000	98.929641
2908.000000	98.946610
2907.000000	98.958958
2906.000000	98.968021
2905.000000	98.977265
2904.000000	98.989054
2903.000000	99.002243
2902.000000	99.013223
2901.000000	99.018743
2900.000000	99.019327
2899.000000	99.017905
2898.000000	99.017364
2897.000000	99.019374
2896.000000	99.024700
2895.000000	99.032590
2894.000000	99.039823
2893.000000	99.042683
2892.000000	99.041262
2891.000000	99.040406
2890.000000	99.044957
2889.000000	99.054821
2888.000000	99.065682
2887.000000	99.073455
2886.000000	99.076678
2885.000000	99.075406
2884.000000	99.070124
2883.000000	99.062430
2882.000000	99.055557
2881.000000	99.052955
2880.000000	99.055754
2879.000000	99.061490
2878.000000	99.065518
2877.000000	99.064383
2876.000000	99.058344
2875.000000	99.050481
2874.000000	99.043610
2873.000000	99.038602
2872.000000	99.035378
2871.000000	99.034155
2870.000000	99.035072
2869.000000	99.037420
2868.000000	99.039946
2867.000000	99.041515
2866.000000	99.041329
2865.000000	99.039358
2864.000000	99.036712
2863.000000	99.034428
2862.000000	99.031313
2861.000000	99.024274
2860.000000	99.011614
2859.000000	98.994951
2858.000000	98.977134
2857.000000	98.959308
2856.000000	98.940864
2855.000000	98.921013
2854.000000	98.899224
2853.000000	98.875169
2852.000000	98.850006
2851.000000	98.827744
2850.000000	98.814131
2849.000000	98.813955
2848.000000	98.828966
2847.000000	98.857146
2846.000000	98.892963
2845.000000	98.929293
2844.000000	98.960644
2843.000000	98.985243
2842.000000	99.004184
2841.000000	99.019250
2840.000000	99.031850
2839.000000	99.042770
2838.000000	99.051967
2837.000000	99.059041
2836.000000	99.064426
2835.000000	99.069346
2834.000000	99.074123
2833.000000	99.077662
2832.000000	99.079468
2831.000000	99.081215
2830.000000	99.085131
2829.000000	99.091573
2828.000000	99.099159
2827.000000	99.106509
2826.000000	99.112754
2825.000000	99.117057
2824.000000	99.119133
2823.000000	99.119997
2822.000000	99.121044
2821.000000	99.122311
2820.000000	99.122467
2819.000000	99.120484
2818.000000	99.116818
2817.000000	99.113265
2816.000000	99.112064
2815.000000	99.114399
2814.000000	99.118994
2813.000000	99.122778
2812.000000	99.123653
2811.000000	99.122089
2810.000000	99.119527
2809.000000	99.116412
2808.000000	99.112981
2807.000000	99.110777
2806.000000	99.111363
2805.000000	99.113903
2804.000000	99.115745
2803.000000	99.115534
2802.000000	99.114141
2801.000000	99.112533
2800.000000	99.110450
2799.000000	99.107779
2798.000000	99.105848
2797.000000	99.106328
2796.000000	99.109506
2795.000000	99.114267
2794.000000	99.119247
2793.000000	99.123528
2792.000000	99.126752
2791.000000	99.129176
2790.000000	99.131496
2789.000000	99.134274
2788.000000	99.137394
2787.000000	99.139933
2786.000000	99.140439
2785.000000	99.137882
2784.000000	99.133113
2783.000000	99.129199
2782.000000	99.129409
2781.000000	99.134338
2780.000000	99.141227
2779.000000	99.146195
2778.000000	99.147060
2777.000000	99.144438
2776.000000	99.140869
2775.000000	99.138901
2774.000000	99.139413
2773.000000	99.141442
2772.000000	99.143658
2771.000000	99.145767
2770.000000	99.148107
2769.000000	99.150224
2768.000000	99.150617
2767.000000	99.148120
2766.000000	99.143214
2765.000000	99.137892
2764.000000	99.134441
2763.000000	99.134195
2762.000000	99.136768
2761.000000	99.140129
2760.000000	99.141736
2759.000000	99.140256
2758.000000	99.136627
2757.000000	99.133427
2756.000000	99.132923
2755.000000	99.135431
2754.000000	99.139516
2753.000000	99.143574
2752.000000	99.146856
2751.000000	99.148911
2750.000000	99.148995
2749.000000	99.147072
2748.000000	99.145208
2747.000000	99.146633
2746.000000	99.152655
2745.000000	99.160779
2744.000000	99.166350
2743.000000	99.166183
2742.000000	99.160944
2741.000000	99.154560
2740.000000	99.151110
2739.000000	99.151487
2738.000000	99.152873
2737.000000	99.151893
2736.000000	99.148213
2735.000000	99.144438
2734.000000	99.142817
2733.000000	99.143187
2732.000000	99.144124
2731.000000	99.144673
2730.000000	99.144444
2729.000000	99.143353
2728.000000	99.142200
2727.000000	99.142511
2726.000000	99.144853
2725.000000	99.147994
2724.000000	99.150657
2723.000000	99.153216
2722.000000	99.156441
2721.000000	99.159282
2720.000000	99.159539
2719.000000	99.156828
2718.000000	99.153572
2717.000000	99.152617
2716.000000	99.154512
2715.000000	99.157438
2714.000000	99.159261
2713.000000	99.159360
2712.000000	99.158725
2711.000000	99.158518
2710.000000	99.158614
2709.000000	99.157753
2708.000000	99.155219
2707.000000	99.151957
2706.000000	99.149701
2705.000000	99.149291
2704.000000	99.150267
2703.000000	99.151852
2702.000000	99.153667
2701.000000	99.155397
2700.000000	99.156310
2699.000000	99.155634
2698.000000	99.153401
2697.000000	99.150566
2696.000000	99.148076
2695.000000	99.146064
2694.000000	99.144427
2693.000000	99.143971
2692.000000	99.146069
2691.000000	99.150809
2690.000000	99.156300
2689.000000	99.160438
2688.000000	99.162626
2687.000000	99.163118
2686.000000	99.161728
2685.000000	99.158515
2684.000000	99.154898
2683.000000	99.152370
2682.000000	99.150445
2681.000000	99.147684
2680.000000	99.144552
2679.000000	99.143254
2678.000000	99.144399
2677.000000	99.145834
2676.000000	99.145479
2675.000000	99.143550
2674.000000	99.141296
2673.000000	99.139433
2672.000000	99.138902
2671.000000	99.141318
2670.000000	99.146972
2669.000000	99.153566
2668.000000	99.158405
2667.000000	99.160739
2666.000000	99.160682
2665.000000	99.157385
2664.000000	99.150376
2663.000000	99.141797
2662.000000	99.134990
2661.000000	99.131079
2660.000000	99.128815
2659.000000	99.127477
2658.000000	99.127718
2657.000000	99.129202
2656.000000	99.129620
2655.000000	99.127282
2654.000000	99.123444
2653.000000	99.120990
2652.000000	99.121669
2651.000000	99.125471
2650.000000	99.131789
2649.000000	99.139854
2648.000000	99.148239
2647.000000	99.155067
2646.000000	99.159264
2645.000000	99.161418
2644.000000	99.163107
2643.000000	99.165351
2642.000000	99.167681
2641.000000	99.168638
2640.000000	99.167067
2639.000000	99.162977
2638.000000	99.157532
2637.000000	99.152697
2636.000000	99.150580
2635.000000	99.152217
2634.000000	99.156791
2633.000000	99.162723
2632.000000	99.169557
2631.000000	99.177872
2630.000000	99.187104
2629.000000	99.194692
2628.000000	99.198133
2627.000000	99.197058
2626.000000	99.192712
2625.000000	99.186486
2624.000000	99.179945
2623.000000	99.175175
2622.000000	99.173603
2621.000000	99.174829
2620.000000	99.177602
2619.000000	99.181485
2618.000000	99.186538
2617.000000	99.191864
2616.000000	99.195806
2615.000000	99.197762
2614.000000	99.199000
2613.000000	99.201701
2612.000000	99.207270
2611.000000	99.214768
2610.000000	99.220425
2609.000000	99.220071
2608.000000	99.213582
2607.000000	99.206495
2606.000000	99.205552
2605.000000	99.212397
2604.000000	99.222330
2603.000000	99.228854
2602.000000	99.228837
2601.000000	99.223895
2600.000000	99.218203
2599.000000	99.215006
2598.000000	99.214319
2597.000000	99.213900
2596.000000	99.212705
2595.000000	99.212484
2594.000000	99.215224
2593.000000	99.219892
2592.000000	99.223131
2591.000000	99.222782
2590.000000	99.219467
2589.000000	99.215303
2588.000000	99.212544
2587.000000	99.213175
2586.000000	99.217789
2585.000000	99.224339
2584.000000	99.229287
2583.000000	99.230688
2582.000000	99.229343
2581.000000	99.226952
2580.000000	99.224615
2579.000000	99.223615
2578.000000	99.226042
2577.000000	99.232795
2576.000000	99.241211
2575.000000	99.245937
2574.000000	99.242902
2573.000000	99.232463
2572.000000	99.218935
2571.000000	99.207492
2570.000000	99.201371
2569.000000	99.201049
2568.000000	99.204891
2567.000000	99.210129
2566.000000	99.213751
2565.000000	99.213442
2564.000000	99.208643
2563.000000	99.201246
2562.000000	99.195295
2561.000000	99.194895
2560.000000	99.200869
2559.000000	99.209153
2558.000000	99.213839
2557.000000	99.213013
2556.000000	99.211148
2555.000000	99.214779
2554.000000	99.226095
2553.000000	99.241148
2552.000000	99.253131
2551.000000	99.256230
2550.000000	99.248118
2549.000000	99.232187
2548.000000	99.217998
2547.000000	99.216164
2546.000000	99.229416
2545.000000	99.248870
2544.000000	99.260856
2543.000000	99.258499
2542.000000	99.246273
2541.000000	99.233872
2540.000000	99.226672
2539.000000	99.222782
2538.000000	99.217951
2537.000000	99.211102
2536.000000	99.203823
2535.000000	99.196126
2534.000000	99.185601
2533.000000	99.171563
2532.000000	99.157732
2531.000000	99.148950
2530.000000	99.146049
2529.000000	99.145474
2528.000000	99.143320
2527.000000	99.138436
2526.000000	99.132009
2525.000000	99.125291
2524.000000	99.117797
2523.000000	99.107409
2522.000000	99.093213
2521.000000	99.078621
2520.000000	99.069883
2519.000000	99.069969
2518.000000	99.075179
2517.000000	99.079291
2516.000000	99.080074
2515.000000	99.079927
2514.000000	99.081371
2513.000000	99.083914
2512.000000	99.084728
2511.000000	99.080862
2510.000000	99.071688
2509.000000	99.060835
2508.000000	99.054344
2507.000000	99.054790
2506.000000	99.058514
2505.000000	99.060935
2504.000000	99.063008
2503.000000	99.069099
2502.000000	99.079381
2501.000000	99.088531
2500.000000	99.092501
2499.000000	99.093504
2498.000000	99.097043
2497.000000	99.106312
2496.000000	99.120120
2495.000000	99.134237
2494.000000	99.144018
2493.000000	99.147651
2492.000000	99.147856
2491.000000	99.149518
2490.000000	99.155778
2489.000000	99.167077
2488.000000	99.182390
2487.000000	99.198873
2486.000000	99.211537
2485.000000	99.216876
2484.000000	99.217042
2483.000000	99.217526
2482.000000	99.220612
2481.000000	99.224049
2480.000000	99.225942
2479.000000	99.227401
2478.000000	99.229542
2477.000000	99.231457
2476.000000	99.232625
2475.000000	99.234560
2474.000000	99.238437
2473.000000	99.243213
2472.000000	99.247357
2471.000000	99.250366
2470.000000	99.251663
2469.000000	99.250339
2468.000000	99.247326
2467.000000	99.245626
2466.000000	99.246739
2465.000000	99.248342
2464.000000	99.246912
2463.000000	99.241386
2462.000000	99.233429
2461.000000	99.225531
2460.000000	99.219669
2459.000000	99.216563
2458.000000	99.215442
2457.000000	99.215491
2456.000000	99.217932
2455.000000	99.225334
2454.000000	99.238269
2453.000000	99.253699
2452.000000	99.266863
2451.000000	99.274010
2450.000000	99.273998
2449.000000	99.269070
2448.000000	99.264191
2447.000000	99.263979
2446.000000	99.269550
2445.000000	99.278500
2444.000000	99.286972
2443.000000	99.291081
2442.000000	99.288890
2441.000000	99.283375
2440.000000	99.281365
2439.000000	99.286194
2438.000000	99.292733
2437.000000	99.292942
2436.000000	99.285341
2435.000000	99.275436
2434.000000	99.268216
2433.000000	99.264394
2432.000000	99.262968
2431.000000	99.262421
2430.000000	99.259344
2429.000000	99.251184
2428.000000	99.241650
2427.000000	99.238965
2426.000000	99.247046
2425.000000	99.261999
2424.000000	99.277951
2423.000000	99.291819
2422.000000	99.300924
2421.000000	99.301073
2420.000000	99.290946
2419.000000	99.275754
2418.000000	99.263264
2417.000000	99.257326
2416.000000	99.256944
2415.000000	99.259659
2414.000000	99.263880
2413.000000	99.269162
2412.000000	99.275681
2411.000000	99.282715
2410.000000	99.287797
2409.000000	99.289158
2408.000000	99.289032
2407.000000	99.291787
2406.000000	99.298110
2405.000000	99.303558
2404.000000	99.303882
2403.000000	99.299766
2402.000000	99.295458
2401.000000	99.294539
2400.000000	99.297395
2399.000000	99.300923
2398.000000	99.300681
2397.000000	99.295417
2396.000000	99.289462
2395.000000	99.288404
2394.000000	99.292333
2393.000000	99.295891
2392.000000	99.294705
2391.000000	99.289233
2390.000000	99.282216
2389.000000	99.275351
2388.000000	99.269456
2387.000000	99.264632
2386.000000	99.260567
2385.000000	99.258272
2384.000000	99.261275
2383.000000	99.273056
2382.000000	99.291629
2381.000000	99.310729
2380.000000	99.324891
2379.000000	99.330940
2378.000000	99.326319
2377.000000	99.310636
2376.000000	99.290107
2375.000000	99.274990
2374.000000	99.271605
2373.000000	99.279211
2372.000000	99.294247
2371.000000	99.311936
2370.000000	99.324712
2369.000000	99.326733
2368.000000	99.318596
2367.000000	99.305863
2366.000000	99.293050
2365.000000	99.283635
2364.000000	99.282609
2363.000000	99.289983
2362.000000	99.297171
2361.000000	99.295763
2360.000000	99.284540
2359.000000	99.270079
2358.000000	99.262296
2357.000000	99.266157
2356.000000	99.277986
2355.000000	99.286376
2354.000000	99.296493
2353.000000	99.322203
2352.000000	99.359022
2351.000000	99.380962
2350.000000	99.369387
2349.000000	99.327573
2348.000000	99.274815
2347.000000	99.238638
2346.000000	99.235249
2345.000000	99.248224
2344.000000	99.249734
2343.000000	99.233181
2342.000000	99.215635
2341.000000	99.211727
2340.000000	99.218112
2339.000000	99.223020
2338.000000	99.221016
2337.000000	99.216115
2336.000000	99.210730
2335.000000	99.207323
2334.000000	99.210157
2333.000000	99.225109
2332.000000	99.243847
2331.000000	99.254961
2330.000000	99.250189
2329.000000	99.234866
2328.000000	99.209993
2327.000000	99.175971
2326.000000	99.135043
2325.000000	99.097454
2324.000000	99.074625
2323.000000	99.072441
2322.000000	99.085033
2321.000000	99.099600
2320.000000	99.104122
2319.000000	99.099679
2318.000000	99.093247
2317.000000	99.095077
2316.000000	99.107895
2315.000000	99.130952
2314.000000	99.154988
2313.000000	99.173064
2312.000000	99.183046
2311.000000	99.191216
2310.000000	99.198985
2309.000000	99.203347
2308.000000	99.202865
2307.000000	99.205691
2306.000000	99.217792
2305.000000	99.234899
2304.000000	99.246430
2303.000000	99.249312
2302.000000	99.246188
2301.000000	99.239371
2300.000000	99.227646
2299.000000	99.214583
2298.000000	99.205108
2297.000000	99.201846
2296.000000	99.201232
2295.000000	99.200841
2294.000000	99.199889
2293.000000	99.198695
2292.000000	99.197522
2291.000000	99.198245
2290.000000	99.201424
2289.000000	99.203376
2288.000000	99.200156
2287.000000	99.193215
2286.000000	99.188247
2285.000000	99.188266
2284.000000	99.193254
2283.000000	99.202938
2282.000000	99.216578
2281.000000	99.229880
2280.000000	99.238667
2279.000000	99.243846
2278.000000	99.248396
2277.000000	99.250877
2276.000000	99.246981
2275.000000	99.237366
2274.000000	99.227960
2273.000000	99.223672
2272.000000	99.225701
2271.000000	99.235141
2270.000000	99.253004
2269.000000	99.276061
2268.000000	99.296352
2267.000000	99.306584
2266.000000	99.304411
2265.000000	99.293719
2264.000000	99.284079
2263.000000	99.285308
2262.000000	99.297415
2261.000000	99.307739
2260.000000	99.303473
2259.000000	99.285545
2258.000000	99.267005
2257.000000	99.260164
2256.000000	99.270327
2255.000000	99.297258
2254.000000	99.333951
2253.000000	99.364637
2252.000000	99.373107
2251.000000	99.357288
2250.000000	99.331415
2249.000000	99.313014
2248.000000	99.310032
2247.000000	99.319381
2246.000000	99.334655
2245.000000	99.352513
2244.000000	99.372730
2243.000000	99.393280
2242.000000	99.408018
2241.000000	99.413083
2240.000000	99.414539
2239.000000	99.422630
2238.000000	99.436651
2237.000000	99.443076
2236.000000	99.432947
2235.000000	99.414115
2234.000000	99.400684
2233.000000	99.396829
2232.000000	99.397192
2231.000000	99.396758
2230.000000	99.391857
2229.000000	99.376429
2228.000000	99.347603
2227.000000	99.314012
2226.000000	99.290563
2225.000000	99.284793
2224.000000	99.292992
2223.000000	99.307870
2222.000000	99.323292
2221.000000	99.332477
2220.000000	99.328782
2219.000000	99.310760
2218.000000	99.283144
2217.000000	99.252807
2216.000000	99.226325
2215.000000	99.211053
2214.000000	99.215004
2213.000000	99.242571
2212.000000	99.288496
2211.000000	99.336591
2210.000000	99.368614
2209.000000	99.378564
2208.000000	99.376255
2207.000000	99.372890
2206.000000	99.368175
2205.000000	99.359227
2204.000000	99.354622
2203.000000	99.365357
2202.000000	99.384334
2201.000000	99.391933
2200.000000	99.385170
2199.000000	99.384156
2198.000000	99.402674
2197.000000	99.426734
2196.000000	99.432222
2195.000000	99.412777
2194.000000	99.380727
2193.000000	99.350594
2192.000000	99.330637
2191.000000	99.322214
2190.000000	99.318926
2189.000000	99.312925
2188.000000	99.307265
2187.000000	99.313694
2186.000000	99.334239
2185.000000	99.356877
2184.000000	99.373750
2183.000000	99.388759
2182.000000	99.399699
2181.000000	99.392563
2180.000000	99.366821
2179.000000	99.347426
2178.000000	99.354935
2177.000000	99.378816
2176.000000	99.397660
2175.000000	99.412427
2174.000000	99.439025
2173.000000	99.475191
2172.000000	99.496721
2171.000000	99.484910
2170.000000	99.441316
2169.000000	99.379721
2168.000000	99.318135
2167.000000	99.277133
2166.000000	99.271029
2165.000000	99.294024
2164.000000	99.321113
2163.000000	99.330557
2162.000000	99.326815
2161.000000	99.343688
2160.000000	99.420764
2159.000000	99.559786
2158.000000	99.704202
2157.000000	99.788895
2156.000000	99.808894
2155.000000	99.809898
2154.000000	99.821626
2153.000000	99.827718
2152.000000	99.796303
2151.000000	99.718232
2150.000000	99.612390
2149.000000	99.509519
2148.000000	99.436932
2147.000000	99.406595
2146.000000	99.410823
2145.000000	99.433536
2144.000000	99.466328
2143.000000	99.507121
2142.000000	99.546335
2141.000000	99.568199
2140.000000	99.568111
2139.000000	99.556227
2138.000000	99.540398
2137.000000	99.518508
2136.000000	99.491176
2135.000000	99.469689
2134.000000	99.464530
2133.000000	99.475333
2132.000000	99.496314
2131.000000	99.522399
2130.000000	99.545724
2129.000000	99.555222
2128.000000	99.545670
2127.000000	99.521779
2126.000000	99.491460
2125.000000	99.461381
2124.000000	99.439464
2123.000000	99.431789
2122.000000	99.433557
2121.000000	99.431371
2120.000000	99.419696
2119.000000	99.408143
2118.000000	99.407606
2117.000000	99.415947
2116.000000	99.422229
2115.000000	99.419797
2114.000000	99.409429
2113.000000	99.394941
2112.000000	99.381329
2111.000000	99.373405
2110.000000	99.370779
2109.000000	99.366768
2108.000000	99.356356
2107.000000	99.343731
2106.000000	99.339293
2105.000000	99.350829
2104.000000	99.377340
2103.000000	99.407600
2102.000000	99.425750
2101.000000	99.424540
2100.000000	99.413362
2099.000000	99.406466
2098.000000	99.404494
2097.000000	99.397115
2096.000000	99.384413
2095.000000	99.382159
2094.000000	99.400417
2093.000000	99.427921
2092.000000	99.444283
2091.000000	99.439795
2090.000000	99.418231
2089.000000	99.389190
2088.000000	99.363526
2087.000000	99.349133
2086.000000	99.345487
2085.000000	99.345655
2084.000000	99.345555
2083.000000	99.345796
2082.000000	99.344196
2081.000000	99.336899
2080.000000	99.330294
2079.000000	99.340296
2078.000000	99.372014
2077.000000	99.408891
2076.000000	99.430404
2075.000000	99.433296
2074.000000	99.428076
2073.000000	99.422469
2072.000000	99.417479
2071.000000	99.413137
2070.000000	99.408762
2069.000000	99.401190
2068.000000	99.389442
2067.000000	99.377675
2066.000000	99.369453
2065.000000	99.364719
2064.000000	99.366521
2063.000000	99.383111
2062.000000	99.416466
2061.000000	99.454263
2060.000000	99.478197
2059.000000	99.477809
2058.000000	99.454896
2057.000000	99.420620
2056.000000	99.388826
2055.000000	99.363463
2054.000000	99.333240
2053.000000	99.289786
2052.000000	99.250278
2051.000000	99.247551
2050.000000	99.293600
2049.000000	99.361810
2048.000000	99.412868
2047.000000	99.431411
2046.000000	99.427817
2045.000000	99.419414
2044.000000	99.423534
2043.000000	99.451427
2042.000000	99.493410
2041.000000	99.522547
2040.000000	99.526348
2039.000000	99.520557
2038.000000	99.520843
2037.000000	99.521991
2036.000000	99.517906
2035.000000	99.522500
2034.000000	99.550660
2033.000000	99.592575
2032.000000	99.625379
2031.000000	99.639784
2030.000000	99.640703
2029.000000	99.635704
2028.000000	99.636053
2027.000000	99.652492
2026.000000	99.678325
2025.000000	99.691398
2024.000000	99.683688
2023.000000	99.674549
2022.000000	99.685614
2021.000000	99.715937
2020.000000	99.747167
2019.000000	99.759617
2018.000000	99.741431
2017.000000	99.700899
2016.000000	99.669623
2015.000000	99.668195
2014.000000	99.673703
2013.000000	99.647341
2012.000000	99.590694
2011.000000	99.547476
2010.000000	99.548929
2009.000000	99.588317
2008.000000	99.650217
2007.000000	99.728473
2006.000000	99.802850
2005.000000	99.835649
2004.000000	99.814972
2003.000000	99.771966
2002.000000	99.739304
2001.000000	99.718316
2000.000000	99.695537
1999.000000	99.668797
1998.000000	99.644585
1997.000000	99.627320
1996.000000	99.621260
1995.000000	99.628614
1994.000000	99.637257
1993.000000	99.623236
1992.000000	99.577025
1991.000000	99.517334
1990.000000	99.470008
1989.000000	99.450876
1988.000000	99.468889
1987.000000	99.518850
1986.000000	99.567989
1985.000000	99.575189
1984.000000	99.531397
1983.000000	99.460635
1982.000000	99.381517
1981.000000	99.300843
1980.000000	99.249774
1979.000000	99.283366
1978.000000	99.412818
1977.000000	99.563848
1976.000000	99.647022
1975.000000	99.652176
1974.000000	99.632367
1973.000000	99.629395
1972.000000	99.649023
1971.000000	99.679968
1970.000000	99.706022
1969.000000	99.712546
1968.000000	99.701481
1967.000000	99.691117
1966.000000	99.689374
1965.000000	99.683322
1964.000000	99.664772
1963.000000	99.645102
1962.000000	99.637556
1961.000000	99.643417
1960.000000	99.660899
1959.000000	99.688945
1958.000000	99.716070
1957.000000	99.725867
1956.000000	99.720055
1955.000000	99.715897
1954.000000	99.716084
1953.000000	99.701897
1952.000000	99.663374
1951.000000	99.615503
1950.000000	99.576476
1949.000000	99.550515
1948.000000	99.540612
1947.000000	99.556449
1946.000000	99.595596
1945.000000	99.633610
1944.000000	99.647201
1943.000000	99.637664
1942.000000	99.622965
1941.000000	99.616552
1940.000000	99.621550
1939.000000	99.634269
1938.000000	99.643931
1937.000000	99.637891
1936.000000	99.616483
1935.000000	99.593464
1934.000000	99.576887
1933.000000	99.561916
1932.000000	99.547694
1931.000000	99.544952
1930.000000	99.558828
1929.000000	99.578857
1928.000000	99.594877
1927.000000	99.609355
1926.000000	99.623417
1925.000000	99.626245
1924.000000	99.608855
1923.000000	99.580415
1922.000000	99.559079
1921.000000	99.552012
1920.000000	99.554796
1919.000000	99.560503
1918.000000	99.558207
1917.000000	99.538008
1916.000000	99.508359
1915.000000	99.491781
1914.000000	99.501245
1913.000000	99.528227
1912.000000	99.553292
1911.000000	99.563761
1910.000000	99.556963
1909.000000	99.536602
1908.000000	99.514606
1907.000000	99.505983
1906.000000	99.513704
1905.000000	99.526653
1904.000000	99.534233
1903.000000	99.536368
1902.000000	99.536060
1901.000000	99.532424
1900.000000	99.525959
1899.000000	99.522138
1898.000000	99.523904
1897.000000	99.528063
1896.000000	99.532871
1895.000000	99.541948
1894.000000	99.555270
1893.000000	99.565169
1892.000000	99.566705
1891.000000	99.563647
1890.000000	99.560796
1889.000000	99.557932
1888.000000	99.554979
1887.000000	99.551908
1886.000000	99.543996
1885.000000	99.528208
1884.000000	99.513520
1883.000000	99.515068
1882.000000	99.535284
1881.000000	99.559715
1880.000000	99.573436
1879.000000	99.574237
1878.000000	99.568465
1877.000000	99.563885
1876.000000	99.568653
1875.000000	99.585899
1874.000000	99.606062
1873.000000	99.613855
1872.000000	99.606441
1871.000000	99.595679
1870.000000	99.589597
1869.000000	99.580582
1868.000000	99.563283
1867.000000	99.549298
1866.000000	99.545993
1865.000000	99.548648
1864.000000	99.554441
1863.000000	99.565048
1862.000000	99.576185
1861.000000	99.576732
1860.000000	99.564109
1859.000000	99.550178
1858.000000	99.545343
1857.000000	99.547245
1856.000000	99.549954
1855.000000	99.552388
1854.000000	99.553803
1853.000000	99.550853
1852.000000	99.542759
1851.000000	99.534552
1850.000000	99.529983
1849.000000	99.528671
1848.000000	99.531549
1847.000000	99.541767
1846.000000	99.556318
1845.000000	99.563927
1844.000000	99.559679
1843.000000	99.554881
1842.000000	99.556582
1841.000000	99.558851
1840.000000	99.558541
1839.000000	99.559566
1838.000000	99.563244
1837.000000	99.564956
1836.000000	99.562381
1835.000000	99.558716
1834.000000	99.554640
1833.000000	99.545798
1832.000000	99.529877
1831.000000	99.511892
1830.000000	99.498083
1829.000000	99.490574
1828.000000	99.489720
1827.000000	99.494381
1826.000000	99.500414
1825.000000	99.500413
1824.000000	99.494259
1823.000000	99.492680
1822.000000	99.500372
1821.000000	99.511449
1820.000000	99.521337
1819.000000	99.533723
1818.000000	99.550631
1817.000000	99.564117
1816.000000	99.566179
1815.000000	99.559069
1814.000000	99.547945
1813.000000	99.532832
1812.000000	99.514314
1811.000000	99.499095
1810.000000	99.490578
1809.000000	99.480439
1808.000000	99.461559
1807.000000	99.437887
1806.000000	99.413162
1805.000000	99.382594
1804.000000	99.342395
1803.000000	99.297650
1802.000000	99.255493
1801.000000	99.215140
1800.000000	99.176141
1799.000000	99.144662
1798.000000	99.121449
1797.000000	99.099939
1796.000000	99.079905
1795.000000	99.070474
1794.000000	99.078238
1793.000000	99.097354
1792.000000	99.116920
1791.000000	99.138937
1790.000000	99.169934
1789.000000	99.203546
1788.000000	99.232233
1787.000000	99.258292
1786.000000	99.288081
1785.000000	99.321393
1784.000000	99.352841
1783.000000	99.379252
1782.000000	99.400307
1781.000000	99.413722
1780.000000	99.421032
1779.000000	99.430336
1778.000000	99.444654
1777.000000	99.456962
1776.000000	99.461676
1775.000000	99.463477
1774.000000	99.471452
1773.000000	99.486475
1772.000000	99.499122
1771.000000	99.506436
1770.000000	99.511987
1769.000000	99.514158
1768.000000	99.511414
1767.000000	99.509032
1766.000000	99.512877
1765.000000	99.519525
1764.000000	99.523887
1763.000000	99.525870
1762.000000	99.527899
1761.000000	99.530374
1760.000000	99.532360
1759.000000	99.533440
1758.000000	99.533795
1757.000000	99.531510
1756.000000	99.526903
1755.000000	99.526954
1754.000000	99.537893
1753.000000	99.560293
1752.000000	99.587642
1751.000000	99.605869
1750.000000	99.604917
1749.000000	99.591294
1748.000000	99.577168
1747.000000	99.570452
1746.000000	99.571514
1745.000000	99.573344
1744.000000	99.569820
1743.000000	99.563618
1742.000000	99.563486
1741.000000	99.571876
1740.000000	99.581760
1739.000000	99.587053
1738.000000	99.591180
1737.000000	99.600541
1736.000000	99.622759
1735.000000	99.662121
1734.000000	99.700344
1733.000000	99.715694
1732.000000	99.715662
1731.000000	99.711323
1730.000000	99.708219
1729.000000	99.709354
1728.000000	99.717089
1727.000000	99.730712
1726.000000	99.746287
1725.000000	99.758165
1724.000000	99.764216
1723.000000	99.766125
1722.000000	99.765100
1721.000000	99.759796
1720.000000	99.751772
1719.000000	99.747616
1718.000000	99.746847
1717.000000	99.730626
1716.000000	99.694875
1715.000000	99.660113
1714.000000	99.636370
1713.000000	99.621612
1712.000000	99.611648
1711.000000	99.602290
1710.000000	99.588907
1709.000000	99.567899
1708.000000	99.539597
1707.000000	99.509277
1706.000000	99.478168
1705.000000	99.444008
1704.000000	99.414007
1703.000000	99.398043
1702.000000	99.396147
1701.000000	99.391122
1700.000000	99.367660
1699.000000	99.350675
1698.000000	99.348670
1697.000000	99.335485
1696.000000	99.296793
1695.000000	99.258107
1694.000000	99.240680
1693.000000	99.227572
1692.000000	99.209184
1691.000000	99.189794
1690.000000	99.172411
1689.000000	99.155160
1688.000000	99.139328
1687.000000	99.132744
1686.000000	99.135074
1685.000000	99.121904
1684.000000	99.064550
1683.000000	99.005305
1682.000000	98.985055
1681.000000	98.978912
1680.000000	98.967805
1679.000000	98.950765
1678.000000	98.931779
1677.000000	98.908979
1676.000000	98.879058
1675.000000	98.845467
1674.000000	98.818436
1673.000000	98.797664
1672.000000	98.777478
1671.000000	98.756511
1670.000000	98.729802
1669.000000	98.695090
1668.000000	98.665637
1667.000000	98.649850
1666.000000	98.642033
1665.000000	98.633133
1664.000000	98.618129
1663.000000	98.597348
1662.000000	98.575842
1661.000000	98.556946
1660.000000	98.540396
1659.000000	98.525460
1658.000000	98.508814
1657.000000	98.486538
1656.000000	98.463380
1655.000000	98.454628
1654.000000	98.457780
1653.000000	98.444031
1652.000000	98.440696
1651.000000	98.456186
1650.000000	98.460993
1649.000000	98.460396
1648.000000	98.459633
1647.000000	98.461743
1646.000000	98.473320
1645.000000	98.497962
1644.000000	98.522354
1643.000000	98.541173
1642.000000	98.558151
1641.000000	98.571110
1640.000000	98.576758
1639.000000	98.579909
1638.000000	98.587679
1637.000000	98.598691
1636.000000	98.601652
1635.000000	98.602980
1634.000000	98.619812
1633.000000	98.643017
1632.000000	98.663934
1631.000000	98.684197
1630.000000	98.703075
1629.000000	98.717028
1628.000000	98.726892
1627.000000	98.737835
1626.000000	98.751703
1625.000000	98.766041
1624.000000	98.780522
1623.000000	98.796020
1622.000000	98.810378
1621.000000	98.820289
1620.000000	98.826908
1619.000000	98.837265
1618.000000	98.854668
1617.000000	98.871223
1616.000000	98.881986
1615.000000	98.892590
1614.000000	98.902798
1613.000000	98.910571
1612.000000	98.916903
1611.000000	98.922071
1610.000000	98.923659
1609.000000	98.920883
1608.000000	98.918961
1607.000000	98.922583
1606.000000	98.929843
1605.000000	98.935699
1604.000000	98.939357
1603.000000	98.942502
1602.000000	98.942937
1601.000000	98.937584
1600.000000	98.928561
1599.000000	98.919742
1598.000000	98.911075
1597.000000	98.901247
1596.000000	98.893923
1595.000000	98.893641
1594.000000	98.896285
1593.000000	98.893228
1592.000000	98.883311
1591.000000	98.871388
1590.000000	98.858508
1589.000000	98.842747
1588.000000	98.826171
1587.000000	98.811526
1586.000000	98.795489
1585.000000	98.774308
1584.000000	98.751499
1583.000000	98.734408
1582.000000	98.722609
1581.000000	98.709796
1580.000000	98.696443
1579.000000	98.691138
1578.000000	98.699116
1577.000000	98.715461
1576.000000	98.733790
1575.000000	98.754715
1574.000000	98.774229
1573.000000	98.787320
1572.000000	98.799586
1571.000000	98.819397
1570.000000	98.844300
1569.000000	98.865864
1568.000000	98.885971
1567.000000	98.907859
1566.000000	98.927320
1565.000000	98.939904
1564.000000	98.944503
1563.000000	98.944067
1562.000000	98.939455
1561.000000	98.932424
1560.000000	98.929305
1559.000000	98.903502
1558.000000	98.841714
1557.000000	98.805172
1556.000000	98.772288
1555.000000	98.727141
1554.000000	98.671778
1553.000000	98.610676
1552.000000	98.542712
1551.000000	98.463674
1550.000000	98.369161
1549.000000	98.267333
1548.000000	98.173654
1547.000000	98.088681
1546.000000	97.997494
1545.000000	97.884504
1544.000000	97.752045
1543.000000	97.623551
1542.000000	97.511215
1541.000000	97.393049
1540.000000	97.250461
1539.000000	97.131925
1538.000000	97.065693
1537.000000	97.012725
1536.000000	96.954647
1535.000000	96.891235
1534.000000	96.813207
1533.000000	96.714402
1532.000000	96.620431
1531.000000	96.549866
1530.000000	96.484780
1529.000000	96.403509
1528.000000	96.305147
1527.000000	96.204661
1526.000000	96.110542
1525.000000	96.017640
1524.000000	95.923272
1523.000000	95.828600
1522.000000	95.719509
1521.000000	95.584188
1520.000000	95.455870
1519.000000	95.356561
1518.000000	95.260871
1517.000000	95.140683
1516.000000	95.008996
1515.000000	94.902751
1514.000000	94.820182
1513.000000	94.731853
1512.000000	94.624912
1511.000000	94.511021
1510.000000	94.403964
1509.000000	94.298368
1508.000000	94.166666
1507.000000	93.974329
1506.000000	93.783705
1505.000000	93.678703
1504.000000	93.609652
1503.000000	93.533381
1502.000000	93.440168
1501.000000	93.325611
1500.000000	93.194112
1499.000000	93.059507
1498.000000	92.928112
1497.000000	92.791585
1496.000000	92.656104
1495.000000	92.544761
1494.000000	92.456028
1493.000000	92.366976
1492.000000	92.263235
1491.000000	92.143061
1490.000000	92.008892
1489.000000	91.868376
1488.000000	91.741730
1487.000000	91.639475
1486.000000	91.546807
1485.000000	91.447971
1484.000000	91.342884
1483.000000	91.237082
1482.000000	91.129804
1481.000000	91.018822
1480.000000	90.909911
1479.000000	90.808060
1478.000000	90.705468
1477.000000	90.591990
1476.000000	90.473693
1475.000000	90.368865
1474.000000	90.278703
1473.000000	90.180054
1472.000000	90.067509
1471.000000	89.970002
1470.000000	89.892689
1469.000000	89.815183
1468.000000	89.728855
1467.000000	89.638294
1466.000000	89.545727
1465.000000	89.446869
1464.000000	89.349136
1463.000000	89.266974
1462.000000	89.193721
1461.000000	89.111528
1460.000000	89.013619
1459.000000	88.906078
1458.000000	88.791750
1457.000000	88.670118
1456.000000	88.568701
1455.000000	88.501572
1454.000000	88.438218
1453.000000	88.358530
1452.000000	88.266426
1451.000000	88.175634
1450.000000	88.088716
1449.000000	87.995980
1448.000000	87.895488
1447.000000	87.801415
1446.000000	87.723598
1445.000000	87.652876
1444.000000	87.579508
1443.000000	87.503789
1442.000000	87.426623
1441.000000	87.345719
1440.000000	87.261503
1439.000000	87.178232
1438.000000	87.099714
1437.000000	87.027773
1436.000000	86.965658
1435.000000	86.912621
1434.000000	86.854127
1433.000000	86.775820
1432.000000	86.679261
1431.000000	86.575317
1430.000000	86.471187
1429.000000	86.369176
1428.000000	86.274456
1427.000000	86.189567
1426.000000	86.106463
1425.000000	86.014837
1424.000000	85.914805
1423.000000	85.815243
1422.000000	85.717822
1421.000000	85.613000
1420.000000	85.494704
1419.000000	85.368582
1418.000000	85.248053
1417.000000	85.139251
1416.000000	85.037333
1415.000000	84.937920
1414.000000	84.835524
1413.000000	84.725557
1412.000000	84.612669
1411.000000	84.505447
1410.000000	84.404003
1409.000000	84.301879
1408.000000	84.198817
1407.000000	84.099918
1406.000000	84.005087
1405.000000	83.911128
1404.000000	83.824033
1403.000000	83.750785
1402.000000	83.681923
1401.000000	83.602145
1400.000000	83.511291
1399.000000	83.421200
1398.000000	83.335292
1397.000000	83.245632
1396.000000	83.151087
1395.000000	83.061032
1394.000000	82.980922
1393.000000	82.906746
1392.000000	82.832224
1391.000000	82.754272
1390.000000	82.668514
1389.000000	82.571184
1388.000000	82.468987
1387.000000	82.374113
1386.000000	82.287787
1385.000000	82.202814
1384.000000	82.119725
1383.000000	82.044208
1382.000000	81.972610
1381.000000	81.896005
1380.000000	81.818593
1379.000000	81.753549
1378.000000	81.701754
1377.000000	81.653902
1376.000000	81.611952
1375.000000	81.588909
1374.000000	81.588075
1373.000000	81.602571
1372.000000	81.633494
1371.000000	81.686347
1370.000000	81.757377
1369.000000	81.841057
1368.000000	81.940680
1367.000000	82.058992
1366.000000	82.186918
1365.000000	82.317633
1364.000000	82.464911
1363.000000	82.647656
1362.000000	82.857692
1361.000000	83.072025
1360.000000	83.286810
1359.000000	83.510006
1358.000000	83.740070
1357.000000	83.971107
1356.000000	84.207614
1355.000000	84.455745
1354.000000	84.707640
1353.000000	84.951299
1352.000000	85.189233
1351.000000	85.430256
1350.000000	85.670836
1349.000000	85.903365
1348.000000	86.131799
1347.000000	86.363381
1346.000000	86.593341
1345.000000	86.812702
1344.000000	87.022041
1343.000000	87.226933
1342.000000	87.429012
1341.000000	87.631521
1340.000000	87.841830
1339.000000	88.057441
1338.000000	88.263760
1337.000000	88.455469
1336.000000	88.642677
1335.000000	88.832574
1334.000000	89.019548
1333.000000	89.198420
1332.000000	89.375006
1331.000000	89.554652
1330.000000	89.732228
1329.000000	89.903257
1328.000000	90.073011
1327.000000	90.244830
1326.000000	90.411104
1325.000000	90.565882
1324.000000	90.713553
1323.000000	90.858358
1322.000000	90.997375
1321.000000	91.130376
1320.000000	91.264551
1319.000000	91.402233
1318.000000	91.534564
1317.000000	91.655443
1316.000000	91.771000
1315.000000	91.889311
1314.000000	92.011038
1313.000000	92.134185
1312.000000	92.258588
1311.000000	92.381125
1310.000000	92.495599
1309.000000	92.602052
1308.000000	92.707842
1307.000000	92.816553
1306.000000	92.923335
1305.000000	93.025019
1304.000000	93.124933
1303.000000	93.225623
1302.000000	93.325354
1301.000000	93.423741
1300.000000	93.522459
1299.000000	93.619075
1298.000000	93.708745
1297.000000	93.792799
1296.000000	93.877358
1295.000000	93.962160
1294.000000	94.040305
1293.000000	94.109522
1292.000000	94.174547
1291.000000	94.238285
1290.000000	94.299129
1289.000000	94.357749
1288.000000	94.417131
1287.000000	94.475126
1286.000000	94.526283
1285.000000	94.571643
1284.000000	94.617992
1283.000000	94.667347
1282.000000	94.715338
1281.000000	94.760242
1280.000000	94.805087
1279.000000	94.850175
1278.000000	94.892590
1277.000000	94.933614
1276.000000	94.978392
1275.000000	95.026928
1274.000000	95.073667
1273.000000	95.116546
1272.000000	95.158464
1271.000000	95.199341
1270.000000	95.235343
1269.000000	95.267282
1268.000000	95.301436
1267.000000	95.340390
1266.000000	95.380370
1265.000000	95.417944
1264.000000	95.452401
1263.000000	95.481593
1262.000000	95.502664
1261.000000	95.518043
1260.000000	95.534203
1259.000000	95.553726
1258.000000	95.574585
1257.000000	95.595985
1256.000000	95.618911
1255.000000	95.642157
1254.000000	95.663819
1253.000000	95.685294
1252.000000	95.708285
1251.000000	95.729789
1250.000000	95.746085
1249.000000	95.759313
1248.000000	95.773620
1247.000000	95.787149
1246.000000	95.795443
1245.000000	95.800274
1244.000000	95.807415
1243.000000	95.817074
1242.000000	95.823783
1241.000000	95.825316
1240.000000	95.825251
1239.000000	95.827647
1238.000000	95.834747
1237.000000	95.848589
1236.000000	95.868952
1235.000000	95.890843
1234.000000	95.909584
1233.000000	95.926936
1232.000000	95.947338
1231.000000	95.970792
1230.000000	95.994956
1229.000000	96.020929
1228.000000	96.050398
1227.000000	96.080603
1226.000000	96.109178
1225.000000	96.140802
1224.000000	96.181217
1223.000000	96.226840
1222.000000	96.268639
1221.000000	96.304392
1220.000000	96.339156
1219.000000	96.375346
1218.000000	96.410796
1217.000000	96.445422
1216.000000	96.481070
1215.000000	96.515011
1214.000000	96.541338
1213.000000	96.559496
1212.000000	96.574390
1211.000000	96.588375
1210.000000	96.599845
1209.000000	96.609315
1208.000000	96.620200
1207.000000	96.633098
1206.000000	96.645342
1205.000000	96.656850
1204.000000	96.670790
1203.000000	96.687609
1202.000000	96.703312
1201.000000	96.714701
1200.000000	96.722566
1199.000000	96.729562
1198.000000	96.738479
1197.000000	96.752019
1196.000000	96.770758
1195.000000	96.791778
1194.000000	96.811851
1193.000000	96.830786
1192.000000	96.849525
1191.000000	96.867853
1190.000000	96.886711
1189.000000	96.909028
1188.000000	96.934204
1187.000000	96.955406
1186.000000	96.967057
1185.000000	96.971955
1184.000000	96.976505
1183.000000	96.982826
1182.000000	96.990407
1181.000000	97.001396
1180.000000	97.017769
1179.000000	97.035357
1178.000000	97.047208
1177.000000	97.051631
1176.000000	97.052158
1175.000000	97.052110
1174.000000	97.053645
1173.000000	97.059280
1172.000000	97.069186
1171.000000	97.078761
1170.000000	97.083340
1169.000000	97.083374
1168.000000	97.081942
1167.000000	97.080598
1166.000000	97.081222
1165.000000	97.087415
1164.000000	97.099395
1163.000000	97.111695
1162.000000	97.120553
1161.000000	97.128975
1160.000000	97.139714
1159.000000	97.148973
1158.000000	97.153624
1157.000000	97.158857
1156.000000	97.170947
1155.000000	97.187354
1154.000000	97.202400
1153.000000	97.218384
1152.000000	97.241446
1151.000000	97.269601
1150.000000	97.294691
1149.000000	97.314568
1148.000000	97.333562
1147.000000	97.352002
1146.000000	97.364994
1145.000000	97.372021
1144.000000	97.379217
1143.000000	97.390959
1142.000000	97.406212
1141.000000	97.423830
1140.000000	97.444913
1139.000000	97.468899
1138.000000	97.493140
1137.000000	97.517038
1136.000000	97.541969
1135.000000	97.567055
1134.000000	97.589517
1133.000000	97.608706
1132.000000	97.625782
1131.000000	97.640377
1130.000000	97.651373
1129.000000	97.659459
1128.000000	97.665112
1127.000000	97.666847
1126.000000	97.665487
1125.000000	97.666933
1124.000000	97.675820
1123.000000	97.689194
1122.000000	97.701287
1121.000000	97.711598
1120.000000	97.723022
1119.000000	97.735189
1118.000000	97.745045
1117.000000	97.751267
1116.000000	97.753195
1115.000000	97.748959
1114.000000	97.739806
1113.000000	97.732098
1112.000000	97.729598
1111.000000	97.728289
1110.000000	97.724692
1109.000000	97.723874
1108.000000	97.731086
1107.000000	97.740805
1106.000000	97.743148
1105.000000	97.737564
1104.000000	97.731156
1103.000000	97.726417
1102.000000	97.720343
1101.000000	97.714015
1100.000000	97.711621
1099.000000	97.712929
1098.000000	97.711944
1097.000000	97.706310
1096.000000	97.699174
1095.000000	97.691219
1094.000000	97.678132
1093.000000	97.657295
1092.000000	97.630928
1091.000000	97.601952
1090.000000	97.571918
1089.000000	97.543436
1088.000000	97.519369
1087.000000	97.498848
1086.000000	97.478230
1085.000000	97.455746
1084.000000	97.431851
1083.000000	97.406700
1082.000000	97.382428
1081.000000	97.365776
1080.000000	97.362833
1079.000000	97.371540
1078.000000	97.384804
1077.000000	97.400222
1076.000000	97.420712
1075.000000	97.447070
1074.000000	97.476060
1073.000000	97.505584
1072.000000	97.535412
1071.000000	97.562688
1070.000000	97.582873
1069.000000	97.595974
1068.000000	97.606611
1067.000000	97.617346
1066.000000	97.626675
1065.000000	97.633950
1064.000000	97.641714
1063.000000	97.652188
1062.000000	97.665056
1061.000000	97.679301
1060.000000	97.694088
1059.000000	97.707569
1058.000000	97.717560
1057.000000	97.723284
1056.000000	97.724866
1055.000000	97.722365
1054.000000	97.717154
1053.000000	97.712280
1052.000000	97.709381
1051.000000	97.707776
1050.000000	97.708595
1049.000000	97.716017
1048.000000	97.731497
1047.000000	97.750949
1046.000000	97.770423
1045.000000	97.789562
1044.000000	97.805703
1043.000000	97.810914
1042.000000	97.801313
1041.000000	97.785697
1040.000000	97.778030
1039.000000	97.783322
1038.000000	97.795570
1037.000000	97.806750
1036.000000	97.812496
1035.000000	97.811250
1034.000000	97.804310
1033.000000	97.796066
1032.000000	97.789874
1031.000000	97.784705
1030.000000	97.779175
1029.000000	97.775861
1028.000000	97.777622
1027.000000	97.782627
1026.000000	97.787915
1025.000000	97.794793
1024.000000	97.805492
1023.000000	97.817107
1022.000000	97.824840
1021.000000	97.829549
1020.000000	97.836401
1019.000000	97.847738
1018.000000	97.862015
1017.000000	97.878288
1016.000000	97.896745
1015.000000	97.916416
1014.000000	97.937015
1013.000000	97.960915
1012.000000	97.988346
1011.000000	98.013162
1010.000000	98.029047
1009.000000	98.038520
1008.000000	98.050371
1007.000000	98.069175
1006.000000	98.092310
1005.000000	98.115693
1004.000000	98.137338
1003.000000	98.156248
1002.000000	98.172945
1001.000000	98.191069
1000.000000	98.214193
999.000000	98.240940
998.000000	98.266295
997.000000	98.287104
996.000000	98.303981
995.000000	98.319908
994.000000	98.339478
993.000000	98.366288
992.000000	98.397556
991.000000	98.424439
990.000000	98.442025
989.000000	98.456060
988.000000	98.474654
987.000000	98.496731
986.000000	98.514316
985.000000	98.524346
984.000000	98.532292
983.000000	98.544683
982.000000	98.563076
981.000000	98.584165
980.000000	98.601596
979.000000	98.608941
978.000000	98.605580
977.000000	98.599001
976.000000	98.597855
975.000000	98.603783
974.000000	98.613112
973.000000	98.623751
972.000000	98.636062
971.000000	98.649271
970.000000	98.661711
969.000000	98.673179
968.000000	98.683151
967.000000	98.689251
966.000000	98.692294
965.000000	98.700136
964.000000	98.720294
963.000000	98.750172
962.000000	98.779747
961.000000	98.803320
960.000000	98.823539
959.000000	98.844471
958.000000	98.866222
957.000000	98.886299
956.000000	98.902206
955.000000	98.912767
954.000000	98.920211
953.000000	98.929833
952.000000	98.944459
951.000000	98.960751
950.000000	98.974303
949.000000	98.985725
948.000000	98.997725
947.000000	99.009117
946.000000	99.017094
945.000000	99.023225
944.000000	99.031352
943.000000	99.040810
942.000000	99.047248
941.000000	99.049865
940.000000	99.052742
939.000000	99.059262
938.000000	99.069106
937.000000	99.080124
936.000000	99.089697
935.000000	99.095959
934.000000	99.101579
933.000000	99.114203
932.000000	99.137810
931.000000	99.165433
930.000000	99.186119
929.000000	99.197970
928.000000	99.209132
927.000000	99.226192
926.000000	99.246996
925.000000	99.264590
924.000000	99.273697
923.000000	99.273816
922.000000	99.270507
921.000000	99.272878
920.000000	99.285294
919.000000	99.302381
918.000000	99.316629
917.000000	99.329208
916.000000	99.347116
915.000000	99.371438
914.000000	99.395186
913.000000	99.413036
912.000000	99.426010
911.000000	99.435925
910.000000	99.442855
909.000000	99.450250
908.000000	99.465399
907.000000	99.490332
906.000000	99.517416
905.000000	99.537845
904.000000	99.551242
903.000000	99.563377
902.000000	99.578238
901.000000	99.596111
900.000000	99.616839
899.000000	99.641124
898.000000	99.668752
897.000000	99.697456
896.000000	99.723120
895.000000	99.742279
894.000000	99.757252
893.000000	99.777544
892.000000	99.810684
891.000000	99.850514
890.000000	99.877237
889.000000	99.866704
888.000000	99.792105
887.000000	99.611088
886.000000	99.264925
885.000000	98.698581
884.000000	97.882417
883.000000	96.818756
882.000000	95.531940
881.000000	94.065944
880.000000	92.484268
879.000000	90.859251
878.000000	89.254265
877.000000	87.711937
876.000000	86.249992
875.000000	84.850790
874.000000	83.502473
873.000000	82.324354
872.000000	81.684067
871.000000	82.068985
870.000000	83.705055
869.000000	86.288058
868.000000	89.129348
867.000000	91.590239
866.000000	93.403314
865.000000	94.647700
864.000000	95.516235
863.000000	96.150934
862.000000	96.628742
861.000000	96.997406
860.000000	97.286954
859.000000	97.510195
858.000000	97.682456
857.000000	97.826077
856.000000	97.954392
855.000000	98.066781
854.000000	98.161912
853.000000	98.239140
852.000000	98.280060
851.000000	98.252946
850.000000	98.155314
849.000000	98.043046
848.000000	97.999711
847.000000	98.071728
846.000000	98.235255
845.000000	98.422226
844.000000	98.572285
843.000000	98.666196
842.000000	98.722765
841.000000	98.770422
840.000000	98.822152
839.000000	98.873589
838.000000	98.917154
837.000000	98.951458
836.000000	98.979133
835.000000	99.003634
834.000000	99.028734
833.000000	99.055601
832.000000	99.080423
831.000000	99.100191
830.000000	99.119370
829.000000	99.143941
828.000000	99.170366
827.000000	99.189189
826.000000	99.198650
825.000000	99.205231
824.000000	99.211447
823.000000	99.214782
822.000000	99.219084
821.000000	99.232928
820.000000	99.254287
819.000000	99.269310
818.000000	99.270869
817.000000	99.267601
816.000000	99.270142
815.000000	99.278263
814.000000	99.286997
813.000000	99.296931
812.000000	99.311402
811.000000	99.329640
810.000000	99.348606
809.000000	99.367130
808.000000	99.383864
807.000000	99.396014
806.000000	99.403614
805.000000	99.410455
804.000000	99.418717
803.000000	99.427695
802.000000	99.438426
801.000000	99.452126
800.000000	99.463001
799.000000	99.461334
798.000000	99.446617
797.000000	99.429032
796.000000	99.415698
795.000000	99.405956
794.000000	99.403383
793.000000	99.419078
792.000000	99.454233
791.000000	99.489123
790.000000	99.500932
789.000000	99.488236
788.000000	99.469358
787.000000	99.460700
786.000000	99.464202
785.000000	99.472704
784.000000	99.480045
783.000000	99.485591
782.000000	99.493246
781.000000	99.505854
780.000000	99.519501
779.000000	99.526289
778.000000	99.524022
777.000000	99.519294
776.000000	99.519721
775.000000	99.527851
774.000000	99.543636
773.000000	99.565732
772.000000	99.587138
771.000000	99.596787
770.000000	99.591390
769.000000	99.581356
768.000000	99.580167
767.000000	99.590712
766.000000	99.604743
765.000000	99.612091
764.000000	99.608100
763.000000	99.596440
762.000000	99.587322
761.000000	99.588792
760.000000	99.598222
759.000000	99.606673
758.000000	99.612302
757.000000	99.622930
756.000000	99.643733
755.000000	99.669604
754.000000	99.692834
753.000000	99.711571
752.000000	99.727063
751.000000	99.739175
750.000000	99.747973
749.000000	99.754162
748.000000	99.755037
747.000000	99.746468
746.000000	99.731663
745.000000	99.720743
744.000000	99.718348
743.000000	99.719427
742.000000	99.720599
741.000000	99.726560
740.000000	99.740255
739.000000	99.754974
738.000000	99.762800
737.000000	99.764535
736.000000	99.765344
735.000000	99.766017
734.000000	99.764060
733.000000	99.758066
732.000000	99.747134
731.000000	99.732165
730.000000	99.720403
729.000000	99.719374
728.000000	99.725527
727.000000	99.725898
726.000000	99.710845
725.000000	99.680371
724.000000	99.635799
723.000000	99.571796
722.000000	99.478303
721.000000	99.343579
720.000000	99.150587
719.000000	98.872743
718.000000	98.475813
717.000000	97.927162
716.000000	97.222389
715.000000	96.431510
714.000000	95.721516
713.000000	95.297217
712.000000	95.282072
711.000000	95.641777
710.000000	96.221463
709.000000	96.846269
708.000000	97.393126
707.000000	97.807713
706.000000	98.089043
705.000000	98.268134
704.000000	98.385775
703.000000	98.471868
702.000000	98.541480
701.000000	98.603581
700.000000	98.662960
699.000000	98.721917
698.000000	98.783073
697.000000	98.849933
696.000000	98.922752
695.000000	98.993292
694.000000	99.053909
693.000000	99.104705
692.000000	99.145075
691.000000	99.172790
690.000000	99.190767
689.000000	99.208176
688.000000	99.229490
687.000000	99.247827
686.000000	99.261900
685.000000	99.282801
684.000000	99.313521
683.000000	99.340510
682.000000	99.353511
681.000000	99.358208
680.000000	99.360169
679.000000	99.355147
678.000000	99.344962
677.000000	99.336500
676.000000	99.331603
675.000000	99.323482
674.000000	99.313845
673.000000	99.318675
672.000000	99.348876
671.000000	99.399931
670.000000	99.466526
669.000000	99.543403
668.000000	99.556464
667.000000	99.443111
666.000000	99.345332
665.000000	99.298240
664.000000	99.269485
663.000000	99.256936
662.000000	99.259660
661.000000	99.268955
660.000000	99.282455
659.000000	99.306688
658.000000	99.339828
657.000000	99.361774
656.000000	99.365145
655.000000	99.363934
654.000000	99.364842
653.000000	99.356994
652.000000	99.340726
651.000000	99.333620
650.000000	99.341757
649.000000	99.347770
648.000000	99.341989
647.000000	99.336963
646.000000	99.339870
645.000000	99.342121
644.000000	99.340935
643.000000	99.344429
642.000000	99.352378
641.000000	99.349552
640.000000	99.329038
639.000000	99.308006
638.000000	99.305648
637.000000	99.320792
636.000000	99.342051
635.000000	99.360977
634.000000	99.370529
633.000000	99.365438
632.000000	99.349311
631.000000	99.333879
630.000000	99.325331
629.000000	99.319349
628.000000	99.314788
627.000000	99.319076
626.000000	99.331454
625.000000	99.338285
624.000000	99.330183
623.000000	99.313335
622.000000	99.302140
621.000000	99.306690
620.000000	99.327138
619.000000	99.353514
618.000000	99.370991
617.000000	99.373605
616.000000	99.371986
615.000000	99.380318
614.000000	99.396997
613.000000	99.407037
612.000000	99.401784
611.000000	99.387144
610.000000	99.371931
609.000000	99.358728
608.000000	99.348447
607.000000	99.342747
606.000000	99.339395
605.000000	99.337819
604.000000	99.345085
603.000000	99.364204
602.000000	99.379970
601.000000	99.370780
600.000000	99.336680
599.000000	99.301991
598.000000	99.290460
597.000000	99.306688
596.000000	99.342168
595.000000	99.385323
594.000000	99.420791
593.000000	99.431911
592.000000	99.412185
591.000000	99.371340
590.000000	99.327331
589.000000	99.296930
588.000000	99.292958
587.000000	99.318849
586.000000	99.359505
585.000000	99.385647
584.000000	99.377697
583.000000	99.341496
582.000000	99.300757
581.000000	99.278807
580.000000	99.288124
579.000000	99.325453
578.000000	99.372400
577.000000	99.405654
576.000000	99.413851
575.000000	99.407199
574.000000	99.405672
573.000000	99.416891
572.000000	99.430189
571.000000	99.430167
570.000000	99.411228
569.000000	99.380411
568.000000	99.347860
567.000000	99.319142
566.000000	99.295497
565.000000	99.276342
564.000000	99.261724
563.000000	99.253613
562.000000	99.258328
561.000000	99.284354
560.000000	99.332361
559.000000	99.385106
558.000000	99.413716
557.000000	99.401002
556.000000	99.359730
555.000000	99.324351
554.000000	99.319979
553.000000	99.338209
552.000000	99.345175
551.000000	99.312914
550.000000	99.246909
549.000000	99.184901
548.000000	99.164392
547.000000	99.191657
546.000000	99.242202
545.000000	99.289027
544.000000	99.323082
543.000000	99.344390
542.000000	99.349198
541.000000	99.337487
540.000000	99.322034
539.000000	99.311951
538.000000	99.293156
537.000000	99.243278
536.000000	99.169104
535.000000	99.108598
534.000000	99.088109
533.000000	99.090841
532.000000	99.085660
531.000000	99.068297
530.000000	99.054529
529.000000	99.044035
528.000000	99.017497
527.000000	98.968299
526.000000	98.923785
525.000000	98.921822
524.000000	98.964980
523.000000	99.019519
522.000000	99.055238
521.000000	99.072286
520.000000	99.090268
519.000000	99.116685
518.000000	99.134081
517.000000	99.127209
516.000000	99.111565
515.000000	99.115461
514.000000	99.144470
513.000000	99.179568
512.000000	99.205636
511.000000	99.225247
510.000000	99.244295
509.000000	99.258937
508.000000	99.267545
507.000000	99.274226
506.000000	99.277190
505.000000	99.269983
504.000000	99.255939
503.000000	99.250076
502.000000	99.260602
501.000000	99.285186
500.000000	99.329861
499.000000	99.402147
498.000000	99.480985
497.000000	99.515523
496.000000	99.473517
495.000000	99.378932
494.000000	99.285714
493.000000	99.231953
492.000000	99.229406
491.000000	99.269453
490.000000	99.325232
489.000000	99.361496
488.000000	99.366043
487.000000	99.359853
486.000000	99.364635
485.000000	99.372805
484.000000	99.362713
483.000000	99.331574
482.000000	99.297399
481.000000	99.280667
480.000000	99.298284
479.000000	99.362694
478.000000	99.468951
477.000000	99.581702
476.000000	99.652853
475.000000	99.649650
474.000000	99.569031
473.000000	99.441026
472.000000	99.329949
471.000000	99.294289
470.000000	99.332933
469.000000	99.390221
468.000000	99.407211
467.000000	99.364893
466.000000	99.293394
465.000000	99.238946
464.000000	99.230629
463.000000	99.272407
462.000000	99.338327
461.000000	99.389810
460.000000	99.414027
459.000000	99.438762
458.000000	99.502074
457.000000	99.599925
456.000000	99.691824
455.000000	99.751862
454.000000	99.772114
453.000000	99.754229
452.000000	99.723075
451.000000	99.714683
450.000000	99.729529
