PE IR       SUBTECH     SPECTRUM    ASCII       PEDS        4.00        
   -1
A5G-F002_1.ASC
23/09/14
10:54:48.00
23/09/14
11:18:22.00
uco
Sample 002 By uco Date Thursday, September 14 2023
450.000000
#HDR
-1
-1
#GR
cm-1
%T
1.0
0.0
4000.000000
-1.000000
3551
8
99.615679
78.456744
#DATA
4000.000000	99.502561
3999.000000	99.499221
3998.000000	99.499090
3997.000000	99.502661
3996.000000	99.508412
3995.000000	99.513541
3994.000000	99.515439
3993.000000	99.513294
3992.000000	99.508291
3991.000000	99.502509
3990.000000	99.497663
3989.000000	99.494659
3988.000000	99.493860
3987.000000	99.495275
3986.000000	99.498275
3985.000000	99.501449
3984.000000	99.503179
3983.000000	99.502810
3982.000000	99.501027
3981.000000	99.498926
3980.000000	99.496908
3979.000000	99.494578
3978.000000	99.491612
3977.000000	99.488637
3976.000000	99.487195
3975.000000	99.488448
3974.000000	99.491845
3973.000000	99.495329
3972.000000	99.497212
3971.000000	99.497486
3970.000000	99.497140
3969.000000	99.496716
3968.000000	99.495867
3967.000000	99.494486
3966.000000	99.493569
3965.000000	99.494438
3964.000000	99.497116
3963.000000	99.499863
3962.000000	99.500584
3961.000000	99.498559
3960.000000	99.494971
3959.000000	99.491387
3958.000000	99.488252
3957.000000	99.485348
3956.000000	99.482675
3955.000000	99.480488
3954.000000	99.478672
3953.000000	99.476888
3952.000000	99.475602
3951.000000	99.476103
3950.000000	99.479171
3949.000000	99.483409
3948.000000	99.485664
3947.000000	99.483812
3946.000000	99.478556
3945.000000	99.472674
3944.000000	99.468858
3943.000000	99.467871
3942.000000	99.468783
3941.000000	99.470033
3940.000000	99.470744
3939.000000	99.471016
3938.000000	99.471344
3937.000000	99.472601
3936.000000	99.475471
3935.000000	99.479621
3934.000000	99.483354
3933.000000	99.484311
3932.000000	99.481895
3931.000000	99.477714
3930.000000	99.473483
3929.000000	99.469034
3928.000000	99.463291
3927.000000	99.457595
3926.000000	99.454985
3925.000000	99.456446
3924.000000	99.459276
3923.000000	99.459588
3922.000000	99.456170
3921.000000	99.451779
3920.000000	99.450972
3919.000000	99.456183
3918.000000	99.464497
3917.000000	99.469665
3916.000000	99.468486
3915.000000	99.463135
3914.000000	99.457473
3913.000000	99.452888
3912.000000	99.449285
3911.000000	99.446720
3910.000000	99.445618
3909.000000	99.446082
3908.000000	99.447893
3907.000000	99.451697
3906.000000	99.458994
3905.000000	99.470118
3904.000000	99.482500
3903.000000	99.491230
3902.000000	99.492116
3901.000000	99.484652
3900.000000	99.471519
3899.000000	99.457815
3898.000000	99.448360
3897.000000	99.444092
3896.000000	99.442854
3895.000000	99.442094
3894.000000	99.441051
3893.000000	99.441204
3892.000000	99.444918
3891.000000	99.452583
3890.000000	99.462203
3889.000000	99.471369
3888.000000	99.478943
3887.000000	99.484078
3886.000000	99.485212
3885.000000	99.482355
3884.000000	99.478348
3883.000000	99.476179
3882.000000	99.476583
3881.000000	99.478553
3880.000000	99.480417
3879.000000	99.480738
3878.000000	99.479134
3877.000000	99.476691
3876.000000	99.475169
3875.000000	99.475522
3874.000000	99.477276
3873.000000	99.479697
3872.000000	99.482682
3871.000000	99.484876
3870.000000	99.483447
3869.000000	99.478575
3868.000000	99.475093
3867.000000	99.477006
3866.000000	99.482370
3865.000000	99.485591
3864.000000	99.484173
3863.000000	99.480291
3862.000000	99.477084
3861.000000	99.475912
3860.000000	99.476224
3859.000000	99.476767
3858.000000	99.475959
3857.000000	99.473206
3856.000000	99.470293
3855.000000	99.470411
3854.000000	99.475298
3853.000000	99.479800
3852.000000	99.477630
3851.000000	99.470844
3850.000000	99.463558
3849.000000	99.456130
3848.000000	99.448938
3847.000000	99.443493
3846.000000	99.440776
3845.000000	99.440393
3844.000000	99.441640
3843.000000	99.444138
3842.000000	99.448496
3841.000000	99.455062
3840.000000	99.463116
3839.000000	99.471266
3838.000000	99.477201
3837.000000	99.478318
3836.000000	99.474422
3835.000000	99.467953
3834.000000	99.461333
3833.000000	99.454773
3832.000000	99.447470
3831.000000	99.440986
3830.000000	99.438336
3829.000000	99.440916
3828.000000	99.447152
3827.000000	99.453172
3826.000000	99.455976
3825.000000	99.456187
3824.000000	99.457426
3823.000000	99.461191
3822.000000	99.464410
3821.000000	99.462352
3820.000000	99.455822
3819.000000	99.451048
3818.000000	99.451152
3817.000000	99.453090
3816.000000	99.451382
3815.000000	99.446893
3814.000000	99.445240
3813.000000	99.447672
3812.000000	99.449892
3811.000000	99.447837
3810.000000	99.442015
3809.000000	99.436100
3808.000000	99.432526
3807.000000	99.430284
3806.000000	99.427899
3805.000000	99.426117
3804.000000	99.427208
3803.000000	99.431307
3802.000000	99.435266
3801.000000	99.436324
3800.000000	99.436295
3799.000000	99.437136
3798.000000	99.437804
3797.000000	99.435931
3796.000000	99.431859
3795.000000	99.429125
3794.000000	99.429921
3793.000000	99.432803
3792.000000	99.435000
3791.000000	99.435368
3790.000000	99.434491
3789.000000	99.433275
3788.000000	99.431973
3787.000000	99.430549
3786.000000	99.428595
3785.000000	99.425529
3784.000000	99.421815
3783.000000	99.419306
3782.000000	99.419120
3781.000000	99.420310
3780.000000	99.421356
3779.000000	99.421729
3778.000000	99.422095
3777.000000	99.423135
3776.000000	99.425319
3775.000000	99.428516
3774.000000	99.432150
3773.000000	99.435862
3772.000000	99.439911
3771.000000	99.444629
3770.000000	99.450216
3769.000000	99.457012
3768.000000	99.464746
3767.000000	99.471953
3766.000000	99.475464
3765.000000	99.472372
3764.000000	99.464258
3763.000000	99.456903
3762.000000	99.454767
3761.000000	99.457856
3760.000000	99.463650
3759.000000	99.469298
3758.000000	99.472033
3757.000000	99.470227
3756.000000	99.465663
3755.000000	99.462883
3754.000000	99.466497
3753.000000	99.478351
3752.000000	99.495660
3751.000000	99.511149
3750.000000	99.517061
3749.000000	99.512337
3748.000000	99.502380
3747.000000	99.492129
3746.000000	99.481096
3745.000000	99.465744
3744.000000	99.451052
3743.000000	99.449690
3742.000000	99.464917
3741.000000	99.488438
3740.000000	99.509901
3739.000000	99.523454
3738.000000	99.526772
3737.000000	99.519758
3736.000000	99.506187
3735.000000	99.494676
3734.000000	99.491961
3733.000000	99.494184
3732.000000	99.493461
3731.000000	99.488262
3730.000000	99.482480
3729.000000	99.479652
3728.000000	99.480043
3727.000000	99.481543
3726.000000	99.481594
3725.000000	99.478952
3724.000000	99.474108
3723.000000	99.468930
3722.000000	99.466033
3721.000000	99.466233
3720.000000	99.468919
3719.000000	99.473465
3718.000000	99.478581
3717.000000	99.482530
3716.000000	99.485104
3715.000000	99.487116
3714.000000	99.486646
3713.000000	99.479450
3712.000000	99.466188
3711.000000	99.456106
3710.000000	99.456047
3709.000000	99.463015
3708.000000	99.470739
3707.000000	99.476048
3706.000000	99.479493
3705.000000	99.481540
3704.000000	99.482324
3703.000000	99.482188
3702.000000	99.481496
3701.000000	99.479876
3700.000000	99.476798
3699.000000	99.472793
3698.000000	99.468740
3697.000000	99.465141
3696.000000	99.463202
3695.000000	99.464438
3694.000000	99.467433
3693.000000	99.468578
3692.000000	99.466409
3691.000000	99.464635
3690.000000	99.466968
3689.000000	99.470431
3688.000000	99.469191
3687.000000	99.463634
3686.000000	99.458230
3685.000000	99.454550
3684.000000	99.451791
3683.000000	99.449776
3682.000000	99.449504
3681.000000	99.451188
3680.000000	99.453926
3679.000000	99.458765
3678.000000	99.469294
3677.000000	99.484890
3676.000000	99.495038
3675.000000	99.490025
3674.000000	99.476044
3673.000000	99.465059
3672.000000	99.462103
3671.000000	99.463288
3670.000000	99.461083
3669.000000	99.453644
3668.000000	99.445840
3667.000000	99.441157
3666.000000	99.438837
3665.000000	99.436382
3664.000000	99.433340
3663.000000	99.431347
3662.000000	99.431102
3661.000000	99.431073
3660.000000	99.429896
3659.000000	99.429095
3658.000000	99.431781
3657.000000	99.438846
3656.000000	99.447841
3655.000000	99.456318
3654.000000	99.464793
3653.000000	99.475120
3652.000000	99.487572
3651.000000	99.497855
3650.000000	99.495461
3649.000000	99.471985
3648.000000	99.436478
3647.000000	99.409614
3646.000000	99.400690
3645.000000	99.403811
3644.000000	99.410026
3643.000000	99.414608
3642.000000	99.416761
3641.000000	99.417566
3640.000000	99.417790
3639.000000	99.416666
3638.000000	99.412989
3637.000000	99.407026
3636.000000	99.401349
3635.000000	99.398902
3634.000000	99.400794
3633.000000	99.406375
3632.000000	99.414828
3631.000000	99.424375
3630.000000	99.429897
3629.000000	99.424935
3628.000000	99.412549
3627.000000	99.403500
3626.000000	99.400766
3625.000000	99.400821
3624.000000	99.401463
3623.000000	99.404266
3622.000000	99.410770
3621.000000	99.417747
3620.000000	99.418225
3619.000000	99.409685
3618.000000	99.398323
3617.000000	99.392557
3616.000000	99.395600
3615.000000	99.404187
3614.000000	99.411193
3613.000000	99.411425
3612.000000	99.406974
3611.000000	99.403067
3610.000000	99.399264
3609.000000	99.389143
3608.000000	99.370834
3607.000000	99.352581
3606.000000	99.343380
3605.000000	99.343583
3604.000000	99.347151
3603.000000	99.348389
3602.000000	99.345026
3601.000000	99.337915
3600.000000	99.330637
3599.000000	99.328037
3598.000000	99.331920
3597.000000	99.339816
3596.000000	99.347824
3595.000000	99.353107
3594.000000	99.355256
3593.000000	99.355985
3592.000000	99.357328
3591.000000	99.359618
3590.000000	99.360286
3589.000000	99.355495
3588.000000	99.344775
3587.000000	99.333229
3586.000000	99.326772
3585.000000	99.324252
3584.000000	99.320179
3583.000000	99.311813
3582.000000	99.300903
3581.000000	99.290566
3580.000000	99.283398
3579.000000	99.281066
3578.000000	99.283988
3577.000000	99.291354
3576.000000	99.301549
3575.000000	99.312374
3574.000000	99.320598
3573.000000	99.324002
3572.000000	99.322900
3571.000000	99.319751
3570.000000	99.316309
3569.000000	99.312416
3568.000000	99.306043
3567.000000	99.295825
3566.000000	99.283989
3565.000000	99.275397
3564.000000	99.271872
3563.000000	99.271177
3562.000000	99.269790
3561.000000	99.266304
3560.000000	99.262757
3559.000000	99.262346
3558.000000	99.264769
3557.000000	99.266246
3556.000000	99.263939
3555.000000	99.258174
3554.000000	99.249862
3553.000000	99.239225
3552.000000	99.228584
3551.000000	99.223240
3550.000000	99.226584
3549.000000	99.236230
3548.000000	99.246031
3547.000000	99.250011
3546.000000	99.244467
3545.000000	99.229745
3544.000000	99.211433
3543.000000	99.197095
3542.000000	99.190899
3541.000000	99.191649
3540.000000	99.195551
3539.000000	99.199619
3538.000000	99.202021
3537.000000	99.201430
3536.000000	99.197889
3535.000000	99.193557
3534.000000	99.190950
3533.000000	99.190418
3532.000000	99.190257
3531.000000	99.188351
3530.000000	99.183732
3529.000000	99.178091
3528.000000	99.175805
3527.000000	99.180360
3526.000000	99.189487
3525.000000	99.195702
3524.000000	99.193112
3523.000000	99.182868
3522.000000	99.170812
3521.000000	99.161370
3520.000000	99.155353
3519.000000	99.152046
3518.000000	99.150461
3517.000000	99.148902
3516.000000	99.145868
3515.000000	99.141265
3514.000000	99.136393
3513.000000	99.132660
3512.000000	99.130695
3511.000000	99.129922
3510.000000	99.128567
3509.000000	99.125086
3508.000000	99.120527
3507.000000	99.118662
3506.000000	99.122546
3505.000000	99.131760
3504.000000	99.142543
3503.000000	99.150195
3502.000000	99.151670
3501.000000	99.146653
3500.000000	99.137019
3499.000000	99.125560
3498.000000	99.114967
3497.000000	99.107242
3496.000000	99.103508
3495.000000	99.103262
3494.000000	99.104061
3493.000000	99.103304
3492.000000	99.100732
3491.000000	99.098276
3490.000000	99.097379
3489.000000	99.097383
3488.000000	99.096938
3487.000000	99.095740
3486.000000	99.094466
3485.000000	99.094189
3484.000000	99.096397
3483.000000	99.101930
3482.000000	99.109066
3481.000000	99.113850
3480.000000	99.113289
3479.000000	99.107327
3478.000000	99.097510
3477.000000	99.085560
3476.000000	99.073635
3475.000000	99.064190
3474.000000	99.058375
3473.000000	99.055694
3472.000000	99.055646
3471.000000	99.058116
3470.000000	99.061685
3469.000000	99.063344
3468.000000	99.061079
3467.000000	99.056012
3466.000000	99.051232
3465.000000	99.049337
3464.000000	99.051114
3463.000000	99.054832
3462.000000	99.056478
3461.000000	99.052585
3460.000000	99.044066
3459.000000	99.035815
3458.000000	99.031766
3457.000000	99.031883
3456.000000	99.033940
3455.000000	99.036169
3454.000000	99.037327
3453.000000	99.035971
3452.000000	99.031650
3451.000000	99.025725
3450.000000	99.020091
3449.000000	99.015884
3448.000000	99.013596
3447.000000	99.012851
3446.000000	99.011686
3445.000000	99.007836
3444.000000	99.001570
3443.000000	98.995724
3442.000000	98.992202
3441.000000	98.990115
3440.000000	98.988072
3439.000000	98.986277
3438.000000	98.985019
3437.000000	98.982847
3436.000000	98.978160
3435.000000	98.971604
3434.000000	98.965611
3433.000000	98.961810
3432.000000	98.960311
3431.000000	98.960639
3430.000000	98.962262
3429.000000	98.964296
3428.000000	98.965352
3427.000000	98.963953
3426.000000	98.959359
3425.000000	98.952648
3424.000000	98.946571
3423.000000	98.943212
3422.000000	98.941901
3421.000000	98.940511
3420.000000	98.938504
3419.000000	98.937065
3418.000000	98.936446
3417.000000	98.935269
3416.000000	98.932960
3415.000000	98.931053
3414.000000	98.931255
3413.000000	98.933203
3412.000000	98.934573
3411.000000	98.932668
3410.000000	98.926174
3409.000000	98.916578
3408.000000	98.907780
3407.000000	98.902805
3406.000000	98.900816
3405.000000	98.898591
3404.000000	98.894469
3403.000000	98.889124
3402.000000	98.883074
3401.000000	98.875997
3400.000000	98.868959
3399.000000	98.864621
3398.000000	98.864139
3397.000000	98.865598
3396.000000	98.866439
3395.000000	98.865889
3394.000000	98.864223
3393.000000	98.861504
3392.000000	98.858145
3391.000000	98.855248
3390.000000	98.853279
3389.000000	98.851564
3388.000000	98.849724
3387.000000	98.848179
3386.000000	98.846470
3385.000000	98.842720
3384.000000	98.836114
3383.000000	98.828785
3382.000000	98.824252
3381.000000	98.824539
3380.000000	98.829182
3379.000000	98.835627
3378.000000	98.840162
3377.000000	98.839975
3376.000000	98.835307
3375.000000	98.828893
3374.000000	98.822766
3373.000000	98.816607
3372.000000	98.809351
3371.000000	98.801093
3370.000000	98.792912
3369.000000	98.786213
3368.000000	98.782528
3367.000000	98.782407
3366.000000	98.783958
3365.000000	98.784102
3364.000000	98.782053
3363.000000	98.780081
3362.000000	98.780274
3361.000000	98.781948
3360.000000	98.782828
3359.000000	98.781243
3358.000000	98.776722
3357.000000	98.770022
3356.000000	98.763330
3355.000000	98.758938
3354.000000	98.756704
3353.000000	98.754060
3352.000000	98.749234
3351.000000	98.743192
3350.000000	98.737902
3349.000000	98.734265
3348.000000	98.732153
3347.000000	98.730840
3346.000000	98.728560
3345.000000	98.723247
3344.000000	98.715208
3343.000000	98.707895
3342.000000	98.704755
3341.000000	98.705774
3340.000000	98.707685
3339.000000	98.706999
3338.000000	98.702758
3337.000000	98.697418
3336.000000	98.695039
3335.000000	98.697329
3334.000000	98.701337
3333.000000	98.702286
3332.000000	98.698665
3331.000000	98.692884
3330.000000	98.687211
3329.000000	98.681346
3328.000000	98.674557
3327.000000	98.668200
3326.000000	98.664825
3325.000000	98.665684
3324.000000	98.669589
3323.000000	98.673059
3322.000000	98.671690
3321.000000	98.663346
3320.000000	98.650704
3319.000000	98.639276
3318.000000	98.632396
3317.000000	98.629196
3316.000000	98.627311
3315.000000	98.625532
3314.000000	98.623610
3313.000000	98.621835
3312.000000	98.621370
3311.000000	98.622807
3310.000000	98.623797
3309.000000	98.620432
3308.000000	98.612303
3307.000000	98.603892
3306.000000	98.599577
3305.000000	98.599227
3304.000000	98.599774
3303.000000	98.598998
3302.000000	98.596353
3301.000000	98.591834
3300.000000	98.586079
3299.000000	98.580631
3298.000000	98.576640
3297.000000	98.573910
3296.000000	98.571973
3295.000000	98.570943
3294.000000	98.570578
3293.000000	98.569971
3292.000000	98.569133
3291.000000	98.569428
3290.000000	98.571345
3289.000000	98.572949
3288.000000	98.571678
3287.000000	98.566898
3286.000000	98.560071
3285.000000	98.553757
3284.000000	98.551090
3283.000000	98.554451
3282.000000	98.562992
3281.000000	98.572196
3280.000000	98.577204
3279.000000	98.576425
3278.000000	98.571826
3277.000000	98.566540
3276.000000	98.562507
3275.000000	98.559448
3274.000000	98.555736
3273.000000	98.551003
3272.000000	98.547730
3271.000000	98.548965
3270.000000	98.554483
3269.000000	98.560769
3268.000000	98.564700
3267.000000	98.565603
3266.000000	98.563909
3265.000000	98.560152
3264.000000	98.556172
3263.000000	98.555085
3262.000000	98.558702
3261.000000	98.566203
3260.000000	98.575654
3259.000000	98.585266
3258.000000	98.592788
3257.000000	98.596249
3256.000000	98.596628
3255.000000	98.597793
3254.000000	98.602008
3253.000000	98.607105
3252.000000	98.609822
3251.000000	98.610429
3250.000000	98.612324
3249.000000	98.617782
3248.000000	98.625700
3247.000000	98.632897
3246.000000	98.636521
3245.000000	98.635757
3244.000000	98.632135
3243.000000	98.628026
3242.000000	98.624786
3241.000000	98.622988
3240.000000	98.623900
3239.000000	98.628774
3238.000000	98.636262
3237.000000	98.642542
3236.000000	98.645068
3235.000000	98.644968
3234.000000	98.644771
3233.000000	98.645266
3232.000000	98.645613
3231.000000	98.645212
3230.000000	98.644342
3229.000000	98.643820
3228.000000	98.644877
3227.000000	98.648364
3226.000000	98.653277
3225.000000	98.656996
3224.000000	98.657714
3223.000000	98.655955
3222.000000	98.653522
3221.000000	98.652114
3220.000000	98.652871
3219.000000	98.655409
3218.000000	98.656696
3217.000000	98.652986
3216.000000	98.644184
3215.000000	98.635336
3214.000000	98.632558
3213.000000	98.638038
3212.000000	98.649225
3211.000000	98.661129
3210.000000	98.668698
3209.000000	98.668994
3208.000000	98.663259
3207.000000	98.656662
3206.000000	98.654597
3205.000000	98.658941
3204.000000	98.667397
3203.000000	98.675604
3202.000000	98.680118
3201.000000	98.680609
3200.000000	98.679585
3199.000000	98.679346
3198.000000	98.679654
3197.000000	98.679525
3196.000000	98.680202
3195.000000	98.683901
3194.000000	98.689839
3193.000000	98.694352
3192.000000	98.695460
3191.000000	98.694883
3190.000000	98.694756
3189.000000	98.694938
3188.000000	98.694834
3187.000000	98.695468
3186.000000	98.697741
3185.000000	98.700301
3184.000000	98.700994
3183.000000	98.699560
3182.000000	98.697660
3181.000000	98.697124
3180.000000	98.699033
3179.000000	98.703141
3178.000000	98.707193
3177.000000	98.708287
3176.000000	98.706015
3175.000000	98.703318
3174.000000	98.703265
3173.000000	98.706203
3172.000000	98.710604
3171.000000	98.715336
3170.000000	98.720031
3169.000000	98.724359
3168.000000	98.728108
3167.000000	98.731341
3166.000000	98.733991
3165.000000	98.736195
3164.000000	98.739107
3163.000000	98.743925
3162.000000	98.749668
3161.000000	98.753618
3160.000000	98.754601
3159.000000	98.754237
3158.000000	98.754314
3157.000000	98.754801
3156.000000	98.755486
3155.000000	98.757610
3154.000000	98.762189
3153.000000	98.767850
3152.000000	98.771829
3151.000000	98.772443
3150.000000	98.769924
3149.000000	98.765802
3148.000000	98.762275
3147.000000	98.761160
3146.000000	98.762536
3145.000000	98.765243
3144.000000	98.768972
3143.000000	98.774544
3142.000000	98.781544
3141.000000	98.787179
3140.000000	98.788761
3139.000000	98.786476
3138.000000	98.783151
3137.000000	98.781888
3136.000000	98.784146
3135.000000	98.788693
3134.000000	98.792238
3133.000000	98.792451
3132.000000	98.790897
3131.000000	98.791127
3130.000000	98.793688
3129.000000	98.795148
3128.000000	98.792919
3127.000000	98.788793
3126.000000	98.786357
3125.000000	98.786640
3124.000000	98.787904
3123.000000	98.788269
3122.000000	98.786824
3121.000000	98.783360
3120.000000	98.778825
3119.000000	98.775558
3118.000000	98.775823
3117.000000	98.780220
3116.000000	98.787731
3115.000000	98.796443
3114.000000	98.803821
3113.000000	98.807717
3112.000000	98.807967
3111.000000	98.806100
3110.000000	98.803064
3109.000000	98.798558
3108.000000	98.792958
3107.000000	98.788012
3106.000000	98.784700
3105.000000	98.781871
3104.000000	98.778104
3103.000000	98.773857
3102.000000	98.770793
3101.000000	98.770154
3100.000000	98.772568
3099.000000	98.778138
3098.000000	98.785515
3097.000000	98.791777
3096.000000	98.794521
3095.000000	98.793959
3094.000000	98.792290
3093.000000	98.791336
3092.000000	98.791080
3091.000000	98.790005
3090.000000	98.786678
3089.000000	98.781605
3088.000000	98.777400
3087.000000	98.776203
3086.000000	98.777209
3085.000000	98.777942
3084.000000	98.777559
3083.000000	98.777220
3082.000000	98.777123
3081.000000	98.775364
3080.000000	98.770484
3079.000000	98.763734
3078.000000	98.758019
3077.000000	98.755832
3076.000000	98.758372
3075.000000	98.764975
3074.000000	98.772686
3073.000000	98.778031
3072.000000	98.780247
3071.000000	98.781685
3070.000000	98.784652
3069.000000	98.789044
3068.000000	98.793341
3067.000000	98.796148
3066.000000	98.796243
3065.000000	98.792902
3064.000000	98.787364
3063.000000	98.782742
3062.000000	98.781501
3061.000000	98.783909
3060.000000	98.789067
3059.000000	98.795886
3058.000000	98.802433
3057.000000	98.806088
3056.000000	98.805717
3055.000000	98.802620
3054.000000	98.798618
3053.000000	98.794248
3052.000000	98.789514
3051.000000	98.785014
3050.000000	98.781206
3049.000000	98.777804
3048.000000	98.774940
3047.000000	98.774095
3046.000000	98.776806
3045.000000	98.783036
3044.000000	98.791460
3043.000000	98.800455
3042.000000	98.808034
3041.000000	98.811913
3040.000000	98.810891
3039.000000	98.806205
3038.000000	98.800923
3037.000000	98.797979
3036.000000	98.798683
3035.000000	98.802237
3034.000000	98.806229
3033.000000	98.808312
3032.000000	98.807793
3031.000000	98.805697
3030.000000	98.803698
3029.000000	98.803595
3028.000000	98.806899
3027.000000	98.813191
3026.000000	98.819216
3025.000000	98.821654
3024.000000	98.821163
3023.000000	98.821824
3022.000000	98.826037
3021.000000	98.831636
3020.000000	98.834805
3019.000000	98.834475
3018.000000	98.832924
3017.000000	98.833141
3016.000000	98.836276
3015.000000	98.840964
3014.000000	98.844644
3013.000000	98.846176
3012.000000	98.846905
3011.000000	98.848222
3010.000000	98.848780
3009.000000	98.846055
3008.000000	98.840395
3007.000000	98.835104
3006.000000	98.832104
3005.000000	98.829842
3004.000000	98.826482
3003.000000	98.823202
3002.000000	98.822780
3001.000000	98.826266
3000.000000	98.832363
2999.000000	98.839092
2998.000000	98.844780
2997.000000	98.848164
2996.000000	98.848634
2995.000000	98.846260
2994.000000	98.841343
2993.000000	98.834528
2992.000000	98.827386
2991.000000	98.821606
2990.000000	98.817278
2989.000000	98.812827
2988.000000	98.806982
2987.000000	98.799914
2986.000000	98.792696
2985.000000	98.786946
2984.000000	98.784915
2983.000000	98.787765
2982.000000	98.793067
2981.000000	98.795469
2980.000000	98.791157
2979.000000	98.780924
2978.000000	98.768778
2977.000000	98.758672
2976.000000	98.752591
2975.000000	98.749944
2974.000000	98.747921
2973.000000	98.743919
2972.000000	98.738200
2971.000000	98.732983
2970.000000	98.728712
2969.000000	98.723082
2968.000000	98.714460
2967.000000	98.704457
2966.000000	98.696044
2965.000000	98.690510
2964.000000	98.687118
2963.000000	98.684386
2962.000000	98.680843
2961.000000	98.676132
2960.000000	98.672263
2959.000000	98.672262
2958.000000	98.676549
2957.000000	98.681912
2956.000000	98.684971
2955.000000	98.685186
2954.000000	98.683907
2953.000000	98.682412
2952.000000	98.682158
2951.000000	98.685062
2950.000000	98.691605
2949.000000	98.699555
2948.000000	98.706040
2947.000000	98.710061
2946.000000	98.711945
2945.000000	98.711444
2944.000000	98.707964
2943.000000	98.701933
2942.000000	98.694651
2941.000000	98.687154
2940.000000	98.680106
2939.000000	98.674104
2938.000000	98.669027
2937.000000	98.663480
2936.000000	98.655499
2935.000000	98.643541
2934.000000	98.626929
2933.000000	98.606478
2932.000000	98.584838
2931.000000	98.564687
2930.000000	98.545831
2929.000000	98.525588
2928.000000	98.502634
2927.000000	98.478894
2926.000000	98.456469
2925.000000	98.434718
2924.000000	98.412112
2923.000000	98.389701
2922.000000	98.370734
2921.000000	98.357408
2920.000000	98.349624
2919.000000	98.346378
2918.000000	98.347270
2917.000000	98.353046
2916.000000	98.365578
2915.000000	98.386446
2914.000000	98.414323
2913.000000	98.444488
2912.000000	98.472255
2911.000000	98.496504
2910.000000	98.518868
2909.000000	98.540038
2908.000000	98.558554
2907.000000	98.572948
2906.000000	98.583988
2905.000000	98.594467
2904.000000	98.607469
2903.000000	98.624262
2902.000000	98.642834
2901.000000	98.657900
2900.000000	98.664943
2899.000000	98.663529
2898.000000	98.658034
2897.000000	98.654386
2896.000000	98.655874
2895.000000	98.661395
2894.000000	98.667326
2893.000000	98.671381
2892.000000	98.674809
2891.000000	98.680544
2890.000000	98.689171
2889.000000	98.697527
2888.000000	98.701606
2887.000000	98.700254
2886.000000	98.695584
2885.000000	98.690412
2884.000000	98.686045
2883.000000	98.682446
2882.000000	98.679733
2881.000000	98.678940
2880.000000	98.681029
2879.000000	98.685217
2878.000000	98.688903
2877.000000	98.689689
2876.000000	98.687182
2875.000000	98.682260
2874.000000	98.675265
2873.000000	98.666066
2872.000000	98.655888
2871.000000	98.647785
2870.000000	98.644666
2869.000000	98.647148
2868.000000	98.653419
2867.000000	98.660542
2866.000000	98.665885
2865.000000	98.668115
2864.000000	98.667149
2863.000000	98.663079
2862.000000	98.655585
2861.000000	98.645026
2860.000000	98.633305
2859.000000	98.622163
2858.000000	98.610981
2857.000000	98.597608
2856.000000	98.581148
2855.000000	98.562312
2854.000000	98.541286
2853.000000	98.517256
2852.000000	98.490957
2851.000000	98.466739
2850.000000	98.451452
2849.000000	98.451652
2848.000000	98.470478
2847.000000	98.504902
2846.000000	98.545721
2845.000000	98.582793
2844.000000	98.611808
2843.000000	98.635384
2842.000000	98.657456
2841.000000	98.678118
2840.000000	98.694776
2839.000000	98.706224
2838.000000	98.714025
2837.000000	98.720841
2836.000000	98.728581
2835.000000	98.737479
2834.000000	98.745929
2833.000000	98.751847
2832.000000	98.755046
2831.000000	98.757811
2830.000000	98.762564
2829.000000	98.769649
2828.000000	98.777726
2827.000000	98.785325
2826.000000	98.791446
2825.000000	98.795527
2824.000000	98.797715
2823.000000	98.798630
2822.000000	98.798529
2821.000000	98.797386
2820.000000	98.796029
2819.000000	98.796027
2818.000000	98.797889
2817.000000	98.800360
2816.000000	98.802157
2815.000000	98.803505
2814.000000	98.805374
2813.000000	98.808069
2812.000000	98.811113
2811.000000	98.813572
2810.000000	98.814053
2809.000000	98.811659
2808.000000	98.807765
2807.000000	98.805658
2806.000000	98.807314
2805.000000	98.811387
2804.000000	98.815161
2803.000000	98.817465
2802.000000	98.818483
2801.000000	98.817939
2800.000000	98.815272
2799.000000	98.811321
2798.000000	98.808215
2797.000000	98.807340
2796.000000	98.808285
2795.000000	98.809871
2794.000000	98.811406
2793.000000	98.812825
2792.000000	98.814258
2791.000000	98.815899
2790.000000	98.818150
2789.000000	98.821643
2788.000000	98.826558
2787.000000	98.831453
2786.000000	98.833317
2785.000000	98.830174
2784.000000	98.823998
2783.000000	98.819826
2782.000000	98.821157
2781.000000	98.826785
2780.000000	98.832657
2779.000000	98.835903
2778.000000	98.836416
2777.000000	98.835604
2776.000000	98.835097
2775.000000	98.836276
2774.000000	98.839684
2773.000000	98.844432
2772.000000	98.848816
2771.000000	98.851748
2770.000000	98.853336
2769.000000	98.854199
2768.000000	98.854594
2767.000000	98.854216
2766.000000	98.852686
2765.000000	98.850232
2764.000000	98.847844
2763.000000	98.846588
2762.000000	98.846862
2761.000000	98.848519
2760.000000	98.851318
2759.000000	98.854636
2758.000000	98.857024
2757.000000	98.857051
2756.000000	98.854844
2755.000000	98.852201
2754.000000	98.850943
2753.000000	98.851549
2752.000000	98.853273
2751.000000	98.854941
2750.000000	98.855715
2749.000000	98.855906
2748.000000	98.857141
2747.000000	98.860855
2746.000000	98.866391
2745.000000	98.871278
2744.000000	98.873582
2743.000000	98.873387
2742.000000	98.872090
2741.000000	98.871155
2740.000000	98.871482
2739.000000	98.872845
2738.000000	98.873713
2737.000000	98.872698
2736.000000	98.870450
2735.000000	98.869038
2734.000000	98.869163
2733.000000	98.869233
2732.000000	98.867750
2731.000000	98.865356
2730.000000	98.863663
2729.000000	98.863115
2728.000000	98.863028
2727.000000	98.863019
2726.000000	98.863276
2725.000000	98.863907
2724.000000	98.865071
2723.000000	98.867398
2722.000000	98.871240
2721.000000	98.875460
2720.000000	98.877809
2719.000000	98.876917
2718.000000	98.873805
2717.000000	98.871301
2716.000000	98.871749
2715.000000	98.874898
2714.000000	98.878001
2713.000000	98.878361
2712.000000	98.875761
2711.000000	98.872154
2710.000000	98.869422
2709.000000	98.868213
2708.000000	98.868644
2707.000000	98.870882
2706.000000	98.874564
2705.000000	98.878503
2704.000000	98.881491
2703.000000	98.882989
2702.000000	98.882942
2701.000000	98.881577
2700.000000	98.879635
2699.000000	98.878188
2698.000000	98.877886
2697.000000	98.878622
2696.000000	98.879761
2695.000000	98.880279
2694.000000	98.879122
2693.000000	98.876294
2692.000000	98.873326
2691.000000	98.871673
2690.000000	98.870932
2689.000000	98.869902
2688.000000	98.869112
2687.000000	98.870559
2686.000000	98.874613
2685.000000	98.878805
2684.000000	98.880440
2683.000000	98.879237
2682.000000	98.876736
2681.000000	98.874395
2680.000000	98.873131
2679.000000	98.873644
2678.000000	98.875944
2677.000000	98.878886
2676.000000	98.880881
2675.000000	98.880924
2674.000000	98.879014
2673.000000	98.876338
2672.000000	98.875013
2671.000000	98.876437
2670.000000	98.879568
2669.000000	98.881895
2668.000000	98.882370
2667.000000	98.882017
2666.000000	98.881243
2665.000000	98.878336
2664.000000	98.871886
2663.000000	98.863432
2662.000000	98.856356
2661.000000	98.852870
2660.000000	98.853057
2659.000000	98.855725
2658.000000	98.858755
2657.000000	98.859475
2656.000000	98.856732
2655.000000	98.852818
2654.000000	98.851920
2653.000000	98.856197
2652.000000	98.863934
2651.000000	98.871514
2650.000000	98.876481
2649.000000	98.878813
2648.000000	98.880176
2647.000000	98.882331
2646.000000	98.885746
2645.000000	98.889426
2644.000000	98.892018
2643.000000	98.892862
2642.000000	98.891971
2641.000000	98.889606
2640.000000	98.886383
2639.000000	98.883439
2638.000000	98.881974
2637.000000	98.882744
2636.000000	98.886069
2635.000000	98.891740
2634.000000	98.898619
2633.000000	98.905130
2632.000000	98.910702
2631.000000	98.916131
2630.000000	98.921811
2629.000000	98.926133
2628.000000	98.926530
2627.000000	98.922117
2626.000000	98.914898
2625.000000	98.908408
2624.000000	98.905343
2623.000000	98.906105
2622.000000	98.909265
2621.000000	98.913331
2620.000000	98.917870
2619.000000	98.922768
2618.000000	98.927207
2617.000000	98.930386
2616.000000	98.932793
2615.000000	98.935388
2614.000000	98.937665
2613.000000	98.938108
2612.000000	98.936701
2611.000000	98.935193
2610.000000	98.934192
2609.000000	98.931913
2608.000000	98.926929
2607.000000	98.920895
2606.000000	98.917206
2605.000000	98.917819
2604.000000	98.922200
2603.000000	98.928171
2602.000000	98.932754
2601.000000	98.933492
2600.000000	98.930663
2599.000000	98.927457
2598.000000	98.926703
2597.000000	98.928039
2596.000000	98.929505
2595.000000	98.930899
2594.000000	98.933722
2593.000000	98.938342
2592.000000	98.943274
2591.000000	98.947570
2590.000000	98.952114
2589.000000	98.957832
2588.000000	98.963683
2587.000000	98.967286
2586.000000	98.967079
2585.000000	98.963423
2584.000000	98.958183
2583.000000	98.953638
2582.000000	98.951336
2581.000000	98.951368
2580.000000	98.952602
2579.000000	98.953829
2578.000000	98.954729
2577.000000	98.955707
2576.000000	98.956980
2575.000000	98.958054
2574.000000	98.958164
2573.000000	98.956929
2572.000000	98.954398
2571.000000	98.950877
2570.000000	98.947341
2569.000000	98.945665
2568.000000	98.947107
2567.000000	98.950081
2566.000000	98.950692
2565.000000	98.946580
2564.000000	98.939787
2563.000000	98.934898
2562.000000	98.934816
2561.000000	98.938798
2560.000000	98.943568
2559.000000	98.945538
2558.000000	98.943221
2557.000000	98.939286
2556.000000	98.939444
2555.000000	98.947249
2554.000000	98.959907
2553.000000	98.970528
2552.000000	98.974127
2551.000000	98.970331
2550.000000	98.961657
2549.000000	98.952155
2548.000000	98.947530
2547.000000	98.952652
2546.000000	98.966371
2545.000000	98.980309
2544.000000	98.985059
2543.000000	98.978088
2542.000000	98.965141
2541.000000	98.954574
2540.000000	98.950406
2539.000000	98.949824
2538.000000	98.946470
2537.000000	98.936477
2536.000000	98.921845
2535.000000	98.908028
2534.000000	98.898695
2533.000000	98.893416
2532.000000	98.889579
2531.000000	98.885057
2530.000000	98.878936
2529.000000	98.871187
2528.000000	98.862419
2527.000000	98.853359
2526.000000	98.844101
2525.000000	98.834057
2524.000000	98.822478
2523.000000	98.808919
2522.000000	98.793871
2521.000000	98.779527
2520.000000	98.768943
2519.000000	98.763264
2518.000000	98.760334
2517.000000	98.757155
2516.000000	98.753312
2515.000000	98.750694
2514.000000	98.750279
2513.000000	98.750360
2512.000000	98.748014
2511.000000	98.742024
2510.000000	98.734840
2509.000000	98.731863
2508.000000	98.736970
2507.000000	98.747599
2506.000000	98.756009
2505.000000	98.757012
2504.000000	98.753289
2503.000000	98.751478
2502.000000	98.755010
2501.000000	98.763483
2500.000000	98.776868
2499.000000	98.795995
2498.000000	98.818516
2497.000000	98.838336
2496.000000	98.850784
2495.000000	98.856374
2494.000000	98.858702
2493.000000	98.860538
2492.000000	98.863156
2491.000000	98.867533
2490.000000	98.874497
2489.000000	98.884094
2488.000000	98.895553
2487.000000	98.907591
2486.000000	98.918871
2485.000000	98.928820
2484.000000	98.937853
2483.000000	98.946179
2482.000000	98.953130
2481.000000	98.958539
2480.000000	98.963790
2479.000000	98.970006
2478.000000	98.975912
2477.000000	98.979221
2476.000000	98.979440
2475.000000	98.978043
2474.000000	98.976722
2473.000000	98.976944
2472.000000	98.979849
2471.000000	98.984420
2470.000000	98.987241
2469.000000	98.986932
2468.000000	98.987734
2467.000000	98.995029
2466.000000	99.007418
2465.000000	99.016659
2464.000000	99.016458
2463.000000	99.008446
2462.000000	98.998838
2461.000000	98.992436
2460.000000	98.991022
2459.000000	98.994628
2458.000000	99.001476
2457.000000	99.007825
2456.000000	99.010324
2455.000000	99.009111
2454.000000	99.007955
2453.000000	99.011250
2452.000000	99.020197
2451.000000	99.031197
2450.000000	99.038384
2449.000000	99.038753
2448.000000	99.034623
2447.000000	99.030689
2446.000000	99.029622
2445.000000	99.031445
2444.000000	99.035275
2443.000000	99.039345
2442.000000	99.040859
2441.000000	99.038726
2440.000000	99.035829
2439.000000	99.035615
2438.000000	99.036679
2437.000000	99.033605
2436.000000	99.023678
2435.000000	99.010614
2434.000000	99.001390
2433.000000	99.000979
2432.000000	99.009258
2431.000000	99.020543
2430.000000	99.026778
2429.000000	99.024293
2428.000000	99.017991
2427.000000	99.016529
2426.000000	99.023430
2425.000000	99.035277
2424.000000	99.047538
2423.000000	99.058043
2422.000000	99.064433
2421.000000	99.062987
2420.000000	99.053001
2419.000000	99.040052
2418.000000	99.032179
2417.000000	99.033128
2416.000000	99.040212
2415.000000	99.047751
2414.000000	99.052039
2413.000000	99.053979
2412.000000	99.057231
2411.000000	99.063164
2410.000000	99.068531
2409.000000	99.069608
2408.000000	99.067752
2407.000000	99.068226
2406.000000	99.073740
2405.000000	99.081696
2404.000000	99.087814
2403.000000	99.090035
2402.000000	99.088536
2401.000000	99.084514
2400.000000	99.079623
2399.000000	99.074792
2398.000000	99.069392
2397.000000	99.063279
2396.000000	99.059022
2395.000000	99.059391
2394.000000	99.062598
2393.000000	99.063117
2392.000000	99.057864
2391.000000	99.049189
2390.000000	99.041174
2389.000000	99.035591
2388.000000	99.032788
2387.000000	99.033142
2386.000000	99.036595
2385.000000	99.041821
2384.000000	99.047251
2383.000000	99.052735
2382.000000	99.058170
2381.000000	99.063139
2380.000000	99.066946
2379.000000	99.067991
2378.000000	99.063844
2377.000000	99.053219
2376.000000	99.038529
2375.000000	99.024462
2374.000000	99.015734
2373.000000	99.016342
2372.000000	99.028045
2371.000000	99.045493
2370.000000	99.056907
2369.000000	99.055463
2368.000000	99.045063
2367.000000	99.034582
2366.000000	99.028883
2365.000000	99.027251
2364.000000	99.025875
2363.000000	99.019011
2362.000000	99.003031
2361.000000	98.980029
2360.000000	98.955970
2359.000000	98.934623
2358.000000	98.920867
2357.000000	98.926806
2356.000000	98.952843
2355.000000	98.982331
2354.000000	99.005335
2353.000000	99.025175
2352.000000	99.035917
2351.000000	99.019912
2350.000000	98.977729
2349.000000	98.929268
2348.000000	98.898798
2347.000000	98.902199
2346.000000	98.934151
2345.000000	98.964278
2344.000000	98.963227
2343.000000	98.937585
2342.000000	98.913155
2341.000000	98.907632
2340.000000	98.918666
2339.000000	98.932875
2338.000000	98.942978
2337.000000	98.949851
2336.000000	98.953547
2335.000000	98.952145
2334.000000	98.952297
2333.000000	98.964934
2332.000000	98.990289
2331.000000	99.013864
2330.000000	99.024525
2329.000000	99.017444
2328.000000	98.993529
2327.000000	98.955746
2326.000000	98.914712
2325.000000	98.885495
2324.000000	98.876794
2323.000000	98.886670
2322.000000	98.903102
2321.000000	98.913597
2320.000000	98.913751
2319.000000	98.907550
2318.000000	98.902912
2317.000000	98.904935
2316.000000	98.917029
2315.000000	98.937190
2314.000000	98.957529
2313.000000	98.967017
2312.000000	98.963900
2311.000000	98.957611
2310.000000	98.959476
2309.000000	98.969496
2308.000000	98.980792
2307.000000	98.989661
2306.000000	98.997495
2305.000000	99.003434
2304.000000	99.004127
2303.000000	99.000303
2302.000000	98.998623
2301.000000	99.003007
2300.000000	99.010645
2299.000000	99.015619
2298.000000	99.015988
2297.000000	99.013343
2296.000000	99.009691
2295.000000	99.004664
2294.000000	98.996477
2293.000000	98.983464
2292.000000	98.966701
2291.000000	98.951296
2290.000000	98.943800
2289.000000	98.947392
2288.000000	98.959484
2287.000000	98.974328
2286.000000	98.986207
2285.000000	98.991653
2284.000000	98.991022
2283.000000	98.989016
2282.000000	98.991230
2281.000000	98.999374
2280.000000	99.010324
2279.000000	99.020280
2278.000000	99.028368
2277.000000	99.036217
2276.000000	99.045213
2275.000000	99.054588
2274.000000	99.061788
2273.000000	99.063502
2272.000000	99.057897
2271.000000	99.047368
2270.000000	99.039169
2269.000000	99.040851
2268.000000	99.052824
2267.000000	99.066444
2266.000000	99.072525
2265.000000	99.072063
2264.000000	99.075743
2263.000000	99.090639
2262.000000	99.110099
2261.000000	99.119907
2260.000000	99.112259
2259.000000	99.091634
2258.000000	99.068526
2257.000000	99.052792
2256.000000	99.051832
2255.000000	99.068324
2254.000000	99.096380
2253.000000	99.122690
2252.000000	99.135562
2251.000000	99.132303
2250.000000	99.118892
2249.000000	99.105107
2248.000000	99.100639
2247.000000	99.110402
2246.000000	99.132182
2245.000000	99.158784
2244.000000	99.182846
2243.000000	99.197801
2242.000000	99.196865
2241.000000	99.177731
2240.000000	99.149599
2239.000000	99.129340
2238.000000	99.127194
2237.000000	99.139581
2236.000000	99.157307
2235.000000	99.175644
2234.000000	99.192695
2233.000000	99.203015
2232.000000	99.199627
2231.000000	99.181229
2230.000000	99.153464
2229.000000	99.124609
2228.000000	99.103580
2227.000000	99.099537
2226.000000	99.116737
2225.000000	99.146539
2224.000000	99.168867
2223.000000	99.167569
2222.000000	99.145731
2221.000000	99.123080
2220.000000	99.116286
2219.000000	99.123320
2218.000000	99.129741
2217.000000	99.126757
2216.000000	99.118162
2215.000000	99.111344
2214.000000	99.110349
2213.000000	99.119944
2212.000000	99.146173
2211.000000	99.185040
2210.000000	99.216994
2209.000000	99.222976
2208.000000	99.204604
2207.000000	99.181479
2206.000000	99.170369
2205.000000	99.174129
2204.000000	99.186993
2203.000000	99.200893
2202.000000	99.206066
2201.000000	99.194654
2200.000000	99.167714
2199.000000	99.135083
2198.000000	99.108248
2197.000000	99.095837
2196.000000	99.100817
2195.000000	99.115527
2194.000000	99.124231
2193.000000	99.118810
2192.000000	99.109397
2191.000000	99.110299
2190.000000	99.119334
2189.000000	99.122479
2188.000000	99.116202
2187.000000	99.112289
2186.000000	99.120998
2185.000000	99.143288
2184.000000	99.179173
2183.000000	99.226397
2182.000000	99.264837
2181.000000	99.261617
2180.000000	99.206418
2179.000000	99.130864
2178.000000	99.080951
2177.000000	99.077018
2176.000000	99.104829
2175.000000	99.136751
2174.000000	99.153836
2173.000000	99.152655
2172.000000	99.140959
2171.000000	99.127428
2170.000000	99.112126
2169.000000	99.089231
2168.000000	99.061981
2167.000000	99.049175
2166.000000	99.067757
2165.000000	99.107667
2164.000000	99.131548
2163.000000	99.111342
2162.000000	99.068143
2161.000000	99.068471
2160.000000	99.165162
2159.000000	99.330216
2158.000000	99.468175
2157.000000	99.517261
2156.000000	99.507996
2155.000000	99.504589
2154.000000	99.527429
2153.000000	99.550871
2152.000000	99.549936
2151.000000	99.523350
2150.000000	99.477922
2149.000000	99.415724
2148.000000	99.345543
2147.000000	99.289271
2146.000000	99.264772
2145.000000	99.267998
2144.000000	99.279094
2143.000000	99.283036
2142.000000	99.279394
2141.000000	99.275903
2140.000000	99.277858
2139.000000	99.283558
2138.000000	99.288222
2137.000000	99.291594
2136.000000	99.299120
2135.000000	99.313118
2134.000000	99.326498
2133.000000	99.330650
2132.000000	99.326701
2131.000000	99.323159
2130.000000	99.324618
2129.000000	99.328775
2128.000000	99.331793
2127.000000	99.329901
2126.000000	99.317653
2125.000000	99.293133
2124.000000	99.265427
2123.000000	99.248355
2122.000000	99.244385
2121.000000	99.241095
2120.000000	99.226850
2119.000000	99.204389
2118.000000	99.185404
2117.000000	99.176510
2116.000000	99.173922
2115.000000	99.168884
2114.000000	99.155132
2113.000000	99.133948
2112.000000	99.114514
2111.000000	99.106624
2110.000000	99.110705
2109.000000	99.117575
2108.000000	99.119595
2107.000000	99.119876
2106.000000	99.128419
2105.000000	99.151391
2104.000000	99.185409
2103.000000	99.219900
2102.000000	99.244141
2101.000000	99.254504
2100.000000	99.255914
2099.000000	99.254124
2098.000000	99.247861
2097.000000	99.233028
2096.000000	99.213730
2095.000000	99.201411
2094.000000	99.200991
2093.000000	99.203945
2092.000000	99.197781
2091.000000	99.178039
2090.000000	99.149182
2089.000000	99.118705
2088.000000	99.093372
2087.000000	99.077854
2086.000000	99.073955
2085.000000	99.080813
2084.000000	99.095215
2083.000000	99.110625
2082.000000	99.119190
2081.000000	99.119944
2080.000000	99.124027
2079.000000	99.145010
2078.000000	99.181854
2077.000000	99.216345
2076.000000	99.229617
2075.000000	99.217599
2074.000000	99.190476
2073.000000	99.163168
2072.000000	99.147027
2071.000000	99.144092
2070.000000	99.146660
2069.000000	99.146653
2068.000000	99.146540
2067.000000	99.156128
2066.000000	99.178199
2065.000000	99.203157
2064.000000	99.219913
2063.000000	99.226340
2062.000000	99.226367
2061.000000	99.223697
2060.000000	99.219896
2059.000000	99.212456
2058.000000	99.195107
2057.000000	99.167061
2056.000000	99.140339
2055.000000	99.127569
2054.000000	99.122118
2053.000000	99.102985
2052.000000	99.063902
2051.000000	99.026560
2050.000000	99.019588
2049.000000	99.050519
2048.000000	99.102734
2047.000000	99.155229
2046.000000	99.196649
2045.000000	99.223966
2044.000000	99.240763
2043.000000	99.255434
2042.000000	99.272344
2041.000000	99.287480
2040.000000	99.297901
2039.000000	99.307440
2038.000000	99.315898
2037.000000	99.313998
2036.000000	99.300686
2035.000000	99.297276
2034.000000	99.328356
2033.000000	99.389749
2032.000000	99.447101
2031.000000	99.469247
2030.000000	99.454464
2029.000000	99.426376
2028.000000	99.413919
2027.000000	99.430821
2026.000000	99.465709
2025.000000	99.490867
2024.000000	99.486592
2023.000000	99.459951
2022.000000	99.437426
2021.000000	99.438748
2020.000000	99.456755
2019.000000	99.462209
2018.000000	99.431132
2017.000000	99.372175
2016.000000	99.323769
2015.000000	99.314210
2014.000000	99.332206
2013.000000	99.343342
2012.000000	99.327546
2011.000000	99.295301
2010.000000	99.273300
2009.000000	99.286726
2008.000000	99.349405
2007.000000	99.451435
2006.000000	99.553420
2005.000000	99.608770
2004.000000	99.602398
2003.000000	99.558558
2002.000000	99.508700
2001.000000	99.465086
2000.000000	99.424949
1999.000000	99.385756
1998.000000	99.351140
1997.000000	99.328162
1996.000000	99.321332
1995.000000	99.326165
1994.000000	99.328819
1993.000000	99.317890
1992.000000	99.300506
1991.000000	99.299129
1990.000000	99.325433
1989.000000	99.366028
1988.000000	99.396626
1987.000000	99.402353
1986.000000	99.382468
1985.000000	99.344020
1984.000000	99.296615
1983.000000	99.248541
1982.000000	99.205405
1981.000000	99.177279
1980.000000	99.185326
1979.000000	99.246132
1978.000000	99.339854
1977.000000	99.407529
1976.000000	99.406097
1975.000000	99.359746
1974.000000	99.332121
1973.000000	99.357432
1972.000000	99.414718
1971.000000	99.464682
1970.000000	99.491552
1969.000000	99.502165
1968.000000	99.501277
1967.000000	99.485015
1966.000000	99.456220
1965.000000	99.431011
1964.000000	99.424016
1963.000000	99.434971
1962.000000	99.453022
1961.000000	99.467171
1960.000000	99.469479
1959.000000	99.453680
1958.000000	99.418875
1957.000000	99.376207
1956.000000	99.344994
1955.000000	99.337974
1954.000000	99.351842
1953.000000	99.372328
1952.000000	99.386403
1951.000000	99.389377
1950.000000	99.383708
1949.000000	99.376111
1948.000000	99.375303
1947.000000	99.386999
1946.000000	99.408300
1945.000000	99.427322
1944.000000	99.429359
1943.000000	99.407199
1942.000000	99.371595
1941.000000	99.348482
1940.000000	99.355123
1939.000000	99.382354
1938.000000	99.404714
1937.000000	99.404367
1936.000000	99.385909
1935.000000	99.367460
1934.000000	99.360338
1933.000000	99.361205
1932.000000	99.361700
1931.000000	99.360415
1930.000000	99.363171
1929.000000	99.375239
1928.000000	99.394340
1927.000000	99.410510
1926.000000	99.413867
1925.000000	99.402030
1924.000000	99.379331
1923.000000	99.350197
1922.000000	99.318908
1921.000000	99.295271
1920.000000	99.291097
1919.000000	99.307700
1918.000000	99.328587
1917.000000	99.333808
1916.000000	99.324137
1915.000000	99.314392
1914.000000	99.311802
1913.000000	99.312106
1912.000000	99.309486
1911.000000	99.304274
1910.000000	99.300790
1909.000000	99.302212
1908.000000	99.307367
1907.000000	99.309466
1906.000000	99.301240
1905.000000	99.284961
1904.000000	99.274689
1903.000000	99.282295
1902.000000	99.304174
1901.000000	99.326938
1900.000000	99.341505
1899.000000	99.346539
1898.000000	99.343170
1897.000000	99.333813
1896.000000	99.324950
1895.000000	99.323348
1894.000000	99.328962
1893.000000	99.336903
1892.000000	99.343611
1891.000000	99.345916
1890.000000	99.337920
1889.000000	99.317319
1888.000000	99.293620
1887.000000	99.277560
1886.000000	99.269733
1885.000000	99.266786
1884.000000	99.269066
1883.000000	99.277342
1882.000000	99.287431
1881.000000	99.294774
1880.000000	99.299921
1879.000000	99.304381
1878.000000	99.306416
1877.000000	99.306519
1876.000000	99.312224
1875.000000	99.329223
1874.000000	99.350812
1873.000000	99.364297
1872.000000	99.366727
1871.000000	99.366194
1870.000000	99.368093
1869.000000	99.366123
1868.000000	99.354228
1867.000000	99.339086
1866.000000	99.327617
1865.000000	99.320822
1864.000000	99.319410
1863.000000	99.322572
1862.000000	99.324087
1861.000000	99.317726
1860.000000	99.306658
1859.000000	99.300745
1858.000000	99.304895
1857.000000	99.316636
1856.000000	99.332070
1855.000000	99.345773
1854.000000	99.348611
1853.000000	99.334764
1852.000000	99.310768
1851.000000	99.290495
1850.000000	99.283262
1849.000000	99.289985
1848.000000	99.306455
1847.000000	99.326254
1846.000000	99.341804
1845.000000	99.348247
1844.000000	99.348118
1843.000000	99.348088
1842.000000	99.348999
1841.000000	99.348185
1840.000000	99.346721
1839.000000	99.346437
1838.000000	99.344367
1837.000000	99.336263
1836.000000	99.325223
1835.000000	99.318447
1834.000000	99.316773
1833.000000	99.314335
1832.000000	99.306151
1831.000000	99.293140
1830.000000	99.280097
1829.000000	99.271838
1828.000000	99.271456
1827.000000	99.276983
1826.000000	99.284074
1825.000000	99.289714
1824.000000	99.294797
1823.000000	99.301995
1822.000000	99.308429
1821.000000	99.309412
1820.000000	99.306916
1819.000000	99.308710
1818.000000	99.317997
1817.000000	99.328702
1816.000000	99.333817
1815.000000	99.331235
1814.000000	99.320085
1813.000000	99.300353
1812.000000	99.277070
1811.000000	99.259490
1810.000000	99.249663
1809.000000	99.239064
1808.000000	99.222488
1807.000000	99.203022
1806.000000	99.181396
1805.000000	99.152176
1804.000000	99.112140
1803.000000	99.062911
1802.000000	99.004392
1801.000000	98.934335
1800.000000	98.859975
1799.000000	98.797959
1798.000000	98.756303
1797.000000	98.732433
1796.000000	98.723392
1795.000000	98.726466
1794.000000	98.735918
1793.000000	98.748549
1792.000000	98.770719
1791.000000	98.812979
1790.000000	98.871665
1789.000000	98.928975
1788.000000	98.973124
1787.000000	99.007025
1786.000000	99.040341
1785.000000	99.077648
1784.000000	99.116733
1783.000000	99.153806
1782.000000	99.186044
1781.000000	99.211693
1780.000000	99.231097
1779.000000	99.248105
1778.000000	99.264061
1777.000000	99.276424
1776.000000	99.284890
1775.000000	99.292541
1774.000000	99.303019
1773.000000	99.317093
1772.000000	99.327447
1771.000000	99.326602
1770.000000	99.316164
1769.000000	99.300827
1768.000000	99.287262
1767.000000	99.284261
1766.000000	99.293550
1765.000000	99.306385
1764.000000	99.314697
1763.000000	99.318027
1762.000000	99.319184
1761.000000	99.318833
1760.000000	99.316741
1759.000000	99.314634
1758.000000	99.314397
1757.000000	99.317143
1756.000000	99.322763
1755.000000	99.331587
1754.000000	99.345117
1753.000000	99.365102
1752.000000	99.391058
1751.000000	99.414393
1750.000000	99.424275
1749.000000	99.421222
1748.000000	99.412091
1747.000000	99.400250
1746.000000	99.386738
1745.000000	99.374251
1744.000000	99.367106
1743.000000	99.368911
1742.000000	99.378722
1741.000000	99.390148
1740.000000	99.396862
1739.000000	99.399523
1738.000000	99.404081
1737.000000	99.414697
1736.000000	99.435451
1735.000000	99.472525
1734.000000	99.513065
1733.000000	99.529458
1732.000000	99.524933
1731.000000	99.515253
1730.000000	99.506417
1729.000000	99.499234
1728.000000	99.495215
1727.000000	99.495137
1726.000000	99.498189
1725.000000	99.503015
1724.000000	99.508587
1723.000000	99.513908
1722.000000	99.516229
1721.000000	99.512538
1720.000000	99.505500
1719.000000	99.505931
1718.000000	99.519258
1717.000000	99.521215
1716.000000	99.493727
1715.000000	99.452587
1714.000000	99.412433
1713.000000	99.378135
1712.000000	99.352118
1711.000000	99.333708
1710.000000	99.318513
1709.000000	99.301524
1708.000000	99.280515
1707.000000	99.256755
1706.000000	99.229905
1705.000000	99.198249
1704.000000	99.169282
1703.000000	99.150180
1702.000000	99.135487
1701.000000	99.115595
1700.000000	99.094695
1699.000000	99.090277
1698.000000	99.090308
1697.000000	99.062378
1696.000000	98.994670
1695.000000	98.921926
1694.000000	98.875047
1693.000000	98.842148
1692.000000	98.810979
1691.000000	98.781462
1690.000000	98.754189
1689.000000	98.728068
1688.000000	98.706667
1687.000000	98.694995
1686.000000	98.686624
1685.000000	98.661082
1684.000000	98.599473
1683.000000	98.529219
1682.000000	98.483213
1681.000000	98.450254
1680.000000	98.419065
1679.000000	98.390854
1678.000000	98.364814
1677.000000	98.333270
1676.000000	98.292298
1675.000000	98.248815
1674.000000	98.212156
1673.000000	98.180517
1672.000000	98.148242
1671.000000	98.115709
1670.000000	98.080190
1669.000000	98.035911
1668.000000	97.990603
1667.000000	97.955461
1666.000000	97.930256
1665.000000	97.906731
1664.000000	97.877164
1663.000000	97.839023
1662.000000	97.794804
1661.000000	97.751348
1660.000000	97.713857
1659.000000	97.682745
1658.000000	97.656761
1657.000000	97.636406
1656.000000	97.625751
1655.000000	97.625816
1654.000000	97.620068
1653.000000	97.573908
1652.000000	97.528616
1651.000000	97.517789
1650.000000	97.516603
1649.000000	97.516118
1648.000000	97.517216
1647.000000	97.517922
1646.000000	97.517556
1645.000000	97.523692
1644.000000	97.536562
1643.000000	97.553557
1642.000000	97.572948
1641.000000	97.591679
1640.000000	97.609462
1639.000000	97.629484
1638.000000	97.651503
1637.000000	97.668481
1636.000000	97.672851
1635.000000	97.670917
1634.000000	97.679242
1633.000000	97.696478
1632.000000	97.718817
1631.000000	97.746823
1630.000000	97.777841
1629.000000	97.807989
1628.000000	97.838245
1627.000000	97.871045
1626.000000	97.904470
1625.000000	97.935664
1624.000000	97.965328
1623.000000	97.992740
1622.000000	98.013868
1621.000000	98.031910
1620.000000	98.055175
1619.000000	98.088182
1618.000000	98.126010
1617.000000	98.156101
1616.000000	98.173753
1615.000000	98.185980
1614.000000	98.196010
1613.000000	98.205341
1612.000000	98.217397
1611.000000	98.232157
1610.000000	98.242765
1609.000000	98.246066
1608.000000	98.250030
1607.000000	98.262235
1606.000000	98.278869
1605.000000	98.292689
1604.000000	98.302652
1603.000000	98.309847
1602.000000	98.311263
1601.000000	98.305311
1600.000000	98.297380
1599.000000	98.292366
1598.000000	98.288041
1597.000000	98.280808
1596.000000	98.273585
1595.000000	98.270792
1594.000000	98.269002
1593.000000	98.261967
1592.000000	98.249941
1591.000000	98.235906
1590.000000	98.218674
1589.000000	98.197771
1588.000000	98.177934
1587.000000	98.161333
1586.000000	98.142608
1585.000000	98.118878
1584.000000	98.096493
1583.000000	98.080280
1582.000000	98.065319
1581.000000	98.047809
1580.000000	98.035956
1579.000000	98.039664
1578.000000	98.056497
1577.000000	98.072894
1576.000000	98.079688
1575.000000	98.081405
1574.000000	98.082754
1573.000000	98.084770
1572.000000	98.090434
1571.000000	98.101724
1570.000000	98.111292
1569.000000	98.110739
1568.000000	98.108554
1567.000000	98.111569
1566.000000	98.113544
1565.000000	98.109690
1564.000000	98.105193
1563.000000	98.105178
1562.000000	98.104018
1561.000000	98.094423
1560.000000	98.086820
1559.000000	98.068251
1558.000000	97.993619
1557.000000	97.917768
1556.000000	97.851164
1555.000000	97.777198
1554.000000	97.690397
1553.000000	97.596701
1552.000000	97.501215
1551.000000	97.400446
1550.000000	97.286861
1549.000000	97.166002
1548.000000	97.054659
1547.000000	96.953823
1546.000000	96.847743
1545.000000	96.724935
1544.000000	96.594485
1543.000000	96.477108
1542.000000	96.370746
1541.000000	96.236441
1540.000000	96.047890
1539.000000	95.863083
1538.000000	95.735555
1537.000000	95.641581
1536.000000	95.557161
1535.000000	95.469688
1534.000000	95.360443
1533.000000	95.223952
1532.000000	95.094944
1531.000000	94.996666
1530.000000	94.906836
1529.000000	94.798705
1528.000000	94.673050
1527.000000	94.548477
1526.000000	94.433546
1525.000000	94.323382
1524.000000	94.216045
1523.000000	94.105223
1522.000000	93.962484
1521.000000	93.773620
1520.000000	93.593141
1519.000000	93.456656
1518.000000	93.329376
1517.000000	93.170380
1516.000000	92.991997
1515.000000	92.836926
1514.000000	92.702807
1513.000000	92.557004
1512.000000	92.390492
1511.000000	92.223871
1510.000000	92.072153
1509.000000	91.926089
1508.000000	91.757970
1507.000000	91.527214
1506.000000	91.261687
1505.000000	91.052608
1504.000000	90.893936
1503.000000	90.749073
1502.000000	90.594607
1501.000000	90.418687
1500.000000	90.229050
1499.000000	90.041562
1498.000000	89.849559
1497.000000	89.628801
1496.000000	89.391463
1495.000000	89.181885
1494.000000	89.005510
1493.000000	88.834723
1492.000000	88.652455
1491.000000	88.456901
1490.000000	88.244685
1489.000000	88.017155
1488.000000	87.799261
1487.000000	87.605978
1486.000000	87.419277
1485.000000	87.224706
1484.000000	87.030222
1483.000000	86.841351
1482.000000	86.648466
1481.000000	86.445638
1480.000000	86.247329
1479.000000	86.063534
1478.000000	85.880337
1477.000000	85.684638
1476.000000	85.491120
1475.000000	85.320900
1474.000000	85.156760
1473.000000	84.958772
1472.000000	84.734438
1471.000000	84.537432
1470.000000	84.375590
1469.000000	84.221299
1468.000000	84.062867
1467.000000	83.901290
1466.000000	83.728588
1465.000000	83.537701
1464.000000	83.350981
1463.000000	83.194832
1462.000000	83.058667
1461.000000	82.919165
1460.000000	82.771094
1459.000000	82.615936
1458.000000	82.436829
1457.000000	82.220647
1456.000000	82.023440
1455.000000	81.884096
1454.000000	81.761949
1453.000000	81.625860
1452.000000	81.483557
1451.000000	81.351304
1450.000000	81.222870
1449.000000	81.081995
1448.000000	80.933264
1447.000000	80.797192
1446.000000	80.678307
1445.000000	80.567755
1444.000000	80.463877
1443.000000	80.367304
1442.000000	80.269015
1441.000000	80.163528
1440.000000	80.059418
1439.000000	79.962213
1438.000000	79.862255
1437.000000	79.752303
1436.000000	79.651432
1435.000000	79.577154
1434.000000	79.511507
1433.000000	79.433769
1432.000000	79.347267
1431.000000	79.261571
1430.000000	79.174287
1429.000000	79.084583
1428.000000	79.007057
1427.000000	78.948793
1426.000000	78.895697
1425.000000	78.837722
1424.000000	78.783086
1423.000000	78.738014
1422.000000	78.690511
1421.000000	78.629168
1420.000000	78.564801
1419.000000	78.516959
1418.000000	78.485598
1417.000000	78.464314
1416.000000	78.456744
1415.000000	78.462141
1414.000000	78.469675
1413.000000	78.477126
1412.000000	78.497861
1411.000000	78.537809
1410.000000	78.582639
1409.000000	78.619547
1408.000000	78.653800
1407.000000	78.693480
1406.000000	78.735619
1405.000000	78.776668
1404.000000	78.818663
1403.000000	78.855492
1402.000000	78.872947
1401.000000	78.869502
1400.000000	78.861767
1399.000000	78.859701
1398.000000	78.853952
1397.000000	78.843180
1396.000000	78.848717
1395.000000	78.887666
1394.000000	78.949828
1393.000000	79.018797
1392.000000	79.091065
1391.000000	79.166113
1390.000000	79.240576
1389.000000	79.321846
1388.000000	79.428924
1387.000000	79.561339
1386.000000	79.689834
1385.000000	79.799751
1384.000000	79.905723
1383.000000	80.019657
1382.000000	80.134234
1381.000000	80.241632
1380.000000	80.349804
1379.000000	80.465228
1378.000000	80.579102
1377.000000	80.685892
1376.000000	80.798148
1375.000000	80.928181
1374.000000	81.068255
1373.000000	81.205211
1372.000000	81.339716
1371.000000	81.476215
1370.000000	81.616890
1369.000000	81.771720
1368.000000	81.948162
1367.000000	82.132113
1366.000000	82.302364
1365.000000	82.463120
1364.000000	82.643469
1363.000000	82.858576
1362.000000	83.086121
1361.000000	83.302602
1360.000000	83.511436
1359.000000	83.720419
1358.000000	83.928532
1357.000000	84.138707
1356.000000	84.359081
1355.000000	84.585953
1354.000000	84.804200
1353.000000	85.009513
1352.000000	85.213633
1351.000000	85.423869
1350.000000	85.633963
1349.000000	85.840308
1348.000000	86.046284
1347.000000	86.249979
1346.000000	86.444443
1345.000000	86.630832
1344.000000	86.814766
1343.000000	86.993563
1342.000000	87.164076
1341.000000	87.339010
1340.000000	87.534103
1339.000000	87.740057
1338.000000	87.933869
1337.000000	88.113000
1336.000000	88.288206
1335.000000	88.458332
1334.000000	88.615739
1333.000000	88.766667
1332.000000	88.925251
1331.000000	89.091419
1330.000000	89.253720
1329.000000	89.410447
1328.000000	89.567782
1327.000000	89.721773
1326.000000	89.862983
1325.000000	89.995573
1324.000000	90.130307
1323.000000	90.264974
1322.000000	90.391279
1321.000000	90.513746
1320.000000	90.642238
1319.000000	90.772070
1318.000000	90.891537
1317.000000	91.003197
1316.000000	91.117541
1315.000000	91.234260
1314.000000	91.348140
1313.000000	91.463558
1312.000000	91.585069
1311.000000	91.703330
1310.000000	91.808437
1309.000000	91.908187
1308.000000	92.015799
1307.000000	92.129502
1306.000000	92.239522
1305.000000	92.346299
1304.000000	92.453408
1303.000000	92.554492
1302.000000	92.644534
1301.000000	92.733227
1300.000000	92.830111
1299.000000	92.927689
1298.000000	93.015847
1297.000000	93.100217
1296.000000	93.189949
1295.000000	93.279195
1294.000000	93.358992
1293.000000	93.434186
1292.000000	93.511357
1291.000000	93.583515
1290.000000	93.644129
1289.000000	93.703313
1288.000000	93.771516
1287.000000	93.840220
1286.000000	93.897155
1285.000000	93.947422
1284.000000	94.001094
1283.000000	94.054511
1282.000000	94.101453
1281.000000	94.149561
1280.000000	94.206708
1279.000000	94.263619
1278.000000	94.308891
1277.000000	94.348999
1276.000000	94.395939
1275.000000	94.446738
1274.000000	94.493051
1273.000000	94.538183
1272.000000	94.587080
1271.000000	94.631617
1270.000000	94.664202
1269.000000	94.693861
1268.000000	94.731196
1267.000000	94.769810
1266.000000	94.799992
1265.000000	94.827112
1264.000000	94.859271
1263.000000	94.890605
1262.000000	94.914106
1261.000000	94.937654
1260.000000	94.969157
1259.000000	94.999923
1258.000000	95.021132
1257.000000	95.041729
1256.000000	95.072238
1255.000000	95.106025
1254.000000	95.133101
1253.000000	95.158364
1252.000000	95.189590
1251.000000	95.220554
1250.000000	95.242536
1249.000000	95.259766
1248.000000	95.278325
1247.000000	95.292800
1246.000000	95.299574
1245.000000	95.308914
1244.000000	95.328308
1243.000000	95.347396
1242.000000	95.355144
1241.000000	95.358606
1240.000000	95.369633
1239.000000	95.386688
1238.000000	95.404135
1237.000000	95.425874
1236.000000	95.454815
1235.000000	95.482505
1234.000000	95.503510
1233.000000	95.526530
1232.000000	95.557529
1231.000000	95.586777
1230.000000	95.606285
1229.000000	95.624738
1228.000000	95.650931
1227.000000	95.678791
1226.000000	95.703484
1225.000000	95.735660
1224.000000	95.783330
1223.000000	95.834724
1222.000000	95.875748
1221.000000	95.909611
1220.000000	95.943890
1219.000000	95.973993
1218.000000	95.996276
1217.000000	96.021856
1216.000000	96.059415
1215.000000	96.098008
1214.000000	96.123543
1213.000000	96.139688
1212.000000	96.156593
1211.000000	96.172794
1210.000000	96.183725
1209.000000	96.194450
1208.000000	96.208915
1207.000000	96.219930
1206.000000	96.223684
1205.000000	96.230418
1204.000000	96.247116
1203.000000	96.264387
1202.000000	96.273810
1201.000000	96.282979
1200.000000	96.299551
1199.000000	96.316479
1198.000000	96.327715
1197.000000	96.342406
1196.000000	96.368084
1195.000000	96.394756
1194.000000	96.410743
1193.000000	96.420260
1192.000000	96.431716
1191.000000	96.443639
1190.000000	96.455094
1189.000000	96.473771
1188.000000	96.500004
1187.000000	96.519145
1186.000000	96.523575
1185.000000	96.525763
1184.000000	96.536192
1183.000000	96.546613
1182.000000	96.549070
1181.000000	96.552601
1180.000000	96.564820
1179.000000	96.575042
1178.000000	96.573547
1177.000000	96.569267
1176.000000	96.571411
1175.000000	96.572385
1174.000000	96.565365
1173.000000	96.561067
1172.000000	96.569507
1171.000000	96.581730
1170.000000	96.586342
1169.000000	96.587734
1168.000000	96.591871
1167.000000	96.591603
1166.000000	96.583137
1165.000000	96.579765
1164.000000	96.591699
1163.000000	96.608744
1162.000000	96.619341
1161.000000	96.629452
1160.000000	96.645979
1159.000000	96.659857
1158.000000	96.663780
1157.000000	96.668658
1156.000000	96.684536
1155.000000	96.702762
1154.000000	96.714919
1153.000000	96.731010
1152.000000	96.760087
1151.000000	96.790744
1150.000000	96.810096
1149.000000	96.824826
1148.000000	96.844389
1147.000000	96.861497
1146.000000	96.868421
1145.000000	96.874896
1144.000000	96.890673
1143.000000	96.907787
1142.000000	96.918223
1141.000000	96.931158
1140.000000	96.954179
1139.000000	96.976105
1138.000000	96.987062
1137.000000	96.997108
1136.000000	97.016259
1135.000000	97.034704
1134.000000	97.041966
1133.000000	97.046997
1132.000000	97.060304
1131.000000	97.074440
1130.000000	97.080980
1129.000000	97.087710
1128.000000	97.099924
1127.000000	97.104522
1126.000000	97.093007
1125.000000	97.081048
1124.000000	97.084720
1123.000000	97.095915
1122.000000	97.100950
1121.000000	97.104695
1120.000000	97.115391
1119.000000	97.124622
1118.000000	97.123070
1117.000000	97.118753
1116.000000	97.119832
1115.000000	97.117699
1114.000000	97.105813
1113.000000	97.096130
1112.000000	97.097915
1111.000000	97.100379
1110.000000	97.095292
1109.000000	97.095399
1108.000000	97.109915
1107.000000	97.123686
1106.000000	97.122117
1105.000000	97.115426
1104.000000	97.117021
1103.000000	97.119095
1102.000000	97.111929
1101.000000	97.106028
1100.000000	97.111238
1099.000000	97.116651
1098.000000	97.110803
1097.000000	97.104109
1096.000000	97.107693
1095.000000	97.109933
1094.000000	97.096254
1093.000000	97.073694
1092.000000	97.054034
1091.000000	97.032617
1090.000000	97.004353
1089.000000	96.980812
1088.000000	96.969501
1087.000000	96.955867
1086.000000	96.927026
1085.000000	96.894304
1084.000000	96.872325
1083.000000	96.855667
1082.000000	96.836509
1081.000000	96.823789
1080.000000	96.824153
1079.000000	96.824715
1078.000000	96.817244
1077.000000	96.818264
1076.000000	96.842686
1075.000000	96.878063
1074.000000	96.906530
1073.000000	96.931839
1072.000000	96.963110
1071.000000	96.992687
1070.000000	97.012155
1069.000000	97.030916
1068.000000	97.057042
1067.000000	97.079041
1066.000000	97.086437
1065.000000	97.089053
1064.000000	97.096194
1063.000000	97.098259
1062.000000	97.088144
1061.000000	97.079709
1060.000000	97.084557
1059.000000	97.091660
1058.000000	97.089731
1057.000000	97.087895
1056.000000	97.094792
1055.000000	97.098606
1054.000000	97.088998
1053.000000	97.077692
1052.000000	97.077523
1051.000000	97.081159
1050.000000	97.080811
1049.000000	97.086064
1048.000000	97.102268
1047.000000	97.115454
1046.000000	97.117579
1045.000000	97.121363
1044.000000	97.132506
1043.000000	97.134342
1042.000000	97.117772
1041.000000	97.100905
1040.000000	97.098911
1039.000000	97.100405
1038.000000	97.092710
1037.000000	97.085358
1036.000000	97.087743
1035.000000	97.089248
1034.000000	97.082374
1033.000000	97.080058
1032.000000	97.089468
1031.000000	97.094380
1030.000000	97.085482
1029.000000	97.081542
1028.000000	97.098412
1027.000000	97.122110
1026.000000	97.136115
1025.000000	97.148862
1024.000000	97.170558
1023.000000	97.187777
1022.000000	97.186693
1021.000000	97.178812
1020.000000	97.179645
1019.000000	97.184553
1018.000000	97.186905
1017.000000	97.196874
1016.000000	97.219597
1015.000000	97.239474
1014.000000	97.247733
1013.000000	97.261605
1012.000000	97.293408
1011.000000	97.326269
1010.000000	97.342810
1009.000000	97.353660
1008.000000	97.374263
1007.000000	97.397452
1006.000000	97.413191
1005.000000	97.431608
1004.000000	97.463120
1003.000000	97.496449
1002.000000	97.519563
1001.000000	97.541078
1000.000000	97.570381
999.000000	97.597584
998.000000	97.614170
997.000000	97.631130
996.000000	97.656532
995.000000	97.678366
994.000000	97.689852
993.000000	97.707384
992.000000	97.741007
991.000000	97.772352
990.000000	97.784653
989.000000	97.791725
988.000000	97.811975
987.000000	97.837498
986.000000	97.853211
985.000000	97.865453
984.000000	97.886265
983.000000	97.909205
982.000000	97.925079
981.000000	97.941929
980.000000	97.966743
979.000000	97.986359
978.000000	97.989883
977.000000	97.990353
976.000000	98.003195
975.000000	98.021877
974.000000	98.036538
973.000000	98.055742
972.000000	98.087899
971.000000	98.120732
970.000000	98.141240
969.000000	98.157468
968.000000	98.179669
967.000000	98.199936
966.000000	98.210551
965.000000	98.223332
964.000000	98.249355
963.000000	98.279226
962.000000	98.302277
961.000000	98.326564
960.000000	98.360575
959.000000	98.395353
958.000000	98.422713
957.000000	98.450636
956.000000	98.483468
955.000000	98.508780
954.000000	98.521416
953.000000	98.536701
952.000000	98.563178
951.000000	98.586204
950.000000	98.596974
949.000000	98.610838
948.000000	98.638278
947.000000	98.663899
946.000000	98.675339
945.000000	98.686048
944.000000	98.707808
943.000000	98.727075
942.000000	98.731022
941.000000	98.732671
940.000000	98.746890
939.000000	98.766418
938.000000	98.781992
937.000000	98.802025
936.000000	98.830328
935.000000	98.850829
934.000000	98.855688
933.000000	98.863048
932.000000	98.884594
931.000000	98.903081
930.000000	98.905299
929.000000	98.908822
928.000000	98.931493
927.000000	98.960201
926.000000	98.976635
925.000000	98.987755
924.000000	99.005973
923.000000	99.023262
922.000000	99.031084
921.000000	99.041324
920.000000	99.062087
919.000000	99.076931
918.000000	99.073706
917.000000	99.070269
916.000000	99.085365
915.000000	99.108663
914.000000	99.123903
913.000000	99.138513
912.000000	99.163197
911.000000	99.186821
910.000000	99.197997
909.000000	99.209516
908.000000	99.234626
907.000000	99.261637
906.000000	99.277302
905.000000	99.291907
904.000000	99.316326
903.000000	99.338085
902.000000	99.347239
901.000000	99.360739
900.000000	99.394497
899.000000	99.433554
898.000000	99.457716
897.000000	99.473801
896.000000	99.496555
895.000000	99.520748
894.000000	99.538447
893.000000	99.560635
892.000000	99.593544
891.000000	99.615679
890.000000	99.599217
889.000000	99.524767
888.000000	99.348404
887.000000	98.982665
886.000000	98.354132
885.000000	97.460689
884.000000	96.340147
883.000000	95.009438
882.000000	93.462871
881.000000	91.722366
880.000000	89.858720
879.000000	87.975774
878.000000	86.191259
877.000000	84.610356
876.000000	83.281106
875.000000	82.172864
874.000000	81.251030
873.000000	80.604489
872.000000	80.513903
871.000000	81.322401
870.000000	83.158422
869.000000	85.751509
868.000000	88.528674
867.000000	90.941745
866.000000	92.752130
865.000000	94.035744
864.000000	94.965806
863.000000	95.652793
862.000000	96.157110
861.000000	96.542479
860.000000	96.856907
859.000000	97.105793
858.000000	97.294365
857.000000	97.456664
856.000000	97.615659
855.000000	97.754716
854.000000	97.857587
853.000000	97.936626
852.000000	97.988941
851.000000	97.971953
850.000000	97.869319
849.000000	97.748097
848.000000	97.707521
847.000000	97.787564
846.000000	97.954404
845.000000	98.148113
844.000000	98.314789
843.000000	98.422796
842.000000	98.484403
841.000000	98.543401
840.000000	98.619565
839.000000	98.688273
838.000000	98.728392
837.000000	98.755120
836.000000	98.783939
835.000000	98.802617
834.000000	98.804981
833.000000	98.815417
832.000000	98.849503
831.000000	98.884784
830.000000	98.900009
829.000000	98.909784
828.000000	98.931300
827.000000	98.951322
826.000000	98.957719
825.000000	98.967229
824.000000	98.990582
823.000000	99.007712
822.000000	99.008542
821.000000	99.015484
820.000000	99.037411
819.000000	99.046131
818.000000	99.027807
817.000000	99.013362
816.000000	99.027541
815.000000	99.049937
814.000000	99.057508
813.000000	99.065716
812.000000	99.092701
811.000000	99.121079
810.000000	99.130166
809.000000	99.132284
808.000000	99.143749
807.000000	99.153537
806.000000	99.151624
805.000000	99.154617
804.000000	99.173475
803.000000	99.189637
802.000000	99.190874
801.000000	99.194285
800.000000	99.207415
799.000000	99.206372
798.000000	99.181444
797.000000	99.163200
796.000000	99.173206
795.000000	99.189546
794.000000	99.191390
793.000000	99.195965
792.000000	99.219532
791.000000	99.242146
790.000000	99.244008
789.000000	99.239718
788.000000	99.245589
787.000000	99.249427
786.000000	99.241249
785.000000	99.237678
784.000000	99.248493
783.000000	99.255383
782.000000	99.249756
781.000000	99.252935
780.000000	99.272993
779.000000	99.282012
778.000000	99.263821
777.000000	99.244640
776.000000	99.248208
775.000000	99.260541
774.000000	99.267214
773.000000	99.284252
772.000000	99.320920
771.000000	99.352442
770.000000	99.361447
769.000000	99.368156
768.000000	99.388941
767.000000	99.404030
766.000000	99.396872
765.000000	99.386365
764.000000	99.389660
763.000000	99.391814
762.000000	99.382568
761.000000	99.382170
760.000000	99.400301
759.000000	99.410442
758.000000	99.397886
757.000000	99.392029
756.000000	99.417731
755.000000	99.453913
754.000000	99.473309
753.000000	99.484271
752.000000	99.499921
751.000000	99.506388
750.000000	99.494675
749.000000	99.486290
748.000000	99.494290
747.000000	99.497619
746.000000	99.483993
745.000000	99.477751
744.000000	99.493613
743.000000	99.505742
742.000000	99.495145
741.000000	99.484644
740.000000	99.494605
739.000000	99.506584
738.000000	99.504335
737.000000	99.506178
736.000000	99.523610
735.000000	99.531208
734.000000	99.513052
733.000000	99.494529
732.000000	99.495244
731.000000	99.495553
730.000000	99.483066
729.000000	99.482087
728.000000	99.503453
727.000000	99.514444
726.000000	99.491706
725.000000	99.458670
724.000000	99.431587
723.000000	99.377312
722.000000	99.262498
721.000000	99.099543
720.000000	98.899962
719.000000	98.619858
718.000000	98.189195
717.000000	97.557524
716.000000	96.701124
715.000000	95.670853
714.000000	94.684155
713.000000	94.082273
712.000000	94.095830
711.000000	94.657595
710.000000	95.486435
709.000000	96.311149
708.000000	96.982607
707.000000	97.455517
706.000000	97.755919
705.000000	97.955667
704.000000	98.113218
703.000000	98.233938
702.000000	98.312355
701.000000	98.377616
700.000000	98.454997
699.000000	98.528214
698.000000	98.578088
697.000000	98.624668
696.000000	98.690044
695.000000	98.753959
694.000000	98.795063
693.000000	98.833569
692.000000	98.885911
691.000000	98.925968
690.000000	98.932554
689.000000	98.933957
688.000000	98.959682
687.000000	98.986584
686.000000	98.991126
685.000000	98.999524
684.000000	99.033112
683.000000	99.060171
682.000000	99.053319
681.000000	99.040888
680.000000	99.050076
679.000000	99.054686
678.000000	99.031484
677.000000	99.006058
676.000000	99.001951
675.000000	98.999437
674.000000	98.982951
673.000000	98.983374
672.000000	99.033574
671.000000	99.128695
670.000000	99.253915
669.000000	99.401766
668.000000	99.493278
667.000000	99.410050
666.000000	99.250618
665.000000	99.130776
664.000000	99.077646
663.000000	99.058571
662.000000	99.033325
661.000000	99.010038
660.000000	99.013112
659.000000	99.032228
658.000000	99.047693
657.000000	99.062553
656.000000	99.082617
655.000000	99.093323
654.000000	99.082929
653.000000	99.068176
652.000000	99.069922
651.000000	99.081002
650.000000	99.089115
649.000000	99.103996
648.000000	99.131812
647.000000	99.150105
646.000000	99.141092
645.000000	99.128520
644.000000	99.138919
643.000000	99.155285
642.000000	99.151940
641.000000	99.140368
640.000000	99.140734
639.000000	99.141979
638.000000	99.129304
637.000000	99.119812
636.000000	99.132732
635.000000	99.149148
634.000000	99.147033
633.000000	99.143980
632.000000	99.160457
631.000000	99.176600
630.000000	99.168044
629.000000	99.150510
628.000000	99.147911
627.000000	99.149420
626.000000	99.135025
625.000000	99.117433
624.000000	99.113183
623.000000	99.107527
622.000000	99.090579
621.000000	99.089204
620.000000	99.118224
619.000000	99.142979
618.000000	99.134644
617.000000	99.123409
616.000000	99.146968
615.000000	99.188177
614.000000	99.213314
613.000000	99.225075
612.000000	99.231314
611.000000	99.209359
610.000000	99.152738
609.000000	99.105513
608.000000	99.101604
607.000000	99.111631
606.000000	99.098219
605.000000	99.079748
604.000000	99.084531
603.000000	99.092477
602.000000	99.079614
601.000000	99.068978
600.000000	99.081575
599.000000	99.089561
598.000000	99.075099
597.000000	99.079915
596.000000	99.134119
595.000000	99.193727
594.000000	99.206866
593.000000	99.194336
592.000000	99.201323
591.000000	99.218389
590.000000	99.216261
589.000000	99.208459
588.000000	99.216027
587.000000	99.220473
586.000000	99.207709
585.000000	99.204003
584.000000	99.217633
583.000000	99.200931
582.000000	99.131319
581.000000	99.065821
580.000000	99.057197
579.000000	99.076820
578.000000	99.084278
577.000000	99.101797
576.000000	99.151816
575.000000	99.192994
574.000000	99.191177
573.000000	99.184672
572.000000	99.203246
571.000000	99.201947
570.000000	99.143362
569.000000	99.082253
568.000000	99.083430
567.000000	99.120925
566.000000	99.137499
565.000000	99.136214
564.000000	99.139428
563.000000	99.126423
562.000000	99.090518
561.000000	99.086186
560.000000	99.142541
559.000000	99.196198
558.000000	99.188353
557.000000	99.157729
556.000000	99.162863
555.000000	99.183371
554.000000	99.177743
553.000000	99.166219
552.000000	99.172446
551.000000	99.155477
550.000000	99.084569
549.000000	99.017742
548.000000	99.017775
547.000000	99.058715
546.000000	99.089474
545.000000	99.120885
544.000000	99.168348
543.000000	99.185590
542.000000	99.140888
541.000000	99.088089
540.000000	99.080446
539.000000	99.083112
538.000000	99.048723
537.000000	99.006595
536.000000	98.999367
535.000000	98.999012
534.000000	98.968714
533.000000	98.933394
532.000000	98.920600
531.000000	98.902404
530.000000	98.865256
529.000000	98.856410
528.000000	98.896544
527.000000	98.925724
526.000000	98.908552
525.000000	98.910184
524.000000	98.969251
523.000000	99.014514
522.000000	98.997518
521.000000	98.989778
520.000000	99.061531
519.000000	99.152362
518.000000	99.165047
517.000000	99.120338
516.000000	99.094588
515.000000	99.091121
514.000000	99.089482
513.000000	99.118341
512.000000	99.184044
511.000000	99.212442
510.000000	99.158913
509.000000	99.094416
508.000000	99.094039
507.000000	99.116606
506.000000	99.095217
505.000000	99.061236
504.000000	99.068904
503.000000	99.094015
502.000000	99.105483
501.000000	99.154775
500.000000	99.280579
499.000000	99.411436
498.000000	99.461756
497.000000	99.435471
496.000000	99.367337
495.000000	99.252073
494.000000	99.111518
493.000000	99.038866
492.000000	99.075222
491.000000	99.128240
490.000000	99.118776
489.000000	99.096383
488.000000	99.112965
487.000000	99.108659
486.000000	99.029171
485.000000	98.946340
484.000000	98.941738
483.000000	98.964378
482.000000	98.944212
481.000000	98.930723
480.000000	98.982586
479.000000	99.040823
478.000000	99.040654
477.000000	99.035765
476.000000	99.079836
475.000000	99.092769
474.000000	98.993634
473.000000	98.870756
472.000000	98.859282
471.000000	98.917467
470.000000	98.937315
469.000000	98.944690
468.000000	99.001101
467.000000	99.050665
466.000000	99.024938
465.000000	98.993085
464.000000	99.039789
463.000000	99.106761
462.000000	99.098681
461.000000	99.061196
460.000000	99.094101
459.000000	99.179296
458.000000	99.237718
457.000000	99.283921
456.000000	99.368785
455.000000	99.445163
454.000000	99.462678
453.000000	99.467773
452.000000	99.508084
451.000000	99.530145
450.000000	99.490958
