PE IR       SUBTECH     SPECTRUM    ASCII       PEDS        4.00        
   -1
G11-F001_1.ASC
23/09/14
11:39:47.00
23/09/14
11:53:14.00
uco
Sample 001 By uco Date Thursday, September 14 2023
450.000000
#HDR
-1
-1
#GR
cm-1
%T
1.0
0.0
4000.000000
-1.000000
3551
8
99.806716
79.661625
#DATA
4000.000000	99.725377
3999.000000	99.722730
3998.000000	99.719400
3997.000000	99.716721
3996.000000	99.716323
3995.000000	99.718433
3994.000000	99.721167
3993.000000	99.721994
3992.000000	99.719885
3991.000000	99.715816
3990.000000	99.711188
3989.000000	99.706136
3988.000000	99.699876
3987.000000	99.692563
3986.000000	99.686092
3985.000000	99.682627
3984.000000	99.682685
3983.000000	99.684947
3982.000000	99.687933
3981.000000	99.691501
3980.000000	99.696376
3979.000000	99.702566
3978.000000	99.708724
3977.000000	99.713055
3976.000000	99.714505
3975.000000	99.713062
3974.000000	99.709485
3973.000000	99.705408
3972.000000	99.703410
3971.000000	99.705908
3970.000000	99.712903
3969.000000	99.720850
3968.000000	99.724734
3967.000000	99.721973
3966.000000	99.714376
3965.000000	99.706297
3964.000000	99.700960
3963.000000	99.698507
3962.000000	99.696816
3961.000000	99.693605
3960.000000	99.688227
3959.000000	99.682378
3958.000000	99.679363
3957.000000	99.681861
3956.000000	99.689335
3955.000000	99.697761
3954.000000	99.702496
3953.000000	99.701670
3952.000000	99.697248
3951.000000	99.693236
3950.000000	99.692875
3949.000000	99.697115
3948.000000	99.704890
3947.000000	99.713980
3946.000000	99.721495
3945.000000	99.724440
3944.000000	99.721356
3943.000000	99.714113
3942.000000	99.707139
3941.000000	99.703674
3940.000000	99.702829
3939.000000	99.701196
3938.000000	99.696773
3937.000000	99.690741
3936.000000	99.685790
3935.000000	99.683348
3934.000000	99.682891
3933.000000	99.683296
3932.000000	99.684318
3931.000000	99.686400
3930.000000	99.689707
3929.000000	99.693977
3928.000000	99.698775
3927.000000	99.703324
3926.000000	99.706638
3925.000000	99.708375
3924.000000	99.708952
3923.000000	99.708741
3922.000000	99.707975
3921.000000	99.707591
3920.000000	99.708908
3919.000000	99.712167
3918.000000	99.715983
3917.000000	99.718672
3916.000000	99.719467
3915.000000	99.718441
3914.000000	99.715989
3913.000000	99.713104
3912.000000	99.710902
3911.000000	99.709779
3910.000000	99.709024
3909.000000	99.707624
3908.000000	99.704885
3907.000000	99.700682
3906.000000	99.696005
3905.000000	99.693371
3904.000000	99.695222
3903.000000	99.700242
3902.000000	99.703361
3901.000000	99.701354
3900.000000	99.697096
3899.000000	99.696327
3898.000000	99.700689
3897.000000	99.706823
3896.000000	99.711181
3895.000000	99.713022
3894.000000	99.712615
3893.000000	99.709710
3892.000000	99.704822
3891.000000	99.701253
3890.000000	99.701740
3889.000000	99.704114
3888.000000	99.703871
3887.000000	99.699980
3886.000000	99.696919
3885.000000	99.699728
3884.000000	99.706352
3883.000000	99.709322
3882.000000	99.704823
3881.000000	99.696623
3880.000000	99.691903
3879.000000	99.693460
3878.000000	99.696693
3877.000000	99.695595
3876.000000	99.689251
3875.000000	99.682861
3874.000000	99.683106
3873.000000	99.689939
3872.000000	99.695113
3871.000000	99.692476
3870.000000	99.687284
3869.000000	99.689851
3868.000000	99.700200
3867.000000	99.708755
3866.000000	99.709989
3865.000000	99.707076
3864.000000	99.705000
3863.000000	99.704630
3862.000000	99.704275
3861.000000	99.704323
3860.000000	99.706379
3859.000000	99.710675
3858.000000	99.715385
3857.000000	99.717615
3856.000000	99.714370
3855.000000	99.705354
3854.000000	99.698459
3853.000000	99.705340
3852.000000	99.721604
3851.000000	99.730724
3850.000000	99.726622
3849.000000	99.714851
3848.000000	99.701770
3847.000000	99.690032
3846.000000	99.680316
3845.000000	99.674178
3844.000000	99.673992
3843.000000	99.681391
3842.000000	99.694829
3841.000000	99.709464
3840.000000	99.720052
3839.000000	99.723965
3838.000000	99.721270
3837.000000	99.713755
3836.000000	99.703887
3835.000000	99.694083
3834.000000	99.686650
3833.000000	99.683563
3832.000000	99.685658
3831.000000	99.690908
3830.000000	99.694229
3829.000000	99.691003
3828.000000	99.681296
3827.000000	99.671281
3826.000000	99.668625
3825.000000	99.674820
3824.000000	99.683475
3823.000000	99.687438
3822.000000	99.686007
3821.000000	99.685727
3820.000000	99.690826
3819.000000	99.695486
3818.000000	99.692695
3817.000000	99.684412
3816.000000	99.680214
3815.000000	99.685955
3814.000000	99.695771
3813.000000	99.701025
3812.000000	99.701464
3811.000000	99.702220
3810.000000	99.704981
3809.000000	99.705206
3808.000000	99.697810
3807.000000	99.685371
3806.000000	99.675819
3805.000000	99.670840
3804.000000	99.664569
3803.000000	99.654512
3802.000000	99.648313
3801.000000	99.656619
3800.000000	99.676034
3799.000000	99.691056
3798.000000	99.693632
3797.000000	99.688894
3796.000000	99.686040
3795.000000	99.688047
3794.000000	99.690559
3793.000000	99.689362
3792.000000	99.685406
3791.000000	99.682460
3790.000000	99.683194
3789.000000	99.687558
3788.000000	99.693163
3787.000000	99.696872
3786.000000	99.697540
3785.000000	99.697933
3784.000000	99.702326
3783.000000	99.711218
3782.000000	99.720004
3781.000000	99.723333
3780.000000	99.719659
3779.000000	99.711966
3778.000000	99.704194
3777.000000	99.698112
3776.000000	99.694482
3775.000000	99.694948
3774.000000	99.700024
3773.000000	99.706164
3772.000000	99.707363
3771.000000	99.701670
3770.000000	99.695009
3769.000000	99.695331
3768.000000	99.703204
3767.000000	99.712213
3766.000000	99.717191
3765.000000	99.718751
3764.000000	99.720230
3763.000000	99.722327
3762.000000	99.723159
3761.000000	99.722158
3760.000000	99.720395
3759.000000	99.718055
3758.000000	99.714617
3757.000000	99.711581
3756.000000	99.711539
3755.000000	99.714813
3754.000000	99.719221
3753.000000	99.722606
3752.000000	99.724349
3751.000000	99.724709
3750.000000	99.724505
3749.000000	99.725213
3748.000000	99.727134
3747.000000	99.727338
3746.000000	99.722290
3745.000000	99.713620
3744.000000	99.709380
3743.000000	99.711536
3742.000000	99.711640
3741.000000	99.706355
3740.000000	99.701466
3739.000000	99.701812
3738.000000	99.706033
3737.000000	99.710400
3736.000000	99.714064
3735.000000	99.717034
3734.000000	99.716659
3733.000000	99.711739
3732.000000	99.707322
3731.000000	99.709129
3730.000000	99.715692
3729.000000	99.719659
3728.000000	99.715597
3727.000000	99.705489
3726.000000	99.697166
3725.000000	99.696304
3724.000000	99.701884
3723.000000	99.709754
3722.000000	99.716298
3721.000000	99.718902
3720.000000	99.715927
3719.000000	99.708195
3718.000000	99.699899
3717.000000	99.696319
3716.000000	99.699308
3715.000000	99.706059
3714.000000	99.712879
3713.000000	99.718832
3712.000000	99.724973
3711.000000	99.730486
3710.000000	99.731383
3709.000000	99.725179
3708.000000	99.714366
3707.000000	99.704474
3706.000000	99.699621
3705.000000	99.699855
3704.000000	99.702087
3703.000000	99.703152
3702.000000	99.702697
3701.000000	99.703115
3700.000000	99.705916
3699.000000	99.709164
3698.000000	99.710119
3697.000000	99.708697
3696.000000	99.706888
3695.000000	99.705480
3694.000000	99.703779
3693.000000	99.702233
3692.000000	99.702801
3691.000000	99.706526
3690.000000	99.712119
3689.000000	99.718344
3688.000000	99.725349
3687.000000	99.731628
3686.000000	99.732852
3685.000000	99.726287
3684.000000	99.714186
3683.000000	99.701940
3682.000000	99.694057
3681.000000	99.692305
3680.000000	99.697022
3679.000000	99.706214
3678.000000	99.713288
3677.000000	99.710222
3676.000000	99.698365
3675.000000	99.691933
3674.000000	99.698978
3673.000000	99.710692
3672.000000	99.716498
3671.000000	99.714298
3670.000000	99.708746
3669.000000	99.705454
3668.000000	99.704665
3667.000000	99.703389
3666.000000	99.700860
3665.000000	99.698341
3664.000000	99.697053
3663.000000	99.697705
3662.000000	99.701057
3661.000000	99.707822
3660.000000	99.717490
3659.000000	99.726928
3658.000000	99.731507
3657.000000	99.728810
3656.000000	99.722287
3655.000000	99.717789
3654.000000	99.716681
3653.000000	99.716336
3652.000000	99.715005
3651.000000	99.713567
3650.000000	99.713860
3649.000000	99.716219
3648.000000	99.719346
3647.000000	99.722649
3646.000000	99.725939
3645.000000	99.727968
3644.000000	99.727231
3643.000000	99.723783
3642.000000	99.719188
3641.000000	99.714395
3640.000000	99.708592
3639.000000	99.701503
3638.000000	99.695641
3637.000000	99.693816
3636.000000	99.695391
3635.000000	99.697284
3634.000000	99.698304
3633.000000	99.699863
3632.000000	99.701957
3631.000000	99.701491
3630.000000	99.696545
3629.000000	99.692099
3628.000000	99.694854
3627.000000	99.701245
3626.000000	99.703163
3625.000000	99.700060
3624.000000	99.697317
3623.000000	99.698864
3622.000000	99.703436
3621.000000	99.706378
3620.000000	99.704411
3619.000000	99.698879
3618.000000	99.694002
3617.000000	99.691821
3616.000000	99.691013
3615.000000	99.690001
3614.000000	99.689226
3613.000000	99.690198
3612.000000	99.692517
3611.000000	99.692824
3610.000000	99.687835
3609.000000	99.678541
3608.000000	99.670576
3607.000000	99.669190
3606.000000	99.674152
3605.000000	99.680636
3604.000000	99.683245
3603.000000	99.678477
3602.000000	99.666487
3601.000000	99.651960
3600.000000	99.642111
3599.000000	99.641287
3598.000000	99.648412
3597.000000	99.658700
3596.000000	99.666823
3595.000000	99.669523
3594.000000	99.667523
3593.000000	99.664614
3592.000000	99.664581
3591.000000	99.668867
3590.000000	99.676538
3589.000000	99.685937
3588.000000	99.695718
3587.000000	99.703858
3586.000000	99.706536
3585.000000	99.700323
3584.000000	99.685767
3583.000000	99.667764
3582.000000	99.652919
3581.000000	99.645958
3580.000000	99.647429
3579.000000	99.653903
3578.000000	99.660887
3577.000000	99.665667
3576.000000	99.667715
3575.000000	99.667476
3574.000000	99.665684
3573.000000	99.663797
3572.000000	99.663752
3571.000000	99.666303
3570.000000	99.669171
3569.000000	99.667829
3568.000000	99.659441
3567.000000	99.646911
3566.000000	99.636719
3565.000000	99.632051
3564.000000	99.631446
3563.000000	99.633099
3562.000000	99.637115
3561.000000	99.644162
3560.000000	99.653048
3559.000000	99.660078
3558.000000	99.661278
3557.000000	99.655428
3556.000000	99.644669
3555.000000	99.632464
3554.000000	99.621711
3553.000000	99.614582
3552.000000	99.612619
3551.000000	99.615657
3550.000000	99.621194
3549.000000	99.625893
3548.000000	99.627690
3547.000000	99.626509
3546.000000	99.623580
3545.000000	99.620349
3544.000000	99.617418
3543.000000	99.614170
3542.000000	99.609473
3541.000000	99.603179
3540.000000	99.596939
3539.000000	99.593303
3538.000000	99.593749
3537.000000	99.597525
3536.000000	99.602363
3535.000000	99.606232
3534.000000	99.608414
3533.000000	99.609143
3532.000000	99.608746
3531.000000	99.607311
3530.000000	99.605260
3529.000000	99.603841
3528.000000	99.604362
3527.000000	99.606579
3526.000000	99.608428
3525.000000	99.607895
3524.000000	99.604619
3523.000000	99.599383
3522.000000	99.592695
3521.000000	99.584659
3520.000000	99.576114
3519.000000	99.569190
3518.000000	99.566459
3517.000000	99.569439
3516.000000	99.577594
3515.000000	99.588321
3514.000000	99.597866
3513.000000	99.602864
3512.000000	99.601867
3511.000000	99.595983
3510.000000	99.588262
3509.000000	99.581991
3508.000000	99.578746
3507.000000	99.577555
3506.000000	99.576317
3505.000000	99.574282
3504.000000	99.573158
3503.000000	99.575401
3502.000000	99.581344
3501.000000	99.588553
3500.000000	99.593825
3499.000000	99.595132
3498.000000	99.592115
3497.000000	99.585869
3496.000000	99.578418
3495.000000	99.571946
3494.000000	99.568354
3493.000000	99.569120
3492.000000	99.574462
3491.000000	99.581911
3490.000000	99.586769
3489.000000	99.585883
3488.000000	99.581204
3487.000000	99.578173
3486.000000	99.579950
3485.000000	99.584379
3484.000000	99.586954
3483.000000	99.585502
3482.000000	99.581557
3481.000000	99.578154
3480.000000	99.577254
3479.000000	99.578891
3478.000000	99.581535
3477.000000	99.582985
3476.000000	99.581531
3475.000000	99.576811
3474.000000	99.569566
3473.000000	99.560869
3472.000000	99.552043
3471.000000	99.545155
3470.000000	99.542695
3469.000000	99.546102
3468.000000	99.554508
3467.000000	99.564930
3466.000000	99.573914
3465.000000	99.579296
3464.000000	99.580749
3463.000000	99.578878
3462.000000	99.574158
3461.000000	99.567085
3460.000000	99.559094
3459.000000	99.552496
3458.000000	99.549027
3457.000000	99.548677
3456.000000	99.550159
3455.000000	99.552179
3454.000000	99.554106
3453.000000	99.555939
3452.000000	99.557940
3451.000000	99.559676
3450.000000	99.559215
3449.000000	99.554253
3448.000000	99.545046
3447.000000	99.535742
3446.000000	99.531277
3445.000000	99.532988
3444.000000	99.538454
3443.000000	99.544916
3442.000000	99.551313
3441.000000	99.557078
3440.000000	99.560588
3439.000000	99.559835
3438.000000	99.554315
3437.000000	99.545806
3436.000000	99.537516
3435.000000	99.532447
3434.000000	99.531709
3433.000000	99.533743
3432.000000	99.535541
3431.000000	99.535265
3430.000000	99.533694
3429.000000	99.532893
3428.000000	99.533654
3427.000000	99.534728
3426.000000	99.534299
3425.000000	99.531666
3424.000000	99.527654
3423.000000	99.524103
3422.000000	99.523086
3421.000000	99.525716
3420.000000	99.531029
3419.000000	99.536277
3418.000000	99.538876
3417.000000	99.538211
3416.000000	99.535869
3415.000000	99.534385
3414.000000	99.535344
3413.000000	99.537798
3412.000000	99.538570
3411.000000	99.535022
3410.000000	99.528001
3409.000000	99.521493
3408.000000	99.518999
3407.000000	99.520870
3406.000000	99.525256
3405.000000	99.530113
3404.000000	99.533371
3403.000000	99.532672
3402.000000	99.527245
3401.000000	99.519758
3400.000000	99.514507
3399.000000	99.513456
3398.000000	99.515307
3397.000000	99.518330
3396.000000	99.522248
3395.000000	99.526706
3394.000000	99.529724
3393.000000	99.529165
3392.000000	99.524948
3391.000000	99.518723
3390.000000	99.512105
3389.000000	99.506461
3388.000000	99.503740
3387.000000	99.505713
3386.000000	99.511981
3385.000000	99.519686
3384.000000	99.525942
3383.000000	99.530327
3382.000000	99.534776
3381.000000	99.540988
3380.000000	99.547868
3379.000000	99.551685
3378.000000	99.549362
3377.000000	99.541693
3376.000000	99.532844
3375.000000	99.526567
3374.000000	99.523528
3373.000000	99.522419
3372.000000	99.522462
3371.000000	99.523933
3370.000000	99.526912
3369.000000	99.530569
3368.000000	99.533466
3367.000000	99.533997
3366.000000	99.531174
3365.000000	99.526008
3364.000000	99.521685
3363.000000	99.521174
3362.000000	99.524472
3361.000000	99.528684
3360.000000	99.530618
3359.000000	99.528798
3358.000000	99.523700
3357.000000	99.517430
3356.000000	99.513179
3355.000000	99.513516
3354.000000	99.518445
3353.000000	99.525594
3352.000000	99.532432
3351.000000	99.537617
3350.000000	99.540330
3349.000000	99.539765
3348.000000	99.536153
3347.000000	99.531690
3346.000000	99.529457
3345.000000	99.531171
3344.000000	99.535995
3343.000000	99.541280
3342.000000	99.544466
3341.000000	99.544848
3340.000000	99.543947
3339.000000	99.543927
3338.000000	99.545362
3337.000000	99.546731
3336.000000	99.546269
3335.000000	99.544017
3334.000000	99.541702
3333.000000	99.540738
3332.000000	99.540884
3331.000000	99.541005
3330.000000	99.540794
3329.000000	99.541210
3328.000000	99.542899
3327.000000	99.544629
3326.000000	99.544332
3325.000000	99.542107
3324.000000	99.541403
3323.000000	99.546181
3322.000000	99.556838
3321.000000	99.569549
3320.000000	99.579509
3319.000000	99.584465
3318.000000	99.585342
3317.000000	99.584366
3316.000000	99.583088
3315.000000	99.581874
3314.000000	99.580575
3313.000000	99.579118
3312.000000	99.577464
3311.000000	99.575360
3310.000000	99.572669
3309.000000	99.569880
3308.000000	99.567657
3307.000000	99.565766
3306.000000	99.563331
3305.000000	99.560582
3304.000000	99.559666
3303.000000	99.562988
3302.000000	99.570892
3301.000000	99.581365
3300.000000	99.591607
3299.000000	99.599390
3298.000000	99.603543
3297.000000	99.604099
3296.000000	99.601935
3295.000000	99.597986
3294.000000	99.593292
3293.000000	99.590023
3292.000000	99.591117
3291.000000	99.597448
3290.000000	99.605930
3289.000000	99.611871
3288.000000	99.613085
3287.000000	99.610512
3286.000000	99.605363
3285.000000	99.597713
3284.000000	99.588300
3283.000000	99.579872
3282.000000	99.575441
3281.000000	99.575726
3280.000000	99.579046
3279.000000	99.582994
3278.000000	99.585677
3277.000000	99.586255
3276.000000	99.585378
3275.000000	99.584853
3274.000000	99.585992
3273.000000	99.588266
3272.000000	99.589954
3271.000000	99.590093
3270.000000	99.589459
3269.000000	99.589572
3268.000000	99.590811
3267.000000	99.591537
3266.000000	99.589348
3265.000000	99.583562
3264.000000	99.576320
3263.000000	99.570787
3262.000000	99.568331
3261.000000	99.567599
3260.000000	99.565962
3259.000000	99.561480
3258.000000	99.553922
3257.000000	99.544854
3256.000000	99.536781
3255.000000	99.531569
3254.000000	99.529604
3253.000000	99.530834
3252.000000	99.535865
3251.000000	99.544789
3250.000000	99.555165
3249.000000	99.562697
3248.000000	99.564616
3247.000000	99.561667
3246.000000	99.556720
3245.000000	99.552331
3244.000000	99.549824
3243.000000	99.549219
3242.000000	99.548863
3241.000000	99.546019
3240.000000	99.539238
3239.000000	99.530268
3238.000000	99.522878
3237.000000	99.519644
3236.000000	99.519974
3235.000000	99.521113
3234.000000	99.520885
3233.000000	99.519787
3232.000000	99.520693
3231.000000	99.525887
3230.000000	99.534072
3229.000000	99.540770
3228.000000	99.542132
3227.000000	99.538286
3226.000000	99.532670
3225.000000	99.528689
3224.000000	99.527389
3223.000000	99.527653
3222.000000	99.527715
3221.000000	99.526485
3220.000000	99.524265
3219.000000	99.522636
3218.000000	99.523367
3217.000000	99.527198
3216.000000	99.533504
3215.000000	99.540800
3214.000000	99.547234
3213.000000	99.550748
3212.000000	99.549480
3211.000000	99.542980
3210.000000	99.533508
3209.000000	99.525509
3208.000000	99.522630
3207.000000	99.524611
3206.000000	99.527807
3205.000000	99.529200
3204.000000	99.529208
3203.000000	99.530013
3202.000000	99.531902
3201.000000	99.532688
3200.000000	99.530483
3199.000000	99.525856
3198.000000	99.520943
3197.000000	99.517541
3196.000000	99.516346
3195.000000	99.517028
3194.000000	99.518357
3193.000000	99.518823
3192.000000	99.517750
3191.000000	99.515540
3190.000000	99.512708
3189.000000	99.509357
3188.000000	99.505810
3187.000000	99.502912
3186.000000	99.501091
3185.000000	99.499591
3184.000000	99.497306
3183.000000	99.494153
3182.000000	99.491259
3181.000000	99.490062
3180.000000	99.491433
3179.000000	99.495158
3178.000000	99.499697
3177.000000	99.502731
3176.000000	99.502617
3175.000000	99.499770
3174.000000	99.496807
3173.000000	99.497064
3172.000000	99.502042
3171.000000	99.509471
3170.000000	99.514483
3169.000000	99.513780
3168.000000	99.508964
3167.000000	99.504869
3166.000000	99.504568
3165.000000	99.506700
3164.000000	99.507808
3163.000000	99.506172
3162.000000	99.502944
3161.000000	99.500376
3160.000000	99.499701
3159.000000	99.500364
3158.000000	99.500929
3157.000000	99.500967
3156.000000	99.501940
3155.000000	99.505429
3154.000000	99.510408
3153.000000	99.513206
3152.000000	99.510802
3151.000000	99.503533
3150.000000	99.494391
3149.000000	99.486456
3148.000000	99.481519
3147.000000	99.480089
3146.000000	99.481474
3145.000000	99.484012
3144.000000	99.486068
3143.000000	99.487208
3142.000000	99.488323
3141.000000	99.490846
3140.000000	99.495582
3139.000000	99.501669
3138.000000	99.506407
3137.000000	99.506974
3136.000000	99.502899
3135.000000	99.496731
3134.000000	99.491947
3133.000000	99.490442
3132.000000	99.491806
3131.000000	99.494213
3130.000000	99.495646
3129.000000	99.495229
3128.000000	99.494080
3127.000000	99.494384
3126.000000	99.496902
3125.000000	99.499813
3124.000000	99.500490
3123.000000	99.497988
3122.000000	99.493500
3121.000000	99.489178
3120.000000	99.487022
3119.000000	99.487994
3118.000000	99.490921
3117.000000	99.492665
3116.000000	99.490625
3115.000000	99.485379
3114.000000	99.480102
3113.000000	99.477339
3112.000000	99.477011
3111.000000	99.477533
3110.000000	99.478061
3109.000000	99.479158
3108.000000	99.481619
3107.000000	99.485039
3106.000000	99.487716
3105.000000	99.488040
3104.000000	99.485964
3103.000000	99.482866
3102.000000	99.479878
3101.000000	99.476750
3100.000000	99.472715
3099.000000	99.468251
3098.000000	99.465487
3097.000000	99.466654
3096.000000	99.472186
3095.000000	99.480298
3094.000000	99.488312
3093.000000	99.494254
3092.000000	99.497183
3091.000000	99.496554
3090.000000	99.492311
3089.000000	99.485895
3088.000000	99.480182
3087.000000	99.477315
3086.000000	99.476879
3085.000000	99.476976
3084.000000	99.476760
3083.000000	99.476824
3082.000000	99.477429
3081.000000	99.477771
3080.000000	99.477268
3079.000000	99.476339
3078.000000	99.475466
3077.000000	99.474610
3076.000000	99.474092
3075.000000	99.474958
3074.000000	99.477728
3073.000000	99.481732
3072.000000	99.486387
3071.000000	99.492059
3070.000000	99.498530
3069.000000	99.503380
3068.000000	99.503381
3067.000000	99.497771
3066.000000	99.489502
3065.000000	99.483220
3064.000000	99.482121
3063.000000	99.486122
3062.000000	99.492202
3061.000000	99.496762
3060.000000	99.498404
3059.000000	99.498424
3058.000000	99.498414
3057.000000	99.497921
3056.000000	99.495320
3055.000000	99.490664
3054.000000	99.486621
3053.000000	99.486282
3052.000000	99.490425
3051.000000	99.496767
3050.000000	99.501444
3049.000000	99.501711
3048.000000	99.498052
3047.000000	99.493892
3046.000000	99.492698
3045.000000	99.495132
3044.000000	99.498966
3043.000000	99.501306
3042.000000	99.500400
3041.000000	99.495936
3040.000000	99.488823
3039.000000	99.481175
3038.000000	99.475552
3037.000000	99.473323
3036.000000	99.473760
3035.000000	99.475027
3034.000000	99.475872
3033.000000	99.476073
3032.000000	99.475617
3031.000000	99.474275
3030.000000	99.472309
3029.000000	99.470940
3028.000000	99.471317
3027.000000	99.472886
3026.000000	99.473473
3025.000000	99.471463
3024.000000	99.467628
3023.000000	99.464226
3022.000000	99.462467
3021.000000	99.461541
3020.000000	99.460160
3019.000000	99.458439
3018.000000	99.457888
3017.000000	99.459774
3016.000000	99.463651
3015.000000	99.467378
3014.000000	99.468757
3013.000000	99.467633
3012.000000	99.466302
3011.000000	99.467237
3010.000000	99.470302
3009.000000	99.472873
3008.000000	99.472932
3007.000000	99.471328
3006.000000	99.470451
3005.000000	99.471236
3004.000000	99.472183
3003.000000	99.471246
3002.000000	99.467963
3001.000000	99.463479
3000.000000	99.458894
2999.000000	99.454125
2998.000000	99.448549
2997.000000	99.442557
2996.000000	99.438069
2995.000000	99.437195
2994.000000	99.440417
2993.000000	99.446253
2992.000000	99.452513
2991.000000	99.457433
2990.000000	99.459697
2989.000000	99.458312
2988.000000	99.453351
2987.000000	99.446790
2986.000000	99.441789
2985.000000	99.440348
2984.000000	99.441511
2983.000000	99.442204
2982.000000	99.440221
2981.000000	99.436282
2980.000000	99.432983
2979.000000	99.432070
2978.000000	99.433323
2977.000000	99.435798
2976.000000	99.438812
2975.000000	99.441320
2974.000000	99.441644
2973.000000	99.439197
2972.000000	99.435878
2971.000000	99.434442
2970.000000	99.435663
2969.000000	99.438243
2968.000000	99.441281
2967.000000	99.445228
2966.000000	99.449872
2965.000000	99.452767
2964.000000	99.450977
2963.000000	99.444111
2962.000000	99.435044
2961.000000	99.427652
2960.000000	99.424038
2959.000000	99.423397
2958.000000	99.423272
2957.000000	99.421958
2956.000000	99.419992
2955.000000	99.419294
2954.000000	99.421100
2953.000000	99.424900
2952.000000	99.428864
2951.000000	99.431015
2950.000000	99.430622
2949.000000	99.429324
2948.000000	99.430114
2947.000000	99.433939
2946.000000	99.437552
2945.000000	99.436389
2944.000000	99.429893
2943.000000	99.422612
2942.000000	99.419510
2941.000000	99.421281
2940.000000	99.424947
2939.000000	99.427491
2938.000000	99.427719
2937.000000	99.425539
2936.000000	99.421385
2935.000000	99.416630
2934.000000	99.413430
2933.000000	99.413212
2932.000000	99.415168
2931.000000	99.416373
2930.000000	99.413940
2929.000000	99.407753
2928.000000	99.401145
2927.000000	99.397899
2926.000000	99.398290
2925.000000	99.398724
2924.000000	99.395778
2923.000000	99.389812
2922.000000	99.384284
2921.000000	99.382355
2920.000000	99.384826
2919.000000	99.390196
2918.000000	99.395615
2917.000000	99.398292
2916.000000	99.397392
2915.000000	99.394684
2914.000000	99.392712
2913.000000	99.392387
2912.000000	99.392881
2911.000000	99.393499
2910.000000	99.394698
2909.000000	99.397217
2908.000000	99.400968
2907.000000	99.404977
2906.000000	99.407897
2905.000000	99.408389
2904.000000	99.405625
2903.000000	99.399979
2902.000000	99.393195
2901.000000	99.387637
2900.000000	99.385012
2899.000000	99.385478
2898.000000	99.387579
2897.000000	99.389201
2896.000000	99.389037
2895.000000	99.387424
2894.000000	99.385780
2893.000000	99.385131
2892.000000	99.385310
2891.000000	99.385659
2890.000000	99.386386
2889.000000	99.388634
2888.000000	99.392741
2887.000000	99.396666
2886.000000	99.397085
2885.000000	99.392560
2884.000000	99.385299
2883.000000	99.379141
2882.000000	99.376006
2881.000000	99.374705
2880.000000	99.372895
2879.000000	99.369479
2878.000000	99.365076
2877.000000	99.360962
2876.000000	99.357892
2875.000000	99.355688
2874.000000	99.353747
2873.000000	99.352055
2872.000000	99.351569
2871.000000	99.353170
2870.000000	99.356247
2869.000000	99.358883
2868.000000	99.359737
2867.000000	99.359213
2866.000000	99.358344
2865.000000	99.356997
2864.000000	99.354161
2863.000000	99.350108
2862.000000	99.347439
2861.000000	99.349021
2860.000000	99.354849
2859.000000	99.361628
2858.000000	99.365855
2857.000000	99.366850
2856.000000	99.366111
2855.000000	99.364422
2854.000000	99.360883
2853.000000	99.354791
2852.000000	99.347097
2851.000000	99.339526
2850.000000	99.333539
2849.000000	99.330760
2848.000000	99.332695
2847.000000	99.338439
2846.000000	99.343745
2845.000000	99.344459
2844.000000	99.340926
2843.000000	99.337570
2842.000000	99.338179
2841.000000	99.342651
2840.000000	99.348309
2839.000000	99.352665
2838.000000	99.354528
2837.000000	99.354039
2836.000000	99.352784
2835.000000	99.352994
2834.000000	99.355437
2833.000000	99.358379
2832.000000	99.359257
2831.000000	99.357289
2830.000000	99.354052
2829.000000	99.351777
2828.000000	99.351421
2827.000000	99.352190
2826.000000	99.352651
2825.000000	99.352167
2824.000000	99.351133
2823.000000	99.349911
2822.000000	99.348153
2821.000000	99.345631
2820.000000	99.343175
2819.000000	99.341909
2818.000000	99.341785
2817.000000	99.341683
2816.000000	99.340935
2815.000000	99.340008
2814.000000	99.339825
2813.000000	99.341243
2812.000000	99.345099
2811.000000	99.351615
2810.000000	99.359335
2809.000000	99.365445
2808.000000	99.367904
2807.000000	99.367121
2806.000000	99.365408
2805.000000	99.364973
2804.000000	99.366185
2803.000000	99.367227
2802.000000	99.365621
2801.000000	99.360867
2800.000000	99.355655
2799.000000	99.353847
2798.000000	99.356939
2797.000000	99.362770
2796.000000	99.367338
2795.000000	99.367552
2794.000000	99.362919
2793.000000	99.355922
2792.000000	99.350630
2791.000000	99.349599
2790.000000	99.351550
2789.000000	99.352941
2788.000000	99.352035
2787.000000	99.350526
2786.000000	99.350933
2785.000000	99.353439
2784.000000	99.355951
2783.000000	99.356608
2782.000000	99.355483
2781.000000	99.354163
2780.000000	99.354234
2779.000000	99.356159
2778.000000	99.359373
2777.000000	99.363255
2776.000000	99.367445
2775.000000	99.370925
2774.000000	99.371707
2773.000000	99.368678
2772.000000	99.363561
2771.000000	99.359713
2770.000000	99.358738
2769.000000	99.359233
2768.000000	99.359048
2767.000000	99.357670
2766.000000	99.356065
2765.000000	99.355131
2764.000000	99.354932
2763.000000	99.354888
2762.000000	99.354345
2761.000000	99.353358
2760.000000	99.353008
2759.000000	99.354336
2758.000000	99.356980
2757.000000	99.359493
2756.000000	99.360876
2755.000000	99.360961
2754.000000	99.359460
2753.000000	99.355940
2752.000000	99.351005
2751.000000	99.346415
2750.000000	99.343621
2749.000000	99.342960
2748.000000	99.344341
2747.000000	99.347470
2746.000000	99.350994
2745.000000	99.352774
2744.000000	99.351981
2743.000000	99.350175
2742.000000	99.349516
2741.000000	99.350401
2740.000000	99.351327
2739.000000	99.350529
2738.000000	99.347309
2737.000000	99.342532
2736.000000	99.338389
2735.000000	99.337158
2734.000000	99.339532
2733.000000	99.344313
2732.000000	99.349811
2731.000000	99.354876
2730.000000	99.358399
2729.000000	99.358861
2728.000000	99.355324
2727.000000	99.348696
2726.000000	99.341529
2725.000000	99.336624
2724.000000	99.335615
2723.000000	99.338211
2722.000000	99.342516
2721.000000	99.346541
2720.000000	99.349573
2719.000000	99.351703
2718.000000	99.352437
2717.000000	99.350954
2716.000000	99.347902
2715.000000	99.345530
2714.000000	99.345231
2713.000000	99.345712
2712.000000	99.344410
2711.000000	99.340437
2710.000000	99.335657
2709.000000	99.333048
2708.000000	99.334053
2707.000000	99.337210
2706.000000	99.339484
2705.000000	99.339426
2704.000000	99.338750
2703.000000	99.340055
2702.000000	99.343417
2701.000000	99.346482
2700.000000	99.347684
2699.000000	99.347654
2698.000000	99.347118
2697.000000	99.345201
2696.000000	99.340945
2695.000000	99.335444
2694.000000	99.331268
2693.000000	99.330262
2692.000000	99.332514
2691.000000	99.336717
2690.000000	99.340733
2689.000000	99.342548
2688.000000	99.341773
2687.000000	99.340139
2686.000000	99.339859
2685.000000	99.341446
2684.000000	99.343286
2683.000000	99.343129
2682.000000	99.339982
2681.000000	99.335080
2680.000000	99.331197
2679.000000	99.330438
2678.000000	99.332486
2677.000000	99.335320
2676.000000	99.337456
2675.000000	99.338760
2674.000000	99.339284
2673.000000	99.338473
2672.000000	99.335917
2671.000000	99.332031
2670.000000	99.327680
2669.000000	99.323743
2668.000000	99.321105
2667.000000	99.320182
2666.000000	99.320244
2665.000000	99.319965
2664.000000	99.318649
2663.000000	99.316092
2662.000000	99.311688
2661.000000	99.305312
2660.000000	99.299122
2659.000000	99.296547
2658.000000	99.298530
2657.000000	99.302146
2656.000000	99.303902
2655.000000	99.303394
2654.000000	99.302911
2653.000000	99.304647
2652.000000	99.309098
2651.000000	99.314906
2650.000000	99.319283
2649.000000	99.319840
2648.000000	99.317298
2647.000000	99.315357
2646.000000	99.316758
2645.000000	99.320468
2644.000000	99.323842
2643.000000	99.326010
2642.000000	99.327406
2641.000000	99.327449
2640.000000	99.325425
2639.000000	99.323470
2638.000000	99.325915
2637.000000	99.334450
2636.000000	99.345130
2635.000000	99.351290
2634.000000	99.349251
2633.000000	99.341181
2632.000000	99.333066
2631.000000	99.330002
2630.000000	99.332784
2629.000000	99.338301
2628.000000	99.342804
2627.000000	99.344701
2626.000000	99.345047
2625.000000	99.346531
2624.000000	99.351792
2623.000000	99.361032
2622.000000	99.370515
2621.000000	99.374692
2620.000000	99.370950
2619.000000	99.361865
2618.000000	99.352430
2617.000000	99.345955
2616.000000	99.342900
2615.000000	99.342140
2614.000000	99.342428
2613.000000	99.343535
2612.000000	99.346605
2611.000000	99.352515
2610.000000	99.359741
2609.000000	99.365287
2608.000000	99.368091
2607.000000	99.369730
2606.000000	99.371064
2605.000000	99.370372
2604.000000	99.366075
2603.000000	99.359429
2602.000000	99.353087
2601.000000	99.348667
2600.000000	99.347098
2599.000000	99.349230
2598.000000	99.354171
2597.000000	99.358731
2596.000000	99.360860
2595.000000	99.362310
2594.000000	99.365622
2593.000000	99.369612
2592.000000	99.370435
2591.000000	99.366734
2590.000000	99.361530
2589.000000	99.359157
2588.000000	99.361743
2587.000000	99.368177
2586.000000	99.374889
2585.000000	99.378026
2584.000000	99.376460
2583.000000	99.372657
2582.000000	99.369916
2581.000000	99.369644
2580.000000	99.371750
2579.000000	99.375758
2578.000000	99.379888
2577.000000	99.381004
2576.000000	99.378027
2575.000000	99.374356
2574.000000	99.374341
2573.000000	99.377936
2572.000000	99.381053
2571.000000	99.380694
2570.000000	99.377530
2569.000000	99.373954
2568.000000	99.372002
2567.000000	99.372865
2566.000000	99.375779
2565.000000	99.376889
2564.000000	99.371481
2563.000000	99.358628
2562.000000	99.342704
2561.000000	99.330337
2560.000000	99.326659
2559.000000	99.333527
2558.000000	99.348534
2557.000000	99.365248
2556.000000	99.376994
2555.000000	99.382318
2554.000000	99.385765
2553.000000	99.391950
2552.000000	99.400003
2551.000000	99.405120
2550.000000	99.404875
2549.000000	99.401972
2548.000000	99.400584
2547.000000	99.401711
2546.000000	99.403300
2545.000000	99.403774
2544.000000	99.403261
2543.000000	99.401516
2542.000000	99.396967
2541.000000	99.389125
2540.000000	99.380497
2539.000000	99.374264
2538.000000	99.370895
2537.000000	99.368289
2536.000000	99.364428
2535.000000	99.358392
2534.000000	99.350137
2533.000000	99.341554
2532.000000	99.336710
2531.000000	99.337828
2530.000000	99.341015
2529.000000	99.338859
2528.000000	99.327953
2527.000000	99.311356
2526.000000	99.293457
2525.000000	99.275780
2524.000000	99.259456
2523.000000	99.248384
2522.000000	99.246720
2521.000000	99.253826
2520.000000	99.263589
2519.000000	99.268753
2518.000000	99.265602
2517.000000	99.256176
2516.000000	99.247022
2515.000000	99.244455
2514.000000	99.249375
2513.000000	99.256838
2512.000000	99.261076
2511.000000	99.260360
2510.000000	99.256907
2509.000000	99.253579
2508.000000	99.251442
2507.000000	99.249701
2506.000000	99.247506
2505.000000	99.246014
2504.000000	99.247973
2503.000000	99.254046
2502.000000	99.260603
2501.000000	99.263416
2500.000000	99.262827
2499.000000	99.262810
2498.000000	99.265143
2497.000000	99.267742
2496.000000	99.269338
2495.000000	99.272364
2494.000000	99.279753
2493.000000	99.291026
2492.000000	99.303006
2491.000000	99.312963
2490.000000	99.320263
2489.000000	99.326574
2488.000000	99.334461
2487.000000	99.343782
2486.000000	99.349811
2485.000000	99.347980
2484.000000	99.340634
2483.000000	99.335272
2482.000000	99.335268
2481.000000	99.336340
2480.000000	99.333723
2479.000000	99.329110
2478.000000	99.327890
2477.000000	99.332354
2476.000000	99.340233
2475.000000	99.347601
2474.000000	99.351160
2473.000000	99.350151
2472.000000	99.348191
2471.000000	99.351030
2470.000000	99.360174
2469.000000	99.370684
2468.000000	99.377182
2467.000000	99.379657
2466.000000	99.381211
2465.000000	99.382609
2464.000000	99.381717
2463.000000	99.376513
2462.000000	99.366501
2461.000000	99.353191
2460.000000	99.341481
2459.000000	99.338140
2458.000000	99.345585
2457.000000	99.358153
2456.000000	99.366919
2455.000000	99.367497
2454.000000	99.361843
2453.000000	99.354917
2452.000000	99.351766
2451.000000	99.355599
2450.000000	99.365142
2449.000000	99.374797
2448.000000	99.379914
2447.000000	99.381071
2446.000000	99.381446
2445.000000	99.382031
2444.000000	99.382084
2443.000000	99.382228
2442.000000	99.383505
2441.000000	99.384311
2440.000000	99.381884
2439.000000	99.376805
2438.000000	99.373094
2437.000000	99.373486
2436.000000	99.376687
2435.000000	99.379710
2434.000000	99.381197
2433.000000	99.381903
2432.000000	99.382773
2431.000000	99.383014
2430.000000	99.380528
2429.000000	99.375023
2428.000000	99.369945
2427.000000	99.369143
2426.000000	99.371808
2425.000000	99.373655
2424.000000	99.373363
2423.000000	99.374198
2422.000000	99.378145
2421.000000	99.382698
2420.000000	99.385775
2419.000000	99.389463
2418.000000	99.395206
2417.000000	99.398726
2416.000000	99.394666
2415.000000	99.384295
2414.000000	99.374122
2413.000000	99.367911
2412.000000	99.364106
2411.000000	99.360484
2410.000000	99.357372
2409.000000	99.356416
2408.000000	99.359569
2407.000000	99.369137
2406.000000	99.385128
2405.000000	99.402048
2404.000000	99.411524
2403.000000	99.409711
2402.000000	99.400797
2401.000000	99.393162
2400.000000	99.393554
2399.000000	99.403714
2398.000000	99.419610
2397.000000	99.433280
2396.000000	99.437997
2395.000000	99.433268
2394.000000	99.424599
2393.000000	99.418405
2392.000000	99.417744
2391.000000	99.421644
2390.000000	99.426366
2389.000000	99.427368
2388.000000	99.421806
2387.000000	99.410011
2386.000000	99.394447
2385.000000	99.378269
2384.000000	99.365544
2383.000000	99.360756
2382.000000	99.365327
2381.000000	99.374518
2380.000000	99.380246
2379.000000	99.378177
2378.000000	99.371126
2377.000000	99.365401
2376.000000	99.364629
2375.000000	99.367098
2374.000000	99.367713
2373.000000	99.362744
2372.000000	99.353786
2371.000000	99.346837
2370.000000	99.346114
2369.000000	99.349777
2368.000000	99.353893
2367.000000	99.358458
2366.000000	99.365634
2365.000000	99.373026
2364.000000	99.373821
2363.000000	99.364734
2362.000000	99.347706
2361.000000	99.324817
2360.000000	99.298610
2359.000000	99.275132
2358.000000	99.264572
2357.000000	99.272694
2356.000000	99.294418
2355.000000	99.320217
2354.000000	99.341415
2353.000000	99.352529
2352.000000	99.349081
2351.000000	99.332612
2350.000000	99.312025
2349.000000	99.296851
2348.000000	99.291859
2347.000000	99.292786
2346.000000	99.289604
2345.000000	99.276015
2344.000000	99.258662
2343.000000	99.251376
2342.000000	99.257676
2341.000000	99.268693
2340.000000	99.273503
2339.000000	99.271069
2338.000000	99.268034
2337.000000	99.269605
2336.000000	99.275510
2335.000000	99.283625
2334.000000	99.292563
2333.000000	99.300932
2332.000000	99.306567
2331.000000	99.307059
2330.000000	99.301323
2329.000000	99.287045
2328.000000	99.264820
2327.000000	99.236559
2326.000000	99.208194
2325.000000	99.186684
2324.000000	99.178843
2323.000000	99.186929
2322.000000	99.204756
2321.000000	99.222265
2320.000000	99.234119
2319.000000	99.243005
2318.000000	99.252820
2317.000000	99.261579
2316.000000	99.265313
2315.000000	99.263249
2314.000000	99.260041
2313.000000	99.260061
2312.000000	99.265682
2311.000000	99.275542
2310.000000	99.286296
2309.000000	99.293144
2308.000000	99.294943
2307.000000	99.294499
2306.000000	99.294952
2305.000000	99.294848
2304.000000	99.290731
2303.000000	99.282232
2302.000000	99.272764
2301.000000	99.265362
2300.000000	99.261610
2299.000000	99.262782
2298.000000	99.270107
2297.000000	99.281518
2296.000000	99.292978
2295.000000	99.301379
2294.000000	99.306254
2293.000000	99.306508
2292.000000	99.300824
2291.000000	99.291033
2290.000000	99.283305
2289.000000	99.282404
2288.000000	99.286612
2287.000000	99.290156
2286.000000	99.289857
2285.000000	99.287529
2284.000000	99.286172
2283.000000	99.286751
2282.000000	99.289031
2281.000000	99.294259
2280.000000	99.304431
2279.000000	99.319505
2278.000000	99.336314
2277.000000	99.350907
2276.000000	99.360585
2275.000000	99.363484
2274.000000	99.358813
2273.000000	99.349706
2272.000000	99.344142
2271.000000	99.348508
2270.000000	99.360249
2269.000000	99.370533
2268.000000	99.375453
2267.000000	99.380928
2266.000000	99.394292
2265.000000	99.414055
2264.000000	99.431162
2263.000000	99.438605
2262.000000	99.437314
2261.000000	99.433600
2260.000000	99.432689
2259.000000	99.433814
2258.000000	99.430264
2257.000000	99.416474
2256.000000	99.396181
2255.000000	99.381897
2254.000000	99.383492
2253.000000	99.397789
2252.000000	99.410793
2251.000000	99.410039
2250.000000	99.395256
2249.000000	99.378189
2248.000000	99.372026
2247.000000	99.378891
2246.000000	99.388761
2245.000000	99.391799
2244.000000	99.389367
2243.000000	99.388938
2242.000000	99.391232
2241.000000	99.389267
2240.000000	99.379555
2239.000000	99.366771
2238.000000	99.356161
2237.000000	99.349243
2236.000000	99.349034
2235.000000	99.361453
2234.000000	99.386620
2233.000000	99.415262
2232.000000	99.438691
2231.000000	99.456408
2230.000000	99.468278
2229.000000	99.466443
2228.000000	99.444514
2227.000000	99.411388
2226.000000	99.387127
2225.000000	99.384522
2224.000000	99.399220
2223.000000	99.417070
2222.000000	99.426389
2221.000000	99.423692
2220.000000	99.412390
2219.000000	99.397637
2218.000000	99.382060
2217.000000	99.367780
2216.000000	99.361209
2215.000000	99.369740
2214.000000	99.390759
2213.000000	99.409505
2212.000000	99.413427
2211.000000	99.405796
2210.000000	99.400155
2209.000000	99.404068
2208.000000	99.413030
2207.000000	99.417896
2206.000000	99.413502
2205.000000	99.401039
2204.000000	99.387342
2203.000000	99.382042
2202.000000	99.391675
2201.000000	99.414188
2200.000000	99.439531
2199.000000	99.456067
2198.000000	99.456872
2197.000000	99.441913
2196.000000	99.416478
2195.000000	99.388507
2194.000000	99.368300
2193.000000	99.368401
2192.000000	99.396620
2191.000000	99.445333
2190.000000	99.492631
2189.000000	99.518333
2188.000000	99.516109
2187.000000	99.487952
2186.000000	99.437288
2185.000000	99.378634
2184.000000	99.343613
2183.000000	99.357581
2182.000000	99.410506
2181.000000	99.467300
2180.000000	99.507910
2179.000000	99.540658
2178.000000	99.573243
2177.000000	99.591587
2176.000000	99.578011
2175.000000	99.536466
2174.000000	99.489029
2173.000000	99.456135
2172.000000	99.448417
2171.000000	99.468762
2170.000000	99.511090
2169.000000	99.557755
2168.000000	99.584621
2167.000000	99.572164
2166.000000	99.516691
2165.000000	99.438374
2164.000000	99.374124
2163.000000	99.349574
2162.000000	99.360850
2161.000000	99.393341
2160.000000	99.449554
2159.000000	99.539023
2158.000000	99.642805
2157.000000	99.721492
2156.000000	99.760660
2155.000000	99.775050
2154.000000	99.774171
2153.000000	99.755213
2152.000000	99.724887
2151.000000	99.700806
2150.000000	99.688732
2149.000000	99.677471
2148.000000	99.661097
2147.000000	99.648683
2146.000000	99.647417
2145.000000	99.651556
2144.000000	99.653276
2143.000000	99.650165
2142.000000	99.639003
2141.000000	99.618511
2140.000000	99.602214
2139.000000	99.611341
2138.000000	99.646784
2137.000000	99.682101
2136.000000	99.692198
2135.000000	99.678546
2134.000000	99.657734
2133.000000	99.638814
2132.000000	99.622854
2131.000000	99.614120
2130.000000	99.618390
2129.000000	99.632669
2128.000000	99.644223
2127.000000	99.640001
2126.000000	99.615590
2125.000000	99.578393
2124.000000	99.543063
2123.000000	99.519519
2122.000000	99.504718
2121.000000	99.490621
2120.000000	99.478639
2119.000000	99.477282
2118.000000	99.484516
2117.000000	99.483027
2116.000000	99.458809
2115.000000	99.417577
2114.000000	99.376695
2113.000000	99.347639
2112.000000	99.332382
2111.000000	99.331225
2110.000000	99.345110
2109.000000	99.371092
2108.000000	99.401759
2107.000000	99.429230
2106.000000	99.446730
2105.000000	99.449245
2104.000000	99.437607
2103.000000	99.420527
2102.000000	99.409235
2101.000000	99.410491
2100.000000	99.424112
2099.000000	99.443299
2098.000000	99.457136
2097.000000	99.458731
2096.000000	99.453360
2095.000000	99.452948
2094.000000	99.460488
2093.000000	99.465899
2092.000000	99.459078
2091.000000	99.440328
2090.000000	99.416620
2089.000000	99.395633
2088.000000	99.385802
2087.000000	99.393121
2086.000000	99.412087
2085.000000	99.426166
2084.000000	99.424212
2083.000000	99.412765
2082.000000	99.406217
2081.000000	99.409578
2080.000000	99.416922
2079.000000	99.423018
2078.000000	99.429379
2077.000000	99.439143
2076.000000	99.450772
2075.000000	99.457380
2074.000000	99.451762
2073.000000	99.435386
2072.000000	99.422190
2071.000000	99.426643
2070.000000	99.445930
2069.000000	99.460435
2068.000000	99.455924
2067.000000	99.439270
2066.000000	99.427975
2065.000000	99.430277
2064.000000	99.440178
2063.000000	99.447910
2062.000000	99.449795
2061.000000	99.450118
2060.000000	99.456871
2059.000000	99.473602
2058.000000	99.495191
2057.000000	99.514511
2056.000000	99.530863
2055.000000	99.545177
2054.000000	99.549357
2053.000000	99.531615
2052.000000	99.493238
2051.000000	99.450181
2050.000000	99.419056
2049.000000	99.411176
2048.000000	99.436361
2047.000000	99.495171
2046.000000	99.564415
2045.000000	99.607901
2044.000000	99.610681
2043.000000	99.589660
2042.000000	99.568043
2041.000000	99.558328
2040.000000	99.572038
2039.000000	99.619290
2038.000000	99.685874
2037.000000	99.731160
2036.000000	99.726613
2035.000000	99.685160
2034.000000	99.640548
2033.000000	99.616911
2032.000000	99.626181
2031.000000	99.668106
2030.000000	99.717136
2029.000000	99.733188
2028.000000	99.705716
2027.000000	99.668450
2026.000000	99.654360
2025.000000	99.658268
2024.000000	99.658863
2023.000000	99.654457
2022.000000	99.657063
2021.000000	99.670360
2020.000000	99.692958
2019.000000	99.726438
2018.000000	99.761098
2017.000000	99.769534
2016.000000	99.737665
2015.000000	99.688100
2014.000000	99.651913
2013.000000	99.633292
2012.000000	99.616374
2011.000000	99.594473
2010.000000	99.577779
2009.000000	99.580997
2008.000000	99.614277
2007.000000	99.675646
2006.000000	99.740768
2005.000000	99.770554
2004.000000	99.743880
2003.000000	99.676799
2002.000000	99.604826
2001.000000	99.556412
2000.000000	99.540670
1999.000000	99.545819
1998.000000	99.546389
1997.000000	99.524259
1996.000000	99.489144
1995.000000	99.468411
1994.000000	99.474514
1993.000000	99.493500
1992.000000	99.507755
1991.000000	99.517069
1990.000000	99.527775
1989.000000	99.536838
1988.000000	99.539303
1987.000000	99.538746
1986.000000	99.539741
1985.000000	99.539058
1984.000000	99.531494
1983.000000	99.515683
1982.000000	99.489770
1981.000000	99.453072
1980.000000	99.418237
1979.000000	99.409372
1978.000000	99.439306
1977.000000	99.497524
1976.000000	99.565280
1975.000000	99.627844
1974.000000	99.668630
1973.000000	99.677568
1972.000000	99.672980
1971.000000	99.688535
1970.000000	99.729947
1969.000000	99.766331
1968.000000	99.771689
1967.000000	99.754584
1966.000000	99.734424
1965.000000	99.710829
1964.000000	99.674294
1963.000000	99.629955
1962.000000	99.596427
1961.000000	99.588801
1960.000000	99.606266
1959.000000	99.630689
1958.000000	99.639889
1957.000000	99.631588
1956.000000	99.629999
1955.000000	99.655859
1954.000000	99.695954
1953.000000	99.719023
1952.000000	99.716646
1951.000000	99.707311
1950.000000	99.704271
1949.000000	99.705032
1948.000000	99.711180
1947.000000	99.729576
1946.000000	99.747839
1945.000000	99.736399
1944.000000	99.688112
1943.000000	99.635720
1942.000000	99.612885
1941.000000	99.613434
1940.000000	99.610828
1939.000000	99.597747
1938.000000	99.586417
1937.000000	99.588407
1936.000000	99.606505
1935.000000	99.635913
1934.000000	99.663402
1933.000000	99.673752
1932.000000	99.666255
1931.000000	99.655257
1930.000000	99.648848
1929.000000	99.639636
1928.000000	99.622713
1927.000000	99.608225
1926.000000	99.606634
1925.000000	99.613667
1924.000000	99.618689
1923.000000	99.618705
1922.000000	99.614745
1921.000000	99.603935
1920.000000	99.586614
1919.000000	99.573861
1918.000000	99.577747
1917.000000	99.595939
1916.000000	99.616231
1915.000000	99.631525
1914.000000	99.638030
1913.000000	99.630232
1912.000000	99.609941
1911.000000	99.592483
1910.000000	99.592619
1909.000000	99.606356
1908.000000	99.615793
1907.000000	99.610470
1906.000000	99.595049
1905.000000	99.580616
1904.000000	99.575436
1903.000000	99.580331
1902.000000	99.588574
1901.000000	99.593078
1900.000000	99.595625
1899.000000	99.603189
1898.000000	99.613766
1897.000000	99.615144
1896.000000	99.602237
1895.000000	99.587143
1894.000000	99.584210
1893.000000	99.593551
1892.000000	99.607173
1891.000000	99.621214
1890.000000	99.633116
1889.000000	99.635992
1888.000000	99.627580
1887.000000	99.616867
1886.000000	99.611970
1885.000000	99.609239
1884.000000	99.600555
1883.000000	99.586337
1882.000000	99.573935
1881.000000	99.567023
1880.000000	99.564478
1879.000000	99.566433
1878.000000	99.573625
1877.000000	99.582670
1876.000000	99.588452
1875.000000	99.589891
1874.000000	99.588789
1873.000000	99.586007
1872.000000	99.583367
1871.000000	99.585988
1870.000000	99.597115
1869.000000	99.611580
1868.000000	99.620904
1867.000000	99.624399
1866.000000	99.625116
1865.000000	99.621112
1864.000000	99.609734
1863.000000	99.595239
1862.000000	99.585631
1861.000000	99.583609
1860.000000	99.585936
1859.000000	99.590614
1858.000000	99.598730
1857.000000	99.609273
1856.000000	99.618067
1855.000000	99.622885
1854.000000	99.625697
1853.000000	99.629136
1852.000000	99.632997
1851.000000	99.634559
1850.000000	99.630791
1849.000000	99.621753
1848.000000	99.612507
1847.000000	99.608752
1846.000000	99.609782
1845.000000	99.608548
1844.000000	99.601181
1843.000000	99.593659
1842.000000	99.592845
1841.000000	99.599292
1840.000000	99.610823
1839.000000	99.624518
1838.000000	99.634859
1837.000000	99.636562
1836.000000	99.631156
1835.000000	99.625576
1834.000000	99.622603
1833.000000	99.618105
1832.000000	99.609212
1831.000000	99.600373
1830.000000	99.598357
1829.000000	99.602381
1828.000000	99.606414
1827.000000	99.609306
1826.000000	99.613363
1825.000000	99.618434
1824.000000	99.622580
1823.000000	99.625283
1822.000000	99.626160
1821.000000	99.624016
1820.000000	99.620643
1819.000000	99.621842
1818.000000	99.630286
1817.000000	99.640202
1816.000000	99.642734
1815.000000	99.634802
1814.000000	99.619299
1813.000000	99.600414
1812.000000	99.582556
1811.000000	99.569197
1810.000000	99.559088
1809.000000	99.546820
1808.000000	99.529459
1807.000000	99.509299
1806.000000	99.488865
1805.000000	99.466545
1804.000000	99.438465
1803.000000	99.402456
1802.000000	99.359996
1801.000000	99.316565
1800.000000	99.279387
1799.000000	99.251013
1798.000000	99.227975
1797.000000	99.207060
1796.000000	99.189585
1795.000000	99.179028
1794.000000	99.177092
1793.000000	99.184472
1792.000000	99.203277
1791.000000	99.234025
1790.000000	99.272327
1789.000000	99.311969
1788.000000	99.348307
1787.000000	99.378646
1786.000000	99.401987
1785.000000	99.419540
1784.000000	99.434788
1783.000000	99.450932
1782.000000	99.467999
1781.000000	99.483356
1780.000000	99.495379
1779.000000	99.504632
1778.000000	99.511555
1777.000000	99.515780
1776.000000	99.518627
1775.000000	99.523047
1774.000000	99.529209
1773.000000	99.532226
1772.000000	99.528378
1771.000000	99.521438
1770.000000	99.516607
1769.000000	99.516142
1768.000000	99.521561
1767.000000	99.532514
1766.000000	99.544484
1765.000000	99.552924
1764.000000	99.558023
1763.000000	99.563194
1762.000000	99.569975
1761.000000	99.576101
1760.000000	99.580883
1759.000000	99.587259
1758.000000	99.596982
1757.000000	99.608393
1756.000000	99.620248
1755.000000	99.633562
1754.000000	99.647696
1753.000000	99.658320
1752.000000	99.661011
1751.000000	99.657123
1750.000000	99.653355
1749.000000	99.653462
1748.000000	99.656065
1747.000000	99.658723
1746.000000	99.658338
1745.000000	99.652016
1744.000000	99.641840
1743.000000	99.635691
1742.000000	99.638840
1741.000000	99.646669
1740.000000	99.648868
1739.000000	99.640821
1738.000000	99.628148
1737.000000	99.617962
1736.000000	99.612975
1735.000000	99.611889
1734.000000	99.610199
1733.000000	99.604567
1732.000000	99.598031
1731.000000	99.594891
1730.000000	99.594634
1729.000000	99.594182
1728.000000	99.592016
1727.000000	99.587942
1726.000000	99.580562
1725.000000	99.569804
1724.000000	99.561627
1723.000000	99.563048
1722.000000	99.572220
1721.000000	99.580474
1720.000000	99.583770
1719.000000	99.586795
1718.000000	99.594359
1717.000000	99.599181
1716.000000	99.592372
1715.000000	99.581180
1714.000000	99.575794
1713.000000	99.577101
1712.000000	99.580912
1711.000000	99.584125
1710.000000	99.584850
1709.000000	99.581772
1708.000000	99.576808
1707.000000	99.575261
1706.000000	99.580058
1705.000000	99.586835
1704.000000	99.589209
1703.000000	99.587039
1702.000000	99.582162
1701.000000	99.572704
1700.000000	99.560918
1699.000000	99.555262
1698.000000	99.556240
1697.000000	99.561843
1696.000000	99.573462
1695.000000	99.589035
1694.000000	99.599469
1693.000000	99.599631
1692.000000	99.591590
1691.000000	99.581002
1690.000000	99.573083
1689.000000	99.569152
1688.000000	99.568182
1687.000000	99.570734
1686.000000	99.577507
1685.000000	99.585979
1684.000000	99.593283
1683.000000	99.599159
1682.000000	99.601744
1681.000000	99.600495
1680.000000	99.596936
1679.000000	99.593759
1678.000000	99.592528
1677.000000	99.593342
1676.000000	99.596563
1675.000000	99.600874
1674.000000	99.600405
1673.000000	99.592321
1672.000000	99.582910
1671.000000	99.580568
1670.000000	99.585880
1669.000000	99.588828
1668.000000	99.584290
1667.000000	99.579010
1666.000000	99.577733
1665.000000	99.578558
1664.000000	99.579682
1663.000000	99.583589
1662.000000	99.591923
1661.000000	99.600875
1660.000000	99.609033
1659.000000	99.619440
1658.000000	99.632496
1657.000000	99.644700
1656.000000	99.655159
1655.000000	99.667585
1654.000000	99.682142
1653.000000	99.690231
1652.000000	99.690803
1651.000000	99.694588
1650.000000	99.704755
1649.000000	99.714009
1648.000000	99.716786
1647.000000	99.716425
1646.000000	99.718973
1645.000000	99.721698
1644.000000	99.722698
1643.000000	99.724828
1642.000000	99.728498
1641.000000	99.730732
1640.000000	99.730469
1639.000000	99.729786
1638.000000	99.728172
1637.000000	99.721157
1636.000000	99.710957
1635.000000	99.710642
1634.000000	99.719038
1633.000000	99.724013
1632.000000	99.723384
1631.000000	99.722079
1630.000000	99.722599
1629.000000	99.721999
1628.000000	99.718573
1627.000000	99.715835
1626.000000	99.714788
1625.000000	99.710028
1624.000000	99.698781
1623.000000	99.688275
1622.000000	99.686071
1621.000000	99.688588
1620.000000	99.690195
1619.000000	99.690127
1618.000000	99.687993
1617.000000	99.681904
1616.000000	99.674990
1615.000000	99.672947
1614.000000	99.672886
1613.000000	99.667707
1612.000000	99.656266
1611.000000	99.644768
1610.000000	99.638230
1609.000000	99.634773
1608.000000	99.632478
1607.000000	99.633724
1606.000000	99.637612
1605.000000	99.637025
1604.000000	99.628634
1603.000000	99.618038
1602.000000	99.610863
1601.000000	99.605049
1600.000000	99.596845
1599.000000	99.587293
1598.000000	99.577783
1597.000000	99.566063
1596.000000	99.551516
1595.000000	99.539006
1594.000000	99.532379
1593.000000	99.528664
1592.000000	99.523202
1591.000000	99.515402
1590.000000	99.506760
1589.000000	99.498532
1588.000000	99.493219
1587.000000	99.492839
1586.000000	99.494269
1585.000000	99.491866
1584.000000	99.485700
1583.000000	99.481196
1582.000000	99.479797
1581.000000	99.477603
1580.000000	99.473799
1579.000000	99.472305
1578.000000	99.474479
1577.000000	99.477983
1576.000000	99.485297
1575.000000	99.501319
1574.000000	99.519732
1573.000000	99.532061
1572.000000	99.538066
1571.000000	99.541240
1570.000000	99.541151
1569.000000	99.535538
1568.000000	99.529443
1567.000000	99.529618
1566.000000	99.533221
1565.000000	99.532836
1564.000000	99.529617
1563.000000	99.531761
1562.000000	99.539196
1561.000000	99.538863
1560.000000	99.510457
1559.000000	99.461245
1558.000000	99.440431
1557.000000	99.438989
1556.000000	99.433494
1555.000000	99.420595
1554.000000	99.396783
1553.000000	99.359496
1552.000000	99.313219
1551.000000	99.261419
1550.000000	99.200008
1549.000000	99.126698
1548.000000	99.047953
1547.000000	98.966692
1546.000000	98.873009
1545.000000	98.757627
1544.000000	98.633666
1543.000000	98.525902
1542.000000	98.431934
1541.000000	98.318346
1540.000000	98.172965
1539.000000	98.042581
1538.000000	97.952992
1537.000000	97.884271
1536.000000	97.816595
1535.000000	97.734127
1534.000000	97.620064
1533.000000	97.480033
1532.000000	97.350474
1531.000000	97.248345
1530.000000	97.158415
1529.000000	97.061395
1528.000000	96.951079
1527.000000	96.833040
1526.000000	96.714402
1525.000000	96.600860
1524.000000	96.496090
1523.000000	96.391572
1522.000000	96.264935
1521.000000	96.115545
1520.000000	95.982258
1519.000000	95.878314
1518.000000	95.773515
1517.000000	95.642707
1516.000000	95.503438
1515.000000	95.386574
1514.000000	95.285664
1513.000000	95.174910
1512.000000	95.046783
1511.000000	94.915773
1510.000000	94.792051
1509.000000	94.664177
1508.000000	94.507271
1507.000000	94.310619
1506.000000	94.116694
1505.000000	93.968810
1504.000000	93.859908
1503.000000	93.767586
1502.000000	93.669636
1501.000000	93.551846
1500.000000	93.416822
1499.000000	93.276231
1498.000000	93.129094
1497.000000	92.968020
1496.000000	92.808559
1495.000000	92.674410
1494.000000	92.559876
1493.000000	92.444328
1492.000000	92.317728
1491.000000	92.181401
1490.000000	92.039637
1489.000000	91.900477
1488.000000	91.776431
1487.000000	91.670218
1486.000000	91.570112
1485.000000	91.466170
1484.000000	91.360766
1483.000000	91.258947
1482.000000	91.157993
1481.000000	91.054768
1480.000000	90.955016
1479.000000	90.862892
1478.000000	90.769874
1477.000000	90.666207
1476.000000	90.558437
1475.000000	90.460562
1474.000000	90.369285
1473.000000	90.270055
1472.000000	90.168746
1471.000000	90.082870
1470.000000	90.007841
1469.000000	89.930630
1468.000000	89.848981
1467.000000	89.766081
1466.000000	89.679495
1465.000000	89.586602
1464.000000	89.499207
1463.000000	89.429343
1462.000000	89.369145
1461.000000	89.303476
1460.000000	89.225934
1459.000000	89.136664
1458.000000	89.031498
1457.000000	88.912369
1456.000000	88.808072
1455.000000	88.732665
1454.000000	88.666939
1453.000000	88.593869
1452.000000	88.514927
1451.000000	88.439587
1450.000000	88.367186
1449.000000	88.288887
1448.000000	88.204797
1447.000000	88.124900
1446.000000	88.051716
1445.000000	87.980532
1444.000000	87.912689
1443.000000	87.852254
1442.000000	87.795169
1441.000000	87.735048
1440.000000	87.675935
1439.000000	87.626690
1438.000000	87.584653
1437.000000	87.533998
1436.000000	87.467246
1435.000000	87.394633
1434.000000	87.319998
1433.000000	87.236871
1432.000000	87.143496
1431.000000	87.044753
1430.000000	86.942628
1429.000000	86.837056
1428.000000	86.736028
1427.000000	86.647331
1426.000000	86.563340
1425.000000	86.469074
1424.000000	86.364488
1423.000000	86.264573
1422.000000	86.171325
1421.000000	86.067708
1420.000000	85.940354
1419.000000	85.800262
1418.000000	85.670496
1417.000000	85.554483
1416.000000	85.445287
1415.000000	85.339627
1414.000000	85.230745
1413.000000	85.110120
1412.000000	84.980303
1411.000000	84.852745
1410.000000	84.730715
1409.000000	84.608376
1408.000000	84.486817
1407.000000	84.373566
1406.000000	84.267814
1405.000000	84.162994
1404.000000	84.064936
1403.000000	83.984466
1402.000000	83.914083
1401.000000	83.834801
1400.000000	83.739748
1399.000000	83.639463
1398.000000	83.541542
1397.000000	83.440976
1396.000000	83.337292
1395.000000	83.239580
1394.000000	83.149988
1393.000000	83.062205
1392.000000	82.977719
1391.000000	82.901669
1390.000000	82.828240
1389.000000	82.747072
1388.000000	82.663247
1387.000000	82.594501
1386.000000	82.542783
1385.000000	82.494026
1384.000000	82.445982
1383.000000	82.406888
1382.000000	82.375590
1381.000000	82.343028
1380.000000	82.310607
1379.000000	82.287593
1378.000000	82.271974
1377.000000	82.253409
1376.000000	82.233912
1375.000000	82.227230
1374.000000	82.236919
1373.000000	82.252739
1372.000000	82.271133
1371.000000	82.297379
1370.000000	82.331003
1369.000000	82.368996
1368.000000	82.417439
1367.000000	82.482923
1366.000000	82.557851
1365.000000	82.631300
1364.000000	82.708113
1363.000000	82.802952
1362.000000	82.916500
1361.000000	83.036863
1360.000000	83.162361
1359.000000	83.298284
1358.000000	83.441553
1357.000000	83.586265
1356.000000	83.736451
1355.000000	83.897527
1354.000000	84.062607
1353.000000	84.223129
1352.000000	84.385338
1351.000000	84.560303
1350.000000	84.745639
1349.000000	84.931215
1348.000000	85.115681
1347.000000	85.302747
1346.000000	85.488563
1345.000000	85.667565
1344.000000	85.843905
1343.000000	86.025098
1342.000000	86.210547
1341.000000	86.396530
1340.000000	86.584618
1339.000000	86.774925
1338.000000	86.959842
1337.000000	87.136529
1336.000000	87.313263
1335.000000	87.494965
1334.000000	87.675023
1333.000000	87.847887
1332.000000	88.018531
1331.000000	88.191482
1330.000000	88.361772
1329.000000	88.525545
1328.000000	88.689063
1327.000000	88.857752
1326.000000	89.026714
1325.000000	89.190284
1324.000000	89.350886
1323.000000	89.510597
1322.000000	89.664835
1321.000000	89.812158
1320.000000	89.959568
1319.000000	90.110098
1318.000000	90.255096
1317.000000	90.388450
1316.000000	90.517162
1315.000000	90.649492
1314.000000	90.783549
1313.000000	90.915150
1312.000000	91.047082
1311.000000	91.182420
1310.000000	91.317248
1309.000000	91.447530
1308.000000	91.575203
1307.000000	91.701518
1306.000000	91.822413
1305.000000	91.936165
1304.000000	92.048106
1303.000000	92.162288
1302.000000	92.276065
1301.000000	92.387183
1300.000000	92.498372
1299.000000	92.610446
1298.000000	92.718618
1297.000000	92.820194
1296.000000	92.918778
1295.000000	93.016741
1294.000000	93.110904
1293.000000	93.199194
1292.000000	93.284315
1291.000000	93.367895
1290.000000	93.447561
1289.000000	93.522876
1288.000000	93.596990
1287.000000	93.670124
1286.000000	93.738791
1285.000000	93.803628
1284.000000	93.870482
1283.000000	93.941220
1282.000000	94.010389
1281.000000	94.073608
1280.000000	94.132854
1279.000000	94.191426
1278.000000	94.250091
1277.000000	94.309838
1276.000000	94.372276
1275.000000	94.435672
1274.000000	94.496470
1273.000000	94.555437
1272.000000	94.616421
1271.000000	94.678849
1270.000000	94.737765
1269.000000	94.791116
1268.000000	94.839999
1267.000000	94.882684
1266.000000	94.917034
1265.000000	94.948520
1264.000000	94.987065
1263.000000	95.034783
1262.000000	95.083990
1261.000000	95.128346
1260.000000	95.168219
1259.000000	95.205184
1258.000000	95.239951
1257.000000	95.276340
1256.000000	95.318590
1255.000000	95.363276
1254.000000	95.401238
1253.000000	95.429045
1252.000000	95.452086
1251.000000	95.475883
1250.000000	95.500950
1249.000000	95.526350
1248.000000	95.551415
1247.000000	95.572865
1246.000000	95.587076
1245.000000	95.596300
1244.000000	95.607016
1243.000000	95.621715
1242.000000	95.637818
1241.000000	95.654401
1240.000000	95.673218
1239.000000	95.693010
1238.000000	95.709783
1237.000000	95.723797
1236.000000	95.739774
1235.000000	95.759072
1234.000000	95.777607
1233.000000	95.792899
1232.000000	95.807825
1231.000000	95.826215
1230.000000	95.849507
1229.000000	95.878242
1228.000000	95.911887
1227.000000	95.947038
1226.000000	95.980534
1225.000000	96.014246
1224.000000	96.051974
1223.000000	96.092101
1222.000000	96.128947
1221.000000	96.160741
1220.000000	96.190734
1219.000000	96.221143
1218.000000	96.251758
1217.000000	96.283811
1216.000000	96.318933
1215.000000	96.354489
1214.000000	96.385721
1213.000000	96.412540
1212.000000	96.438415
1211.000000	96.463089
1210.000000	96.482605
1209.000000	96.496319
1208.000000	96.507915
1207.000000	96.519230
1206.000000	96.528658
1205.000000	96.536017
1204.000000	96.543660
1203.000000	96.552717
1202.000000	96.563052
1201.000000	96.576547
1200.000000	96.595179
1199.000000	96.616106
1198.000000	96.633934
1197.000000	96.647962
1196.000000	96.662454
1195.000000	96.679980
1194.000000	96.699679
1193.000000	96.721520
1192.000000	96.746736
1191.000000	96.773365
1190.000000	96.796201
1189.000000	96.811890
1188.000000	96.820945
1187.000000	96.825695
1186.000000	96.829694
1185.000000	96.837197
1184.000000	96.848572
1183.000000	96.858009
1182.000000	96.860599
1181.000000	96.860168
1180.000000	96.864929
1179.000000	96.877218
1178.000000	96.893376
1177.000000	96.911331
1176.000000	96.931036
1175.000000	96.949077
1174.000000	96.960553
1173.000000	96.966277
1172.000000	96.971553
1171.000000	96.977897
1170.000000	96.982309
1169.000000	96.984404
1168.000000	96.987556
1167.000000	96.992603
1166.000000	96.996538
1165.000000	96.998222
1164.000000	96.999610
1163.000000	97.001130
1162.000000	97.001959
1161.000000	97.005246
1160.000000	97.016196
1159.000000	97.033422
1158.000000	97.048619
1157.000000	97.057272
1156.000000	97.064519
1155.000000	97.077904
1154.000000	97.098752
1153.000000	97.122806
1152.000000	97.145372
1151.000000	97.163872
1150.000000	97.178665
1149.000000	97.192815
1148.000000	97.208366
1147.000000	97.222815
1146.000000	97.232398
1145.000000	97.238489
1144.000000	97.246982
1143.000000	97.261723
1142.000000	97.282066
1141.000000	97.306145
1140.000000	97.332326
1139.000000	97.357940
1138.000000	97.380998
1137.000000	97.402823
1136.000000	97.425259
1135.000000	97.446300
1134.000000	97.462891
1133.000000	97.476402
1132.000000	97.490354
1131.000000	97.503857
1130.000000	97.513021
1129.000000	97.518243
1128.000000	97.524406
1127.000000	97.534254
1126.000000	97.547154
1125.000000	97.564003
1124.000000	97.586807
1123.000000	97.612711
1122.000000	97.634624
1121.000000	97.649508
1120.000000	97.660768
1119.000000	97.671324
1118.000000	97.679803
1117.000000	97.685370
1116.000000	97.690908
1115.000000	97.698413
1114.000000	97.705415
1113.000000	97.708676
1112.000000	97.708744
1111.000000	97.708663
1110.000000	97.710671
1109.000000	97.715619
1108.000000	97.723307
1107.000000	97.731729
1106.000000	97.737809
1105.000000	97.740045
1104.000000	97.739345
1103.000000	97.737169
1102.000000	97.734335
1101.000000	97.731461
1100.000000	97.728771
1099.000000	97.725832
1098.000000	97.722396
1097.000000	97.718770
1096.000000	97.714446
1095.000000	97.708096
1094.000000	97.700143
1093.000000	97.692853
1092.000000	97.685895
1091.000000	97.674902
1090.000000	97.657050
1089.000000	97.635474
1088.000000	97.614881
1087.000000	97.595573
1086.000000	97.575521
1085.000000	97.555704
1084.000000	97.539090
1083.000000	97.525981
1082.000000	97.515032
1081.000000	97.507570
1080.000000	97.506849
1079.000000	97.513330
1078.000000	97.524620
1077.000000	97.539701
1076.000000	97.559068
1075.000000	97.581525
1074.000000	97.604517
1073.000000	97.627389
1072.000000	97.650848
1071.000000	97.673460
1070.000000	97.692086
1069.000000	97.706033
1068.000000	97.718460
1067.000000	97.733978
1066.000000	97.755874
1065.000000	97.783362
1064.000000	97.809532
1063.000000	97.825309
1062.000000	97.829097
1061.000000	97.830511
1060.000000	97.841052
1059.000000	97.862741
1058.000000	97.888611
1057.000000	97.911174
1056.000000	97.927020
1055.000000	97.936037
1054.000000	97.941237
1053.000000	97.947837
1052.000000	97.958538
1051.000000	97.970785
1050.000000	97.981565
1049.000000	97.992118
1048.000000	98.004639
1047.000000	98.018149
1046.000000	98.031579
1045.000000	98.046669
1044.000000	98.062846
1043.000000	98.073659
1042.000000	98.074527
1041.000000	98.071349
1040.000000	98.074287
1039.000000	98.084354
1038.000000	98.092641
1037.000000	98.092662
1036.000000	98.087721
1035.000000	98.085117
1034.000000	98.088134
1033.000000	98.094846
1032.000000	98.101290
1031.000000	98.104556
1030.000000	98.104931
1029.000000	98.105291
1028.000000	98.107365
1027.000000	98.110491
1026.000000	98.115716
1025.000000	98.127519
1024.000000	98.147888
1023.000000	98.171367
1022.000000	98.190334
1021.000000	98.202914
1020.000000	98.211368
1019.000000	98.216002
1018.000000	98.216636
1017.000000	98.218495
1016.000000	98.229319
1015.000000	98.249761
1014.000000	98.271140
1013.000000	98.284243
1012.000000	98.287421
1011.000000	98.286442
1010.000000	98.289699
1009.000000	98.302989
1008.000000	98.325207
1007.000000	98.349000
1006.000000	98.368235
1005.000000	98.384383
1004.000000	98.403389
1003.000000	98.427304
1002.000000	98.452146
1001.000000	98.472875
1000.000000	98.487450
999.000000	98.496770
998.000000	98.503638
997.000000	98.511458
996.000000	98.522144
995.000000	98.536207
994.000000	98.555490
993.000000	98.582063
992.000000	98.612120
991.000000	98.635302
990.000000	98.644912
989.000000	98.646428
988.000000	98.651010
987.000000	98.663080
986.000000	98.678773
985.000000	98.694172
984.000000	98.709223
983.000000	98.724208
982.000000	98.737871
981.000000	98.749031
980.000000	98.756301
979.000000	98.757181
978.000000	98.751636
977.000000	98.745308
976.000000	98.744520
975.000000	98.748534
974.000000	98.751108
973.000000	98.749095
972.000000	98.745236
971.000000	98.743661
970.000000	98.747158
969.000000	98.757791
968.000000	98.774597
967.000000	98.790947
966.000000	98.799929
965.000000	98.803199
964.000000	98.808941
963.000000	98.820707
962.000000	98.833725
961.000000	98.843617
960.000000	98.853005
959.000000	98.866401
958.000000	98.883442
957.000000	98.900393
956.000000	98.915234
955.000000	98.928293
954.000000	98.940297
953.000000	98.951939
952.000000	98.963274
951.000000	98.972160
950.000000	98.976087
949.000000	98.976984
948.000000	98.981309
947.000000	98.993171
946.000000	99.009395
945.000000	99.023382
944.000000	99.031607
943.000000	99.034919
942.000000	99.036136
941.000000	99.038892
940.000000	99.047235
939.000000	99.063223
938.000000	99.084441
937.000000	99.104983
936.000000	99.119234
935.000000	99.125478
934.000000	99.127563
933.000000	99.133072
932.000000	99.147141
931.000000	99.166808
930.000000	99.183174
929.000000	99.190698
928.000000	99.193776
927.000000	99.202797
926.000000	99.223724
925.000000	99.251890
924.000000	99.275667
923.000000	99.286724
922.000000	99.287738
921.000000	99.289273
920.000000	99.298622
919.000000	99.313148
918.000000	99.326123
917.000000	99.336555
916.000000	99.348965
915.000000	99.364958
914.000000	99.380334
913.000000	99.391730
912.000000	99.401181
911.000000	99.412010
910.000000	99.424961
909.000000	99.441150
908.000000	99.464343
907.000000	99.495244
906.000000	99.526874
905.000000	99.551103
904.000000	99.568391
903.000000	99.585719
902.000000	99.605795
901.000000	99.624013
900.000000	99.636422
899.000000	99.645715
898.000000	99.657451
897.000000	99.674511
896.000000	99.696812
895.000000	99.722609
894.000000	99.748178
893.000000	99.769620
892.000000	99.786416
891.000000	99.800091
890.000000	99.806716
889.000000	99.790100
888.000000	99.720427
887.000000	99.548404
886.000000	99.204852
885.000000	98.616585
884.000000	97.736170
883.000000	96.563947
882.000000	95.136684
881.000000	93.507816
880.000000	91.740252
879.000000	89.908311
878.000000	88.089115
877.000000	86.343955
876.000000	84.706570
875.000000	83.170001
874.000000	81.717135
873.000000	80.436096
872.000000	79.661625
871.000000	79.898754
870.000000	81.458306
869.000000	84.128892
868.000000	87.238952
867.000000	90.071733
866.000000	92.247154
865.000000	93.771279
864.000000	94.825278
863.000000	95.575989
862.000000	96.131724
861.000000	96.561373
860.000000	96.902816
859.000000	97.169408
858.000000	97.378940
857.000000	97.557898
856.000000	97.717846
855.000000	97.850789
854.000000	97.953558
853.000000	98.033530
852.000000	98.078167
851.000000	98.049905
850.000000	97.939195
849.000000	97.808980
848.000000	97.759855
847.000000	97.845806
846.000000	98.033627
845.000000	98.242214
844.000000	98.407882
843.000000	98.515339
842.000000	98.584782
841.000000	98.641579
840.000000	98.696937
839.000000	98.749046
838.000000	98.794665
837.000000	98.834726
836.000000	98.870278
835.000000	98.899731
834.000000	98.921811
833.000000	98.938069
832.000000	98.951724
831.000000	98.967038
830.000000	98.988309
829.000000	99.014668
828.000000	99.038323
827.000000	99.054987
826.000000	99.073572
825.000000	99.105414
824.000000	99.144498
823.000000	99.170606
822.000000	99.174287
821.000000	99.166470
820.000000	99.161356
819.000000	99.161961
818.000000	99.165865
817.000000	99.173500
816.000000	99.184621
815.000000	99.195667
814.000000	99.207171
813.000000	99.226427
812.000000	99.256255
811.000000	99.287306
810.000000	99.307625
809.000000	99.315485
808.000000	99.317965
807.000000	99.322005
806.000000	99.331391
805.000000	99.346787
804.000000	99.363171
803.000000	99.371878
802.000000	99.370647
801.000000	99.367732
800.000000	99.371591
799.000000	99.381073
798.000000	99.390669
797.000000	99.400346
796.000000	99.413586
795.000000	99.428666
794.000000	99.438246
793.000000	99.437114
792.000000	99.427170
791.000000	99.415890
790.000000	99.411321
789.000000	99.415813
788.000000	99.423006
787.000000	99.424184
786.000000	99.418702
785.000000	99.414116
784.000000	99.415049
783.000000	99.417464
782.000000	99.416103
781.000000	99.411796
780.000000	99.407815
779.000000	99.404373
778.000000	99.401430
777.000000	99.402427
776.000000	99.410005
775.000000	99.421195
774.000000	99.431384
773.000000	99.440431
772.000000	99.450203
771.000000	99.458645
770.000000	99.461720
769.000000	99.460173
768.000000	99.460040
767.000000	99.466379
766.000000	99.479140
765.000000	99.494539
764.000000	99.508019
763.000000	99.516496
762.000000	99.519993
761.000000	99.521282
760.000000	99.523714
759.000000	99.530605
758.000000	99.545741
757.000000	99.570475
756.000000	99.599516
755.000000	99.623686
754.000000	99.638971
753.000000	99.648790
752.000000	99.655107
751.000000	99.652792
750.000000	99.637977
749.000000	99.618796
748.000000	99.610945
747.000000	99.622192
746.000000	99.645658
745.000000	99.668648
744.000000	99.684571
743.000000	99.695003
742.000000	99.703463
741.000000	99.710311
740.000000	99.713517
739.000000	99.712588
738.000000	99.710468
737.000000	99.711521
736.000000	99.717946
735.000000	99.727910
734.000000	99.736859
733.000000	99.740782
732.000000	99.739120
731.000000	99.735007
730.000000	99.731562
729.000000	99.727318
728.000000	99.716325
727.000000	99.693272
726.000000	99.657472
725.000000	99.611088
724.000000	99.554696
723.000000	99.484329
722.000000	99.389165
721.000000	99.250056
720.000000	99.040933
719.000000	98.728694
718.000000	98.268100
717.000000	97.609365
716.000000	96.744418
715.000000	95.773245
714.000000	94.916119
713.000000	94.422010
712.000000	94.426150
711.000000	94.874505
710.000000	95.575926
709.000000	96.320470
708.000000	96.966482
707.000000	97.461014
706.000000	97.814492
705.000000	98.062022
704.000000	98.234538
703.000000	98.352519
702.000000	98.433900
701.000000	98.497345
700.000000	98.556382
699.000000	98.617942
698.000000	98.688736
697.000000	98.774581
696.000000	98.868649
695.000000	98.950433
694.000000	99.004384
693.000000	99.035697
692.000000	99.062071
691.000000	99.093633
690.000000	99.128128
689.000000	99.160339
688.000000	99.187309
687.000000	99.205306
686.000000	99.209731
685.000000	99.201348
684.000000	99.189552
683.000000	99.187921
682.000000	99.206522
681.000000	99.244242
680.000000	99.284208
679.000000	99.301915
678.000000	99.287325
677.000000	99.258917
676.000000	99.247138
675.000000	99.263363
674.000000	99.289735
673.000000	99.302369
672.000000	99.296834
671.000000	99.285906
670.000000	99.280770
669.000000	99.286806
668.000000	99.303308
667.000000	99.307232
666.000000	99.292154
665.000000	99.276964
664.000000	99.264027
663.000000	99.252016
662.000000	99.246142
661.000000	99.253547
660.000000	99.272085
659.000000	99.288936
658.000000	99.293109
657.000000	99.287633
656.000000	99.284514
655.000000	99.291353
654.000000	99.304808
653.000000	99.315983
652.000000	99.318626
651.000000	99.312856
650.000000	99.304930
649.000000	99.304292
648.000000	99.317769
647.000000	99.344365
646.000000	99.374961
645.000000	99.398183
644.000000	99.409494
643.000000	99.415292
642.000000	99.425925
641.000000	99.443350
640.000000	99.458164
639.000000	99.461548
638.000000	99.456804
637.000000	99.453857
636.000000	99.454012
635.000000	99.447500
634.000000	99.428461
633.000000	99.406253
632.000000	99.397351
631.000000	99.407857
630.000000	99.425944
629.000000	99.432704
628.000000	99.420062
627.000000	99.397789
626.000000	99.383082
625.000000	99.382676
624.000000	99.389439
623.000000	99.395989
622.000000	99.404026
621.000000	99.416593
620.000000	99.428267
619.000000	99.431702
618.000000	99.430262
617.000000	99.434602
616.000000	99.445602
615.000000	99.450732
614.000000	99.441141
613.000000	99.424097
612.000000	99.414412
611.000000	99.418851
610.000000	99.433711
609.000000	99.454380
608.000000	99.480501
607.000000	99.509823
606.000000	99.532251
605.000000	99.535905
604.000000	99.520289
603.000000	99.499410
602.000000	99.487185
601.000000	99.482130
600.000000	99.473537
599.000000	99.461826
598.000000	99.463357
597.000000	99.488849
596.000000	99.525114
595.000000	99.546698
594.000000	99.541987
593.000000	99.521215
592.000000	99.500034
591.000000	99.484126
590.000000	99.470903
589.000000	99.458261
588.000000	99.447088
587.000000	99.438661
586.000000	99.433863
585.000000	99.433834
584.000000	99.440250
583.000000	99.454549
582.000000	99.474465
581.000000	99.491322
580.000000	99.495316
579.000000	99.484651
578.000000	99.465666
577.000000	99.443133
576.000000	99.417555
575.000000	99.393832
574.000000	99.381605
573.000000	99.379881
572.000000	99.372772
571.000000	99.350885
570.000000	99.331038
569.000000	99.340707
568.000000	99.381866
567.000000	99.425071
566.000000	99.441589
565.000000	99.430427
564.000000	99.409887
563.000000	99.396144
562.000000	99.396742
561.000000	99.412540
560.000000	99.436205
559.000000	99.451437
558.000000	99.444155
557.000000	99.417823
556.000000	99.392902
555.000000	99.387742
554.000000	99.399233
553.000000	99.406704
552.000000	99.397092
551.000000	99.382767
550.000000	99.389545
549.000000	99.425503
548.000000	99.471111
547.000000	99.502285
546.000000	99.514865
545.000000	99.520675
544.000000	99.526198
543.000000	99.527426
542.000000	99.521624
541.000000	99.512241
540.000000	99.503038
539.000000	99.496143
538.000000	99.494976
537.000000	99.498484
536.000000	99.493151
535.000000	99.463400
534.000000	99.412725
533.000000	99.363759
532.000000	99.334582
531.000000	99.323776
530.000000	99.321020
529.000000	99.322017
528.000000	99.326698
527.000000	99.330263
526.000000	99.326713
525.000000	99.320649
524.000000	99.325166
523.000000	99.347219
522.000000	99.383016
521.000000	99.426619
520.000000	99.475414
519.000000	99.525699
518.000000	99.568328
517.000000	99.593901
516.000000	99.599756
515.000000	99.588921
514.000000	99.568237
513.000000	99.549607
512.000000	99.548504
511.000000	99.573232
510.000000	99.614956
509.000000	99.655045
508.000000	99.682082
507.000000	99.695666
506.000000	99.697420
505.000000	99.686209
504.000000	99.659937
503.000000	99.617400
502.000000	99.560551
501.000000	99.499687
500.000000	99.454389
499.000000	99.439322
498.000000	99.446863
497.000000	99.450695
496.000000	99.436106
495.000000	99.421989
494.000000	99.441852
493.000000	99.507002
492.000000	99.596538
491.000000	99.676622
490.000000	99.718491
489.000000	99.705769
488.000000	99.644528
487.000000	99.571037
486.000000	99.531115
485.000000	99.537901
484.000000	99.560526
483.000000	99.566987
482.000000	99.565400
481.000000	99.590056
480.000000	99.656895
479.000000	99.738364
478.000000	99.777004
477.000000	99.734834
476.000000	99.637511
475.000000	99.560556
474.000000	99.561234
473.000000	99.615807
472.000000	99.639087
471.000000	99.591446
470.000000	99.525018
469.000000	99.502936
468.000000	99.533201
467.000000	99.584877
466.000000	99.630847
465.000000	99.660022
464.000000	99.668011
463.000000	99.662166
462.000000	99.663102
461.000000	99.676600
460.000000	99.671503
459.000000	99.609261
458.000000	99.500081
457.000000	99.413785
456.000000	99.402454
455.000000	99.454590
454.000000	99.538228
453.000000	99.632517
452.000000	99.701687
451.000000	99.736316
450.000000	99.749358
