PE IR       SUBTECH     SPECTRUM    ASCII       PEDS        4.00        
   -1
A1G-F001_1.ASC
23/09/14
11:01:07.00
23/09/14
11:18:22.00
uco
Sample 001 By uco Date Thursday, September 14 2023
450.000000
#HDR
-1
-1
#GR
cm-1
%T
1.0
0.0
4000.000000
-1.000000
3551
8
100.098947
86.242922
#DATA
4000.000000	99.919745
3999.000000	99.918825
3998.000000	99.919574
3997.000000	99.921108
3996.000000	99.922984
3995.000000	99.925379
3994.000000	99.928223
3993.000000	99.930821
3992.000000	99.931773
3991.000000	99.929617
3990.000000	99.923938
3989.000000	99.916276
3988.000000	99.909759
3987.000000	99.907145
3986.000000	99.908768
3985.000000	99.912224
3984.000000	99.914182
3983.000000	99.912987
3982.000000	99.909398
3981.000000	99.904990
3980.000000	99.900410
3979.000000	99.895455
3978.000000	99.890544
3977.000000	99.887533
3976.000000	99.888737
3975.000000	99.894826
3974.000000	99.903791
3973.000000	99.912024
3972.000000	99.916764
3971.000000	99.917513
3970.000000	99.915417
3969.000000	99.912007
3968.000000	99.908516
3967.000000	99.906330
3966.000000	99.906915
3965.000000	99.910612
3964.000000	99.915579
3963.000000	99.918548
3962.000000	99.917295
3961.000000	99.912219
3960.000000	99.905972
3959.000000	99.901408
3958.000000	99.899768
3957.000000	99.900530
3956.000000	99.901813
3955.000000	99.901427
3954.000000	99.898264
3953.000000	99.893254
3952.000000	99.888966
3951.000000	99.887666
3950.000000	99.889813
3949.000000	99.893858
3948.000000	99.897438
3947.000000	99.898828
3946.000000	99.897321
3945.000000	99.893640
3944.000000	99.890326
3943.000000	99.890276
3942.000000	99.894134
3941.000000	99.898787
3940.000000	99.900294
3939.000000	99.897965
3938.000000	99.894741
3937.000000	99.894559
3936.000000	99.898479
3935.000000	99.903970
3934.000000	99.907316
3933.000000	99.905984
3932.000000	99.900431
3931.000000	99.893134
3930.000000	99.886605
3929.000000	99.881658
3928.000000	99.877396
3927.000000	99.874488
3926.000000	99.876026
3925.000000	99.884167
3924.000000	99.895914
3923.000000	99.904344
3922.000000	99.905204
3921.000000	99.900672
3920.000000	99.896170
3919.000000	99.895007
3918.000000	99.895941
3917.000000	99.895790
3916.000000	99.893258
3915.000000	99.888829
3914.000000	99.883041
3913.000000	99.875945
3912.000000	99.868408
3911.000000	99.862209
3910.000000	99.859013
3909.000000	99.859820
3908.000000	99.864516
3907.000000	99.872860
3906.000000	99.885258
3905.000000	99.902438
3904.000000	99.922770
3903.000000	99.939531
3902.000000	99.944148
3901.000000	99.933779
3900.000000	99.913540
3899.000000	99.893010
3898.000000	99.879438
3897.000000	99.873802
3896.000000	99.873553
3895.000000	99.875419
3894.000000	99.876493
3893.000000	99.876103
3892.000000	99.877259
3891.000000	99.883512
3890.000000	99.893574
3889.000000	99.902381
3888.000000	99.906498
3887.000000	99.907292
3886.000000	99.909655
3885.000000	99.915745
3884.000000	99.920174
3883.000000	99.916477
3882.000000	99.905005
3881.000000	99.893679
3880.000000	99.890380
3879.000000	99.893976
3878.000000	99.896510
3877.000000	99.892896
3876.000000	99.884877
3875.000000	99.879818
3874.000000	99.884513
3873.000000	99.896943
3872.000000	99.907738
3871.000000	99.910722
3870.000000	99.909409
3869.000000	99.910479
3868.000000	99.913926
3867.000000	99.915444
3866.000000	99.912863
3865.000000	99.907733
3864.000000	99.903424
3863.000000	99.901717
3862.000000	99.902155
3861.000000	99.904096
3860.000000	99.906599
3859.000000	99.910012
3858.000000	99.915583
3857.000000	99.923479
3856.000000	99.929858
3855.000000	99.929246
3854.000000	99.927119
3853.000000	99.931396
3852.000000	99.932177
3851.000000	99.920726
3850.000000	99.903506
3849.000000	99.888423
3848.000000	99.878113
3847.000000	99.870532
3846.000000	99.862860
3845.000000	99.854862
3844.000000	99.850200
3843.000000	99.853449
3842.000000	99.865130
3841.000000	99.880252
3840.000000	99.892274
3839.000000	99.897994
3838.000000	99.897645
3837.000000	99.893041
3836.000000	99.886149
3835.000000	99.878594
3834.000000	99.871183
3833.000000	99.864173
3832.000000	99.858371
3831.000000	99.855950
3830.000000	99.857980
3829.000000	99.862988
3828.000000	99.868455
3827.000000	99.873842
3826.000000	99.880806
3825.000000	99.889258
3824.000000	99.894677
3823.000000	99.889619
3822.000000	99.873533
3821.000000	99.858310
3820.000000	99.853664
3819.000000	99.856155
3818.000000	99.858433
3817.000000	99.858176
3816.000000	99.857389
3815.000000	99.857570
3814.000000	99.856536
3813.000000	99.853180
3812.000000	99.850006
3811.000000	99.849317
3810.000000	99.850807
3809.000000	99.852130
3808.000000	99.852750
3807.000000	99.855285
3806.000000	99.860610
3805.000000	99.864696
3804.000000	99.862751
3803.000000	99.852677
3802.000000	99.839288
3801.000000	99.831564
3800.000000	99.831356
3799.000000	99.833080
3798.000000	99.834399
3797.000000	99.836476
3796.000000	99.839517
3795.000000	99.840646
3794.000000	99.837201
3793.000000	99.830474
3792.000000	99.824291
3791.000000	99.821030
3790.000000	99.820414
3789.000000	99.820840
3788.000000	99.820516
3787.000000	99.818218
3786.000000	99.813887
3785.000000	99.809259
3784.000000	99.806770
3783.000000	99.807162
3782.000000	99.808741
3781.000000	99.810178
3780.000000	99.813231
3779.000000	99.820242
3778.000000	99.829044
3777.000000	99.834186
3776.000000	99.833532
3775.000000	99.830329
3774.000000	99.829295
3773.000000	99.831762
3772.000000	99.835298
3771.000000	99.837945
3770.000000	99.840926
3769.000000	99.845938
3768.000000	99.851076
3767.000000	99.853469
3766.000000	99.853027
3765.000000	99.852006
3764.000000	99.852125
3763.000000	99.852920
3762.000000	99.853184
3761.000000	99.853577
3760.000000	99.856579
3759.000000	99.863378
3758.000000	99.871938
3757.000000	99.879677
3756.000000	99.886061
3755.000000	99.891863
3754.000000	99.898591
3753.000000	99.908254
3752.000000	99.921295
3751.000000	99.933926
3750.000000	99.939536
3749.000000	99.937199
3748.000000	99.932015
3747.000000	99.925667
3746.000000	99.914302
3745.000000	99.898363
3744.000000	99.887907
3743.000000	99.887227
3742.000000	99.891524
3741.000000	99.899383
3740.000000	99.910500
3739.000000	99.920885
3738.000000	99.923414
3737.000000	99.915722
3736.000000	99.904664
3735.000000	99.899384
3734.000000	99.901718
3733.000000	99.904966
3732.000000	99.903084
3731.000000	99.895972
3730.000000	99.886590
3729.000000	99.877789
3728.000000	99.871445
3727.000000	99.868557
3726.000000	99.867899
3725.000000	99.866182
3724.000000	99.862317
3723.000000	99.859548
3722.000000	99.861701
3721.000000	99.867407
3720.000000	99.872054
3719.000000	99.873940
3718.000000	99.875368
3717.000000	99.878795
3716.000000	99.883846
3715.000000	99.887700
3714.000000	99.886155
3713.000000	99.876456
3712.000000	99.862524
3711.000000	99.854382
3710.000000	99.856609
3709.000000	99.864602
3708.000000	99.871620
3707.000000	99.875197
3706.000000	99.877891
3705.000000	99.882330
3704.000000	99.888310
3703.000000	99.892997
3702.000000	99.893220
3701.000000	99.887550
3700.000000	99.876578
3699.000000	99.863157
3698.000000	99.852411
3697.000000	99.849275
3696.000000	99.854747
3695.000000	99.864261
3694.000000	99.871690
3693.000000	99.875045
3692.000000	99.877242
3691.000000	99.882197
3690.000000	99.888901
3689.000000	99.890071
3688.000000	99.879850
3687.000000	99.861881
3686.000000	99.844552
3685.000000	99.833353
3684.000000	99.829472
3683.000000	99.830577
3682.000000	99.833089
3681.000000	99.835873
3680.000000	99.841719
3679.000000	99.853351
3678.000000	99.869095
3677.000000	99.883628
3676.000000	99.894551
3675.000000	99.902113
3674.000000	99.903970
3673.000000	99.897396
3672.000000	99.884469
3671.000000	99.870164
3670.000000	99.861413
3669.000000	99.860392
3668.000000	99.860737
3667.000000	99.857524
3666.000000	99.852428
3665.000000	99.848304
3664.000000	99.845833
3663.000000	99.844080
3662.000000	99.843373
3661.000000	99.846316
3660.000000	99.854835
3659.000000	99.867078
3658.000000	99.878345
3657.000000	99.885415
3656.000000	99.889623
3655.000000	99.894073
3654.000000	99.900474
3653.000000	99.907875
3652.000000	99.912493
3651.000000	99.908946
3650.000000	99.893513
3649.000000	99.867095
3648.000000	99.838108
3647.000000	99.818761
3646.000000	99.813429
3645.000000	99.816846
3644.000000	99.822133
3643.000000	99.826100
3642.000000	99.828602
3641.000000	99.830062
3640.000000	99.829657
3639.000000	99.826740
3638.000000	99.823197
3637.000000	99.822076
3636.000000	99.825579
3635.000000	99.835245
3634.000000	99.852597
3633.000000	99.876521
3632.000000	99.900413
3631.000000	99.913292
3630.000000	99.908366
3629.000000	99.892713
3628.000000	99.879964
3627.000000	99.873751
3626.000000	99.870696
3625.000000	99.871396
3624.000000	99.878056
3623.000000	99.889626
3622.000000	99.900228
3621.000000	99.902181
3620.000000	99.892124
3619.000000	99.875980
3618.000000	99.863813
3617.000000	99.860394
3616.000000	99.863824
3615.000000	99.869536
3614.000000	99.873798
3613.000000	99.875086
3612.000000	99.873927
3611.000000	99.870155
3610.000000	99.861575
3609.000000	99.846236
3608.000000	99.826564
3607.000000	99.808884
3606.000000	99.797836
3605.000000	99.793426
3604.000000	99.792362
3603.000000	99.791332
3602.000000	99.789355
3601.000000	99.787869
3600.000000	99.788784
3599.000000	99.792226
3598.000000	99.796007
3597.000000	99.797461
3596.000000	99.796327
3595.000000	99.795390
3594.000000	99.799406
3593.000000	99.810564
3592.000000	99.825447
3591.000000	99.836042
3590.000000	99.834377
3589.000000	99.819348
3588.000000	99.801181
3587.000000	99.793454
3586.000000	99.798934
3585.000000	99.807578
3584.000000	99.809091
3583.000000	99.801801
3582.000000	99.791741
3581.000000	99.785753
3580.000000	99.785930
3579.000000	99.788506
3578.000000	99.788407
3577.000000	99.784036
3576.000000	99.778076
3575.000000	99.774498
3574.000000	99.775084
3573.000000	99.779226
3572.000000	99.784682
3571.000000	99.788700
3570.000000	99.788661
3569.000000	99.784190
3568.000000	99.777409
3567.000000	99.770581
3566.000000	99.764418
3565.000000	99.760275
3564.000000	99.759212
3563.000000	99.760713
3562.000000	99.762638
3561.000000	99.762429
3560.000000	99.758963
3559.000000	99.754097
3558.000000	99.750699
3557.000000	99.750100
3556.000000	99.751337
3555.000000	99.752800
3554.000000	99.753588
3553.000000	99.754004
3552.000000	99.754806
3551.000000	99.756427
3550.000000	99.758899
3549.000000	99.762151
3548.000000	99.765820
3547.000000	99.768173
3546.000000	99.766007
3545.000000	99.757378
3544.000000	99.744509
3543.000000	99.732299
3542.000000	99.725095
3541.000000	99.724656
3540.000000	99.729616
3539.000000	99.736432
3538.000000	99.741324
3537.000000	99.742709
3536.000000	99.741997
3535.000000	99.741720
3534.000000	99.742922
3533.000000	99.744076
3532.000000	99.742821
3531.000000	99.738213
3530.000000	99.732126
3529.000000	99.728604
3528.000000	99.731037
3527.000000	99.738966
3526.000000	99.747735
3525.000000	99.751660
3524.000000	99.748194
3523.000000	99.739735
3522.000000	99.731130
3521.000000	99.725360
3520.000000	99.721802
3519.000000	99.718422
3518.000000	99.714446
3517.000000	99.710542
3516.000000	99.707624
3515.000000	99.705814
3514.000000	99.704974
3513.000000	99.705134
3512.000000	99.706191
3511.000000	99.707322
3510.000000	99.707296
3509.000000	99.705616
3508.000000	99.703383
3507.000000	99.702889
3506.000000	99.705930
3505.000000	99.712683
3504.000000	99.721207
3503.000000	99.728177
3502.000000	99.730937
3501.000000	99.728898
3500.000000	99.723105
3499.000000	99.715329
3498.000000	99.707928
3497.000000	99.703270
3496.000000	99.702584
3495.000000	99.705164
3494.000000	99.708860
3493.000000	99.711345
3492.000000	99.711263
3491.000000	99.708937
3490.000000	99.706182
3489.000000	99.704774
3488.000000	99.704973
3487.000000	99.705787
3486.000000	99.706558
3485.000000	99.707564
3484.000000	99.709137
3483.000000	99.710903
3482.000000	99.712412
3481.000000	99.713701
3480.000000	99.714452
3479.000000	99.713171
3478.000000	99.708221
3477.000000	99.699775
3476.000000	99.690031
3475.000000	99.681554
3474.000000	99.675947
3473.000000	99.674283
3472.000000	99.677656
3471.000000	99.686199
3470.000000	99.697810
3469.000000	99.708675
3468.000000	99.715519
3467.000000	99.717659
3466.000000	99.716906
3465.000000	99.715686
3464.000000	99.714984
3463.000000	99.713500
3462.000000	99.708877
3461.000000	99.700118
3460.000000	99.689161
3459.000000	99.679821
3458.000000	99.674754
3457.000000	99.673502
3456.000000	99.673251
3455.000000	99.671555
3454.000000	99.668774
3453.000000	99.667502
3452.000000	99.669594
3451.000000	99.673473
3450.000000	99.675425
3449.000000	99.673848
3448.000000	99.671375
3447.000000	99.671732
3446.000000	99.675029
3445.000000	99.677669
3444.000000	99.676705
3443.000000	99.672622
3442.000000	99.667813
3441.000000	99.663935
3440.000000	99.661274
3439.000000	99.659653
3438.000000	99.658758
3437.000000	99.657798
3436.000000	99.655788
3435.000000	99.652396
3434.000000	99.648374
3433.000000	99.644658
3432.000000	99.641557
3431.000000	99.638752
3430.000000	99.636355
3429.000000	99.635455
3428.000000	99.637096
3427.000000	99.640954
3426.000000	99.645486
3425.000000	99.649404
3424.000000	99.652306
3423.000000	99.653850
3422.000000	99.653170
3421.000000	99.649566
3420.000000	99.643296
3419.000000	99.635374
3418.000000	99.627302
3417.000000	99.621230
3416.000000	99.619509
3415.000000	99.622967
3414.000000	99.629704
3413.000000	99.636226
3412.000000	99.639726
3411.000000	99.639159
3410.000000	99.634903
3409.000000	99.628222
3408.000000	99.620960
3407.000000	99.615086
3406.000000	99.611972
3405.000000	99.611782
3404.000000	99.613068
3403.000000	99.612962
3402.000000	99.608852
3401.000000	99.600671
3400.000000	99.591655
3399.000000	99.585984
3398.000000	99.585203
3397.000000	99.587104
3396.000000	99.588369
3395.000000	99.588034
3394.000000	99.587857
3393.000000	99.589488
3392.000000	99.592063
3391.000000	99.593153
3390.000000	99.591422
3389.000000	99.587539
3388.000000	99.582963
3387.000000	99.578905
3386.000000	99.576322
3385.000000	99.575540
3384.000000	99.575414
3383.000000	99.574091
3382.000000	99.571706
3381.000000	99.571212
3380.000000	99.575345
3379.000000	99.583066
3378.000000	99.590200
3377.000000	99.593301
3376.000000	99.591877
3375.000000	99.587262
3374.000000	99.580876
3373.000000	99.573947
3372.000000	99.567549
3371.000000	99.562081
3370.000000	99.557393
3369.000000	99.554136
3368.000000	99.554027
3367.000000	99.557799
3366.000000	99.563209
3365.000000	99.566158
3364.000000	99.564008
3363.000000	99.557652
3362.000000	99.550809
3361.000000	99.547473
3360.000000	99.549022
3359.000000	99.552814
3358.000000	99.554128
3357.000000	99.550609
3356.000000	99.544816
3355.000000	99.541596
3354.000000	99.542823
3353.000000	99.545452
3352.000000	99.544904
3351.000000	99.539777
3350.000000	99.533050
3349.000000	99.529299
3348.000000	99.530803
3347.000000	99.535754
3346.000000	99.539733
3345.000000	99.539100
3344.000000	99.533738
3343.000000	99.526956
3342.000000	99.522935
3341.000000	99.523781
3340.000000	99.528123
3339.000000	99.531973
3338.000000	99.531370
3337.000000	99.525191
3336.000000	99.515936
3335.000000	99.507778
3334.000000	99.503661
3333.000000	99.503936
3332.000000	99.507014
3331.000000	99.510658
3330.000000	99.512909
3329.000000	99.512520
3328.000000	99.509113
3327.000000	99.503399
3326.000000	99.497462
3325.000000	99.494109
3324.000000	99.494692
3323.000000	99.497092
3322.000000	99.497001
3321.000000	99.492050
3320.000000	99.484260
3319.000000	99.477911
3318.000000	99.475595
3317.000000	99.476903
3316.000000	99.480204
3315.000000	99.484230
3314.000000	99.488042
3313.000000	99.490837
3312.000000	99.492178
3311.000000	99.491595
3310.000000	99.487928
3309.000000	99.480112
3308.000000	99.469106
3307.000000	99.458166
3306.000000	99.450378
3305.000000	99.446310
3304.000000	99.444319
3303.000000	99.442710
3302.000000	99.441334
3301.000000	99.441329
3300.000000	99.443461
3299.000000	99.446525
3298.000000	99.447856
3297.000000	99.446021
3296.000000	99.443010
3295.000000	99.442536
3294.000000	99.445584
3293.000000	99.448691
3292.000000	99.447640
3291.000000	99.442373
3290.000000	99.437184
3289.000000	99.435956
3288.000000	99.438065
3287.000000	99.439395
3286.000000	99.436886
3285.000000	99.431662
3284.000000	99.427958
3283.000000	99.429356
3282.000000	99.435823
3281.000000	99.444047
3280.000000	99.450324
3279.000000	99.453057
3278.000000	99.452752
3277.000000	99.450087
3276.000000	99.444756
3275.000000	99.436624
3274.000000	99.427548
3273.000000	99.420994
3272.000000	99.419399
3271.000000	99.422232
3270.000000	99.426894
3269.000000	99.430845
3268.000000	99.432401
3267.000000	99.430572
3266.000000	99.425810
3265.000000	99.421012
3264.000000	99.420131
3263.000000	99.424851
3262.000000	99.433279
3261.000000	99.442353
3260.000000	99.450348
3259.000000	99.456125
3258.000000	99.457327
3257.000000	99.451928
3256.000000	99.441946
3255.000000	99.433645
3254.000000	99.432429
3253.000000	99.438041
3252.000000	99.445814
3251.000000	99.451845
3250.000000	99.455920
3249.000000	99.459600
3248.000000	99.463055
3247.000000	99.464794
3246.000000	99.463900
3245.000000	99.461433
3244.000000	99.459128
3243.000000	99.457217
3242.000000	99.454430
3241.000000	99.450201
3240.000000	99.446222
3239.000000	99.445279
3238.000000	99.448592
3237.000000	99.454587
3236.000000	99.459957
3235.000000	99.461630
3234.000000	99.458146
3233.000000	99.450247
3232.000000	99.440880
3231.000000	99.434038
3230.000000	99.432780
3229.000000	99.437649
3228.000000	99.446565
3227.000000	99.456226
3226.000000	99.463918
3225.000000	99.468355
3224.000000	99.469172
3223.000000	99.466029
3222.000000	99.458897
3221.000000	99.449409
3220.000000	99.440988
3219.000000	99.436567
3218.000000	99.435995
3217.000000	99.436627
3216.000000	99.436627
3215.000000	99.437192
3214.000000	99.441126
3213.000000	99.449422
3212.000000	99.459603
3211.000000	99.467192
3210.000000	99.468924
3209.000000	99.465017
3208.000000	99.458621
3207.000000	99.453047
3206.000000	99.449419
3205.000000	99.447029
3204.000000	99.445243
3203.000000	99.444570
3202.000000	99.445884
3201.000000	99.449120
3200.000000	99.452675
3199.000000	99.454152
3198.000000	99.452313
3197.000000	99.448900
3196.000000	99.447839
3195.000000	99.451345
3194.000000	99.457144
3193.000000	99.460668
3192.000000	99.460087
3191.000000	99.457915
3190.000000	99.457267
3189.000000	99.457966
3188.000000	99.457470
3187.000000	99.454793
3186.000000	99.451815
3185.000000	99.450771
3184.000000	99.451540
3183.000000	99.452271
3182.000000	99.452109
3181.000000	99.452461
3180.000000	99.455097
3179.000000	99.459319
3178.000000	99.461787
3177.000000	99.459842
3176.000000	99.454398
3175.000000	99.448954
3174.000000	99.445971
3173.000000	99.445269
3172.000000	99.445673
3171.000000	99.447108
3170.000000	99.450450
3169.000000	99.455911
3168.000000	99.462113
3167.000000	99.466629
3166.000000	99.467363
3165.000000	99.464101
3164.000000	99.458928
3163.000000	99.454785
3162.000000	99.453307
3161.000000	99.454226
3160.000000	99.456568
3159.000000	99.459611
3158.000000	99.462847
3157.000000	99.466034
3156.000000	99.469677
3155.000000	99.474536
3154.000000	99.480248
3153.000000	99.485110
3152.000000	99.487775
3151.000000	99.488462
3150.000000	99.488004
3149.000000	99.486295
3148.000000	99.482497
3147.000000	99.476618
3146.000000	99.470207
3145.000000	99.465355
3144.000000	99.463062
3143.000000	99.462426
3142.000000	99.461449
3141.000000	99.458776
3140.000000	99.454871
3139.000000	99.451441
3138.000000	99.450110
3137.000000	99.451716
3136.000000	99.456310
3135.000000	99.462712
3134.000000	99.468395
3133.000000	99.471049
3132.000000	99.470795
3131.000000	99.469719
3130.000000	99.468991
3129.000000	99.467577
3128.000000	99.464571
3127.000000	99.461543
3126.000000	99.461408
3125.000000	99.465303
3124.000000	99.471283
3123.000000	99.475749
3122.000000	99.475600
3121.000000	99.469885
3120.000000	99.460586
3119.000000	99.452051
3118.000000	99.448828
3117.000000	99.453173
3116.000000	99.463825
3115.000000	99.476698
3114.000000	99.486873
3113.000000	99.491039
3112.000000	99.488986
3111.000000	99.482994
3110.000000	99.475753
3109.000000	99.468959
3108.000000	99.463403
3107.000000	99.459288
3106.000000	99.456144
3105.000000	99.453205
3104.000000	99.450313
3103.000000	99.448157
3102.000000	99.447390
3101.000000	99.448021
3100.000000	99.449839
3099.000000	99.453016
3098.000000	99.457849
3097.000000	99.463841
3096.000000	99.469169
3095.000000	99.471332
3094.000000	99.468885
3093.000000	99.462845
3092.000000	99.456087
3091.000000	99.451029
3090.000000	99.448174
3089.000000	99.447048
3088.000000	99.447682
3087.000000	99.450288
3086.000000	99.453973
3085.000000	99.457147
3084.000000	99.459221
3083.000000	99.461074
3082.000000	99.463519
3081.000000	99.466082
3080.000000	99.467406
3079.000000	99.466453
3078.000000	99.463316
3077.000000	99.459494
3076.000000	99.457306
3075.000000	99.458320
3074.000000	99.462284
3073.000000	99.467949
3072.000000	99.474475
3071.000000	99.481132
3070.000000	99.486213
3069.000000	99.487857
3068.000000	99.486087
3067.000000	99.482743
3066.000000	99.479033
3065.000000	99.474368
3064.000000	99.468393
3063.000000	99.463129
3062.000000	99.461996
3061.000000	99.466881
3060.000000	99.476352
3059.000000	99.486373
3058.000000	99.492614
3057.000000	99.492853
3056.000000	99.488016
3055.000000	99.480907
3054.000000	99.474126
3053.000000	99.469203
3052.000000	99.467000
3051.000000	99.467555
3050.000000	99.469190
3049.000000	99.469001
3048.000000	99.465138
3047.000000	99.458580
3046.000000	99.452453
3045.000000	99.449856
3044.000000	99.452089
3043.000000	99.457869
3042.000000	99.463580
3041.000000	99.465128
3040.000000	99.460611
3039.000000	99.451876
3038.000000	99.443345
3037.000000	99.439137
3036.000000	99.440616
3035.000000	99.445798
3034.000000	99.450756
3033.000000	99.452237
3032.000000	99.449549
3031.000000	99.444489
3030.000000	99.439858
3029.000000	99.438201
3028.000000	99.441089
3027.000000	99.448137
3026.000000	99.456553
3025.000000	99.462858
3024.000000	99.465773
3023.000000	99.466863
3022.000000	99.468047
3021.000000	99.469278
3020.000000	99.469124
3019.000000	99.467087
3018.000000	99.464693
3017.000000	99.464443
3016.000000	99.467778
3015.000000	99.473934
3014.000000	99.480646
3013.000000	99.486099
3012.000000	99.489861
3011.000000	99.491829
3010.000000	99.491061
3009.000000	99.486667
3008.000000	99.479602
3007.000000	99.472429
3006.000000	99.467342
3005.000000	99.465269
3004.000000	99.466685
3003.000000	99.471710
3002.000000	99.478736
3001.000000	99.484202
3000.000000	99.485038
2999.000000	99.481273
2998.000000	99.475729
2997.000000	99.471427
2996.000000	99.469664
2995.000000	99.470196
2994.000000	99.472341
2993.000000	99.475541
2992.000000	99.479088
2991.000000	99.481765
2990.000000	99.482169
2989.000000	99.479420
2988.000000	99.473399
2987.000000	99.464552
2986.000000	99.454346
2985.000000	99.446039
2984.000000	99.443604
2983.000000	99.448186
2982.000000	99.455983
2981.000000	99.460843
2980.000000	99.459470
2979.000000	99.453461
2978.000000	99.446923
2977.000000	99.443259
2976.000000	99.443835
2975.000000	99.447658
2974.000000	99.451515
2973.000000	99.451882
2972.000000	99.447826
2971.000000	99.441642
2970.000000	99.436278
2969.000000	99.432850
2968.000000	99.430833
2967.000000	99.429386
2966.000000	99.427601
2965.000000	99.424344
2964.000000	99.419023
2963.000000	99.412476
2962.000000	99.406707
2961.000000	99.403931
2960.000000	99.405756
2959.000000	99.412251
2958.000000	99.421297
2957.000000	99.429427
2956.000000	99.433946
2955.000000	99.434097
2954.000000	99.430771
2953.000000	99.426200
2952.000000	99.423677
2951.000000	99.425560
2950.000000	99.430680
2949.000000	99.435043
2948.000000	99.436288
2947.000000	99.436459
2946.000000	99.439249
2945.000000	99.445250
2944.000000	99.451231
2943.000000	99.453713
2942.000000	99.452052
2941.000000	99.448201
2940.000000	99.444511
2939.000000	99.442093
2938.000000	99.440423
2937.000000	99.437957
2936.000000	99.433109
2935.000000	99.425104
2934.000000	99.414520
2933.000000	99.403280
2932.000000	99.393309
2931.000000	99.384190
2930.000000	99.372467
2929.000000	99.354750
2928.000000	99.331717
2927.000000	99.307958
2926.000000	99.287521
2925.000000	99.270999
2924.000000	99.257261
2923.000000	99.246135
2922.000000	99.237927
2921.000000	99.231443
2920.000000	99.224468
2919.000000	99.216188
2918.000000	99.208549
2917.000000	99.205408
2916.000000	99.210552
2915.000000	99.225350
2914.000000	99.247078
2913.000000	99.269952
2912.000000	99.288992
2911.000000	99.303116
2910.000000	99.314284
2909.000000	99.324090
2908.000000	99.332275
2907.000000	99.338202
2906.000000	99.342863
2905.000000	99.348709
2904.000000	99.357613
2903.000000	99.368897
2902.000000	99.379516
2901.000000	99.385778
2900.000000	99.386878
2899.000000	99.384738
2898.000000	99.382294
2897.000000	99.381613
2896.000000	99.383487
2895.000000	99.387664
2894.000000	99.392983
2893.000000	99.397957
2892.000000	99.401821
2891.000000	99.404763
2890.000000	99.407076
2889.000000	99.408590
2888.000000	99.409047
2887.000000	99.408374
2886.000000	99.406460
2885.000000	99.403368
2884.000000	99.400014
2883.000000	99.397876
2882.000000	99.397751
2881.000000	99.399407
2880.000000	99.402585
2879.000000	99.407333
2878.000000	99.412901
2877.000000	99.417157
2876.000000	99.417833
2875.000000	99.413956
2874.000000	99.405882
2873.000000	99.394831
2872.000000	99.382917
2871.000000	99.372800
2870.000000	99.366300
2869.000000	99.363392
2868.000000	99.362806
2867.000000	99.363253
2866.000000	99.364085
2865.000000	99.365599
2864.000000	99.368853
2863.000000	99.374075
2862.000000	99.378632
2861.000000	99.377806
2860.000000	99.368804
2859.000000	99.353550
2858.000000	99.336869
2857.000000	99.322365
2856.000000	99.310469
2855.000000	99.299362
2854.000000	99.286517
2853.000000	99.269923
2852.000000	99.249515
2851.000000	99.228354
2850.000000	99.212076
2849.000000	99.206568
2848.000000	99.214855
2847.000000	99.234970
2846.000000	99.260515
2845.000000	99.284467
2844.000000	99.303431
2843.000000	99.318428
2842.000000	99.331923
2841.000000	99.344825
2840.000000	99.356457
2839.000000	99.366023
2838.000000	99.373362
2837.000000	99.378918
2836.000000	99.383445
2835.000000	99.387129
2834.000000	99.388769
2833.000000	99.386944
2832.000000	99.382677
2831.000000	99.379947
2830.000000	99.382440
2829.000000	99.390186
2828.000000	99.400000
2827.000000	99.408615
2826.000000	99.414751
2825.000000	99.418734
2824.000000	99.421208
2823.000000	99.422274
2822.000000	99.421535
2821.000000	99.418998
2820.000000	99.415803
2819.000000	99.413358
2818.000000	99.411829
2817.000000	99.410419
2816.000000	99.409200
2815.000000	99.409331
2814.000000	99.411038
2813.000000	99.412903
2812.000000	99.414065
2811.000000	99.415709
2810.000000	99.419102
2809.000000	99.423166
2808.000000	99.425513
2807.000000	99.425169
2806.000000	99.422981
2805.000000	99.420082
2804.000000	99.417423
2803.000000	99.416109
2802.000000	99.416311
2801.000000	99.416067
2800.000000	99.413059
2799.000000	99.407943
2798.000000	99.404376
2797.000000	99.405103
2796.000000	99.409189
2795.000000	99.413666
2794.000000	99.416764
2793.000000	99.418606
2792.000000	99.419649
2791.000000	99.419735
2790.000000	99.418715
2789.000000	99.417203
2788.000000	99.416222
2787.000000	99.416184
2786.000000	99.416371
2785.000000	99.415544
2784.000000	99.413184
2783.000000	99.410230
2782.000000	99.408563
2781.000000	99.409671
2780.000000	99.413438
2779.000000	99.417930
2778.000000	99.420635
2777.000000	99.420699
2776.000000	99.420077
2775.000000	99.421814
2774.000000	99.426771
2773.000000	99.432530
2772.000000	99.435809
2771.000000	99.435463
2770.000000	99.432781
2769.000000	99.429672
2768.000000	99.427334
2767.000000	99.426147
2766.000000	99.425892
2765.000000	99.426007
2764.000000	99.426148
2763.000000	99.426539
2762.000000	99.427364
2761.000000	99.427970
2760.000000	99.427260
2759.000000	99.424972
2758.000000	99.422161
2757.000000	99.420144
2756.000000	99.419173
2755.000000	99.418481
2754.000000	99.417688
2753.000000	99.417699
2752.000000	99.419522
2751.000000	99.422192
2750.000000	99.422956
2749.000000	99.420435
2748.000000	99.417111
2747.000000	99.417360
2746.000000	99.422829
2745.000000	99.430439
2744.000000	99.435118
2743.000000	99.433983
2742.000000	99.428255
2741.000000	99.422238
2740.000000	99.420464
2739.000000	99.424438
2738.000000	99.431346
2737.000000	99.436557
2736.000000	99.437841
2735.000000	99.436695
2734.000000	99.435671
2733.000000	99.435592
2732.000000	99.435623
2731.000000	99.434702
2730.000000	99.432043
2729.000000	99.427316
2728.000000	99.421484
2727.000000	99.416886
2726.000000	99.415495
2725.000000	99.417279
2724.000000	99.420772
2723.000000	99.424718
2722.000000	99.428467
2721.000000	99.431311
2720.000000	99.432408
2719.000000	99.431464
2718.000000	99.429157
2717.000000	99.426996
2716.000000	99.426619
2715.000000	99.428417
2714.000000	99.430622
2713.000000	99.430617
2712.000000	99.427645
2711.000000	99.423525
2710.000000	99.420371
2709.000000	99.418649
2708.000000	99.418041
2707.000000	99.418971
2706.000000	99.421899
2705.000000	99.425719
2704.000000	99.428369
2703.000000	99.429077
2702.000000	99.428938
2701.000000	99.429062
2700.000000	99.429037
2699.000000	99.427726
2698.000000	99.425098
2697.000000	99.422620
2696.000000	99.421697
2695.000000	99.422067
2694.000000	99.422258
2693.000000	99.421628
2692.000000	99.421216
2691.000000	99.422090
2690.000000	99.423612
2689.000000	99.424362
2688.000000	99.424259
2687.000000	99.424424
2686.000000	99.425137
2685.000000	99.425435
2684.000000	99.424886
2683.000000	99.424245
2682.000000	99.423811
2681.000000	99.422642
2680.000000	99.420184
2679.000000	99.417468
2678.000000	99.415737
2677.000000	99.414879
2676.000000	99.414146
2675.000000	99.413553
2674.000000	99.413622
2673.000000	99.414377
2672.000000	99.415482
2671.000000	99.416885
2670.000000	99.418685
2669.000000	99.420838
2668.000000	99.423308
2667.000000	99.425692
2666.000000	99.426409
2665.000000	99.423523
2664.000000	99.417152
2663.000000	99.409921
2662.000000	99.404230
2661.000000	99.400145
2660.000000	99.396825
2659.000000	99.394488
2658.000000	99.393379
2657.000000	99.391992
2656.000000	99.388509
2655.000000	99.383786
2654.000000	99.381017
2653.000000	99.382270
2652.000000	99.386682
2651.000000	99.392204
2650.000000	99.397738
2649.000000	99.403161
2648.000000	99.408457
2647.000000	99.413515
2646.000000	99.418295
2645.000000	99.422686
2644.000000	99.426310
2643.000000	99.428503
2642.000000	99.428602
2641.000000	99.426591
2640.000000	99.423508
2639.000000	99.420539
2638.000000	99.417696
2637.000000	99.414457
2636.000000	99.411839
2635.000000	99.412179
2634.000000	99.415967
2633.000000	99.420618
2632.000000	99.423741
2631.000000	99.426295
2630.000000	99.430717
2629.000000	99.436959
2628.000000	99.442333
2627.000000	99.444597
2626.000000	99.443438
2625.000000	99.439596
2624.000000	99.434562
2623.000000	99.430721
2622.000000	99.429713
2621.000000	99.430559
2620.000000	99.431091
2619.000000	99.431217
2618.000000	99.433151
2617.000000	99.438205
2616.000000	99.444848
2615.000000	99.450240
2614.000000	99.452621
2613.000000	99.452386
2612.000000	99.451969
2611.000000	99.454352
2610.000000	99.460208
2609.000000	99.466603
2608.000000	99.469747
2607.000000	99.468961
2606.000000	99.466809
2605.000000	99.465784
2604.000000	99.466292
2603.000000	99.467221
2602.000000	99.466744
2601.000000	99.462856
2600.000000	99.455081
2599.000000	99.445862
2598.000000	99.438820
2597.000000	99.435648
2596.000000	99.435933
2595.000000	99.439251
2594.000000	99.445155
2593.000000	99.451367
2592.000000	99.454806
2591.000000	99.455388
2590.000000	99.456734
2589.000000	99.461854
2588.000000	99.469227
2587.000000	99.474085
2586.000000	99.472733
2585.000000	99.465453
2584.000000	99.456572
2583.000000	99.451959
2582.000000	99.454774
2581.000000	99.462683
2580.000000	99.469807
2579.000000	99.471811
2578.000000	99.468376
2577.000000	99.461331
2576.000000	99.452572
2575.000000	99.444228
2574.000000	99.438711
2573.000000	99.437075
2572.000000	99.438346
2571.000000	99.441340
2570.000000	99.445905
2569.000000	99.451434
2568.000000	99.455597
2567.000000	99.456378
2566.000000	99.454700
2565.000000	99.453545
2564.000000	99.454449
2563.000000	99.455970
2562.000000	99.455543
2561.000000	99.451957
2560.000000	99.446154
2559.000000	99.440615
2558.000000	99.438308
2557.000000	99.441486
2556.000000	99.450687
2555.000000	99.464698
2554.000000	99.481041
2553.000000	99.495849
2552.000000	99.503597
2551.000000	99.499012
2550.000000	99.481557
2549.000000	99.458520
2548.000000	99.441834
2547.000000	99.439635
2546.000000	99.449908
2545.000000	99.462680
2544.000000	99.468378
2543.000000	99.464581
2542.000000	99.456033
2541.000000	99.449739
2540.000000	99.449704
2539.000000	99.454554
2538.000000	99.458856
2537.000000	99.457214
2536.000000	99.448150
2535.000000	99.434635
2534.000000	99.421437
2533.000000	99.412400
2532.000000	99.409349
2531.000000	99.411620
2530.000000	99.415782
2529.000000	99.416916
2528.000000	99.411979
2527.000000	99.402640
2526.000000	99.394643
2525.000000	99.393448
2524.000000	99.399255
2523.000000	99.405529
2522.000000	99.403520
2521.000000	99.389979
2520.000000	99.370845
2519.000000	99.356395
2518.000000	99.352639
2517.000000	99.357551
2516.000000	99.364893
2515.000000	99.369759
2514.000000	99.370359
2513.000000	99.366504
2512.000000	99.358290
2511.000000	99.346470
2510.000000	99.333508
2509.000000	99.323675
2508.000000	99.320820
2507.000000	99.325063
2506.000000	99.332349
2505.000000	99.338454
2504.000000	99.343164
2503.000000	99.349346
2502.000000	99.358467
2501.000000	99.368918
2500.000000	99.378588
2499.000000	99.387169
2498.000000	99.395225
2497.000000	99.402548
2496.000000	99.407953
2495.000000	99.409832
2494.000000	99.406644
2493.000000	99.398289
2492.000000	99.387620
2491.000000	99.379572
2490.000000	99.378377
2489.000000	99.385707
2488.000000	99.400516
2487.000000	99.418900
2486.000000	99.434912
2485.000000	99.444098
2484.000000	99.447243
2483.000000	99.449104
2482.000000	99.453019
2481.000000	99.458245
2480.000000	99.462314
2479.000000	99.463960
2478.000000	99.463299
2477.000000	99.461452
2476.000000	99.460823
2475.000000	99.463737
2474.000000	99.469831
2473.000000	99.476368
2472.000000	99.481655
2471.000000	99.486091
2470.000000	99.489231
2469.000000	99.488575
2468.000000	99.483240
2467.000000	99.476743
2466.000000	99.473615
2465.000000	99.474082
2464.000000	99.474024
2463.000000	99.469636
2462.000000	99.460708
2461.000000	99.450026
2460.000000	99.441300
2459.000000	99.437585
2458.000000	99.440064
2457.000000	99.447352
2456.000000	99.456280
2455.000000	99.463831
2454.000000	99.468700
2453.000000	99.471558
2452.000000	99.473919
2451.000000	99.476689
2450.000000	99.479811
2449.000000	99.483200
2448.000000	99.487203
2447.000000	99.491714
2446.000000	99.495733
2445.000000	99.498408
2444.000000	99.499466
2443.000000	99.497912
2442.000000	99.492262
2441.000000	99.483804
2440.000000	99.477715
2439.000000	99.477999
2438.000000	99.481971
2437.000000	99.482414
2436.000000	99.475142
2435.000000	99.462453
2434.000000	99.449925
2433.000000	99.442405
2432.000000	99.442214
2431.000000	99.447869
2430.000000	99.454516
2429.000000	99.458592
2428.000000	99.462322
2427.000000	99.470841
2426.000000	99.484868
2425.000000	99.499535
2424.000000	99.510449
2423.000000	99.517035
2422.000000	99.519004
2421.000000	99.513943
2420.000000	99.501086
2419.000000	99.484834
2418.000000	99.471812
2417.000000	99.465692
2416.000000	99.466241
2415.000000	99.471557
2414.000000	99.479517
2413.000000	99.488465
2412.000000	99.497850
2411.000000	99.507117
2410.000000	99.513729
2409.000000	99.514467
2408.000000	99.509906
2407.000000	99.505384
2406.000000	99.505814
2405.000000	99.510921
2404.000000	99.516822
2403.000000	99.520815
2402.000000	99.523008
2401.000000	99.524429
2400.000000	99.525117
2399.000000	99.523980
2398.000000	99.520113
2397.000000	99.514684
2396.000000	99.511075
2395.000000	99.511629
2394.000000	99.514148
2393.000000	99.513448
2392.000000	99.506796
2391.000000	99.496594
2390.000000	99.487248
2389.000000	99.480686
2388.000000	99.475840
2387.000000	99.470670
2386.000000	99.465214
2385.000000	99.463006
2384.000000	99.469005
2383.000000	99.485248
2382.000000	99.506936
2381.000000	99.525901
2380.000000	99.536908
2379.000000	99.539841
2378.000000	99.537069
2377.000000	99.530314
2376.000000	99.520538
2375.000000	99.509005
2374.000000	99.500279
2373.000000	99.503077
2372.000000	99.523596
2371.000000	99.554556
2370.000000	99.577436
2369.000000	99.581972
2368.000000	99.575185
2367.000000	99.568990
2366.000000	99.565218
2365.000000	99.559430
2364.000000	99.551379
2363.000000	99.541356
2362.000000	99.524869
2361.000000	99.499425
2360.000000	99.470613
2359.000000	99.448832
2358.000000	99.443154
2357.000000	99.457863
2356.000000	99.485634
2355.000000	99.508852
2354.000000	99.523808
2353.000000	99.538911
2352.000000	99.551145
2351.000000	99.544667
2350.000000	99.517246
2349.000000	99.483249
2348.000000	99.461494
2347.000000	99.465629
2346.000000	99.489909
2345.000000	99.505109
2344.000000	99.489367
2343.000000	99.453166
2342.000000	99.423803
2341.000000	99.418268
2340.000000	99.430602
2339.000000	99.444783
2338.000000	99.453633
2337.000000	99.460145
2336.000000	99.465017
2335.000000	99.467311
2334.000000	99.471223
2333.000000	99.483640
2332.000000	99.498913
2331.000000	99.505837
2330.000000	99.499336
2329.000000	99.483944
2328.000000	99.460196
2327.000000	99.427052
2326.000000	99.389062
2325.000000	99.358294
2324.000000	99.343269
2323.000000	99.343220
2322.000000	99.347996
2321.000000	99.347133
2320.000000	99.336127
2319.000000	99.319622
2318.000000	99.304188
2317.000000	99.296238
2316.000000	99.299671
2315.000000	99.316907
2314.000000	99.342500
2313.000000	99.366820
2312.000000	99.382825
2311.000000	99.392751
2310.000000	99.399492
2309.000000	99.401367
2308.000000	99.396310
2307.000000	99.390409
2306.000000	99.391055
2305.000000	99.397342
2304.000000	99.400898
2303.000000	99.398231
2302.000000	99.392867
2301.000000	99.388698
2300.000000	99.385128
2299.000000	99.382782
2298.000000	99.384428
2297.000000	99.391435
2296.000000	99.399016
2295.000000	99.401543
2294.000000	99.397695
2293.000000	99.391366
2292.000000	99.386434
2291.000000	99.383318
2290.000000	99.379309
2289.000000	99.372896
2288.000000	99.366820
2287.000000	99.365080
2286.000000	99.367357
2285.000000	99.370024
2284.000000	99.374142
2283.000000	99.385649
2282.000000	99.404777
2281.000000	99.421312
2280.000000	99.427875
2279.000000	99.431883
2278.000000	99.445227
2277.000000	99.465266
2276.000000	99.476104
2275.000000	99.468780
2274.000000	99.450953
2273.000000	99.435967
2272.000000	99.430727
2271.000000	99.436953
2270.000000	99.454978
2269.000000	99.480787
2268.000000	99.504041
2267.000000	99.515476
2266.000000	99.515054
2265.000000	99.510334
2264.000000	99.507928
2263.000000	99.506976
2262.000000	99.499778
2261.000000	99.479277
2260.000000	99.448753
2259.000000	99.423245
2258.000000	99.418347
2257.000000	99.437386
2256.000000	99.471121
2255.000000	99.507067
2254.000000	99.535221
2253.000000	99.548073
2252.000000	99.543202
2251.000000	99.526912
2250.000000	99.509839
2249.000000	99.497861
2248.000000	99.490594
2247.000000	99.487355
2246.000000	99.490515
2245.000000	99.501087
2244.000000	99.515112
2243.000000	99.526342
2242.000000	99.530843
2241.000000	99.529236
2240.000000	99.526766
2239.000000	99.530338
2238.000000	99.542861
2237.000000	99.560566
2236.000000	99.577407
2235.000000	99.590707
2234.000000	99.600838
2233.000000	99.607819
2232.000000	99.610779
2231.000000	99.608603
2230.000000	99.599103
2229.000000	99.580874
2228.000000	99.558091
2227.000000	99.539038
2226.000000	99.526876
2225.000000	99.516425
2224.000000	99.504095
2223.000000	99.495404
2222.000000	99.496325
2221.000000	99.501441
2220.000000	99.499330
2219.000000	99.488894
2218.000000	99.481536
2217.000000	99.484669
2216.000000	99.489160
2215.000000	99.479235
2214.000000	99.454794
2213.000000	99.439091
2212.000000	99.458647
2211.000000	99.513249
2210.000000	99.570809
2209.000000	99.596881
2208.000000	99.586480
2207.000000	99.561471
2206.000000	99.542104
2205.000000	99.533633
2204.000000	99.536284
2203.000000	99.550343
2202.000000	99.566714
2201.000000	99.568986
2200.000000	99.555498
2199.000000	99.547381
2198.000000	99.563498
2197.000000	99.595322
2196.000000	99.616111
2195.000000	99.607951
2194.000000	99.571938
2193.000000	99.521819
2192.000000	99.478467
2191.000000	99.461740
2190.000000	99.475074
2189.000000	99.501495
2188.000000	99.523404
2187.000000	99.541490
2186.000000	99.565996
2185.000000	99.598614
2184.000000	99.634122
2183.000000	99.670102
2182.000000	99.699631
2181.000000	99.702965
2180.000000	99.666316
2179.000000	99.605504
2178.000000	99.554061
2177.000000	99.529067
2176.000000	99.520569
2175.000000	99.512493
2174.000000	99.501725
2173.000000	99.494917
2172.000000	99.497019
2171.000000	99.506582
2170.000000	99.516050
2169.000000	99.516730
2168.000000	99.509784
2167.000000	99.510006
2166.000000	99.529306
2165.000000	99.556972
2164.000000	99.565516
2163.000000	99.541869
2162.000000	99.509690
2161.000000	99.521003
2160.000000	99.621540
2159.000000	99.804854
2158.000000	99.994728
2157.000000	100.098947
2156.000000	100.091249
2155.000000	100.019655
2154.000000	99.942609
2153.000000	99.879449
2152.000000	99.816049
2151.000000	99.738256
2150.000000	99.653291
2149.000000	99.586194
2148.000000	99.562140
2147.000000	99.587891
2146.000000	99.644385
2145.000000	99.698280
2144.000000	99.725889
2143.000000	99.726407
2142.000000	99.712564
2141.000000	99.695089
2140.000000	99.678107
2139.000000	99.663502
2138.000000	99.654780
2137.000000	99.657041
2136.000000	99.672304
2135.000000	99.692564
2134.000000	99.701275
2133.000000	99.688876
2132.000000	99.665274
2131.000000	99.650117
2130.000000	99.652013
2129.000000	99.663328
2128.000000	99.671879
2127.000000	99.669660
2126.000000	99.652171
2125.000000	99.620903
2124.000000	99.589090
2123.000000	99.574050
2122.000000	99.578366
2121.000000	99.585636
2120.000000	99.580460
2119.000000	99.566078
2118.000000	99.556560
2117.000000	99.558271
2116.000000	99.565520
2115.000000	99.569568
2114.000000	99.563767
2113.000000	99.543787
2112.000000	99.512302
2111.000000	99.483810
2110.000000	99.477108
2109.000000	99.499521
2108.000000	99.539809
2107.000000	99.577473
2106.000000	99.597842
2105.000000	99.600097
2104.000000	99.594621
2103.000000	99.593025
2102.000000	99.598477
2101.000000	99.604944
2100.000000	99.604318
2099.000000	99.592509
2098.000000	99.570574
2097.000000	99.545575
2096.000000	99.530646
2095.000000	99.537259
2094.000000	99.563540
2093.000000	99.593379
2092.000000	99.609611
2091.000000	99.606044
2090.000000	99.587192
2089.000000	99.561740
2088.000000	99.537893
2087.000000	99.520613
2086.000000	99.511271
2085.000000	99.511001
2084.000000	99.522187
2083.000000	99.542308
2082.000000	99.559214
2081.000000	99.561110
2080.000000	99.552469
2079.000000	99.551658
2078.000000	99.569251
2077.000000	99.595673
2076.000000	99.613916
2075.000000	99.617366
2074.000000	99.610656
2073.000000	99.599470
2072.000000	99.585836
2071.000000	99.569889
2070.000000	99.552070
2069.000000	99.535347
2068.000000	99.525749
2067.000000	99.526963
2066.000000	99.534855
2065.000000	99.542052
2064.000000	99.547446
2063.000000	99.555071
2062.000000	99.565217
2061.000000	99.575091
2060.000000	99.585420
2059.000000	99.596714
2058.000000	99.601923
2057.000000	99.595455
2056.000000	99.587184
2055.000000	99.592022
2054.000000	99.605580
2053.000000	99.608090
2052.000000	99.595533
2051.000000	99.588035
2050.000000	99.601311
2049.000000	99.625722
2048.000000	99.644050
2047.000000	99.655292
2046.000000	99.664841
2045.000000	99.667365
2044.000000	99.658248
2043.000000	99.647389
2042.000000	99.645615
2041.000000	99.650685
2040.000000	99.659722
2039.000000	99.679066
2038.000000	99.706302
2037.000000	99.720422
2036.000000	99.709460
2035.000000	99.694784
2034.000000	99.706644
2033.000000	99.747163
2032.000000	99.794102
2031.000000	99.828792
2030.000000	99.842968
2029.000000	99.833695
2028.000000	99.811224
2027.000000	99.796219
2026.000000	99.793767
2025.000000	99.786143
2024.000000	99.764735
2023.000000	99.749866
2022.000000	99.762066
2021.000000	99.791235
2020.000000	99.812099
2019.000000	99.815033
2018.000000	99.803641
2017.000000	99.777835
2016.000000	99.740904
2015.000000	99.710448
2014.000000	99.703581
2013.000000	99.719642
2012.000000	99.744341
2011.000000	99.761131
2010.000000	99.754083
2009.000000	99.719034
2008.000000	99.683494
2007.000000	99.691593
2006.000000	99.751253
2005.000000	99.815976
2004.000000	99.836871
2003.000000	99.813849
2002.000000	99.778658
2001.000000	99.750183
2000.000000	99.724296
1999.000000	99.694937
1998.000000	99.668020
1997.000000	99.656674
1996.000000	99.670291
1995.000000	99.704825
1994.000000	99.738582
1993.000000	99.744152
1992.000000	99.716130
1991.000000	99.680506
1990.000000	99.663612
1989.000000	99.664826
1988.000000	99.667687
1987.000000	99.662911
1986.000000	99.652117
1985.000000	99.639624
1984.000000	99.629017
1983.000000	99.619773
1982.000000	99.603687
1981.000000	99.576983
1980.000000	99.558751
1979.000000	99.577972
1978.000000	99.630980
1977.000000	99.672786
1976.000000	99.673786
1975.000000	99.662320
1974.000000	99.683178
1973.000000	99.740538
1972.000000	99.804619
1971.000000	99.853945
1970.000000	99.885958
1969.000000	99.899072
1968.000000	99.889433
1967.000000	99.862627
1966.000000	99.830254
1965.000000	99.797201
1964.000000	99.766539
1963.000000	99.751084
1962.000000	99.765783
1961.000000	99.807260
1960.000000	99.848761
1959.000000	99.860087
1958.000000	99.831165
1957.000000	99.779398
1956.000000	99.735620
1955.000000	99.717568
1954.000000	99.716683
1953.000000	99.714370
1952.000000	99.706780
1951.000000	99.703393
1950.000000	99.706056
1949.000000	99.706659
1948.000000	99.706494
1947.000000	99.718743
1946.000000	99.744692
1945.000000	99.763876
1944.000000	99.757744
1943.000000	99.732504
1942.000000	99.710153
1941.000000	99.704721
1940.000000	99.715695
1939.000000	99.735661
1938.000000	99.753041
1937.000000	99.754928
1936.000000	99.739962
1935.000000	99.723045
1934.000000	99.718525
1933.000000	99.724497
1932.000000	99.730936
1931.000000	99.735020
1930.000000	99.739037
1929.000000	99.741620
1928.000000	99.741371
1927.000000	99.743187
1926.000000	99.750910
1925.000000	99.758976
1924.000000	99.758047
1923.000000	99.746988
1922.000000	99.733139
1921.000000	99.722132
1920.000000	99.714046
1919.000000	99.707686
1918.000000	99.701458
1917.000000	99.693886
1916.000000	99.687554
1915.000000	99.686738
1914.000000	99.692002
1913.000000	99.699687
1912.000000	99.706477
1911.000000	99.712286
1910.000000	99.716987
1909.000000	99.719380
1908.000000	99.721408
1907.000000	99.726334
1906.000000	99.731380
1905.000000	99.730288
1904.000000	99.722709
1903.000000	99.714135
1902.000000	99.706824
1901.000000	99.699663
1900.000000	99.695862
1899.000000	99.701073
1898.000000	99.712282
1897.000000	99.717288
1896.000000	99.709358
1895.000000	99.696296
1894.000000	99.689721
1893.000000	99.691710
1892.000000	99.696112
1891.000000	99.695930
1890.000000	99.686329
1889.000000	99.668718
1888.000000	99.653687
1887.000000	99.649044
1886.000000	99.650267
1885.000000	99.649034
1884.000000	99.645488
1883.000000	99.646834
1882.000000	99.655603
1881.000000	99.667612
1880.000000	99.679711
1879.000000	99.691146
1878.000000	99.698553
1877.000000	99.699504
1876.000000	99.701452
1875.000000	99.715101
1874.000000	99.737017
1873.000000	99.750107
1872.000000	99.745180
1871.000000	99.731317
1870.000000	99.720835
1869.000000	99.712998
1868.000000	99.703707
1867.000000	99.699444
1866.000000	99.702837
1865.000000	99.705957
1864.000000	99.702251
1863.000000	99.692836
1862.000000	99.681305
1861.000000	99.669342
1860.000000	99.660413
1859.000000	99.660613
1858.000000	99.671017
1857.000000	99.685367
1856.000000	99.698592
1855.000000	99.710164
1854.000000	99.718497
1853.000000	99.719767
1852.000000	99.713663
1851.000000	99.705320
1850.000000	99.698435
1849.000000	99.692612
1848.000000	99.688673
1847.000000	99.690631
1846.000000	99.698127
1845.000000	99.701953
1844.000000	99.694621
1843.000000	99.684029
1842.000000	99.680922
1841.000000	99.685800
1840.000000	99.695185
1839.000000	99.705246
1838.000000	99.710307
1837.000000	99.706452
1836.000000	99.697593
1835.000000	99.691779
1834.000000	99.691101
1833.000000	99.690298
1832.000000	99.683779
1831.000000	99.672158
1830.000000	99.660804
1829.000000	99.654886
1828.000000	99.654897
1827.000000	99.656858
1826.000000	99.658496
1825.000000	99.660319
1824.000000	99.665276
1823.000000	99.675048
1822.000000	99.684190
1821.000000	99.686089
1820.000000	99.682147
1819.000000	99.681120
1818.000000	99.687487
1817.000000	99.695930
1816.000000	99.700016
1815.000000	99.698588
1814.000000	99.691193
1813.000000	99.676916
1812.000000	99.660476
1811.000000	99.651954
1810.000000	99.652893
1809.000000	99.651169
1808.000000	99.639359
1807.000000	99.623734
1806.000000	99.609100
1805.000000	99.589292
1804.000000	99.558289
1803.000000	99.520213
1802.000000	99.483277
1801.000000	99.448848
1800.000000	99.416342
1799.000000	99.389153
1798.000000	99.366533
1797.000000	99.344447
1796.000000	99.326443
1795.000000	99.322061
1794.000000	99.334554
1793.000000	99.354400
1792.000000	99.369878
1791.000000	99.385720
1790.000000	99.411306
1789.000000	99.441361
1788.000000	99.467595
1787.000000	99.489976
1786.000000	99.512987
1785.000000	99.538177
1784.000000	99.564722
1783.000000	99.591232
1782.000000	99.614371
1781.000000	99.628328
1780.000000	99.632853
1779.000000	99.636069
1778.000000	99.642079
1777.000000	99.646076
1776.000000	99.644934
1775.000000	99.643704
1774.000000	99.650183
1773.000000	99.664860
1772.000000	99.678944
1771.000000	99.688350
1770.000000	99.693884
1769.000000	99.693023
1768.000000	99.685608
1767.000000	99.678533
1766.000000	99.677550
1765.000000	99.678156
1764.000000	99.674884
1763.000000	99.669096
1762.000000	99.666054
1761.000000	99.668040
1760.000000	99.672661
1759.000000	99.677209
1758.000000	99.680876
1757.000000	99.682295
1756.000000	99.681609
1755.000000	99.683411
1754.000000	99.691893
1753.000000	99.707995
1752.000000	99.728016
1751.000000	99.741333
1750.000000	99.739249
1749.000000	99.726513
1748.000000	99.713892
1747.000000	99.709846
1746.000000	99.715690
1745.000000	99.724199
1744.000000	99.726940
1743.000000	99.724289
1742.000000	99.725342
1741.000000	99.735436
1740.000000	99.750216
1739.000000	99.762708
1738.000000	99.771467
1737.000000	99.778737
1736.000000	99.791639
1735.000000	99.819366
1734.000000	99.853832
1733.000000	99.876674
1732.000000	99.885109
1731.000000	99.883300
1730.000000	99.877918
1729.000000	99.876617
1728.000000	99.884120
1727.000000	99.898359
1726.000000	99.914364
1725.000000	99.927901
1724.000000	99.937771
1723.000000	99.944014
1722.000000	99.944563
1721.000000	99.935923
1720.000000	99.920057
1719.000000	99.907408
1718.000000	99.904867
1717.000000	99.896676
1716.000000	99.871541
1715.000000	99.842269
1714.000000	99.817024
1713.000000	99.795546
1712.000000	99.777660
1711.000000	99.763599
1710.000000	99.751146
1709.000000	99.735193
1708.000000	99.711804
1707.000000	99.684225
1706.000000	99.657352
1705.000000	99.631688
1704.000000	99.608945
1703.000000	99.592715
1702.000000	99.585124
1701.000000	99.579104
1700.000000	99.565142
1699.000000	99.557593
1698.000000	99.556230
1697.000000	99.541066
1696.000000	99.506827
1695.000000	99.479178
1694.000000	99.472180
1693.000000	99.466309
1692.000000	99.452325
1691.000000	99.434751
1690.000000	99.417347
1689.000000	99.399087
1688.000000	99.380182
1687.000000	99.366271
1686.000000	99.360409
1685.000000	99.350786
1684.000000	99.317654
1683.000000	99.283821
1682.000000	99.271026
1681.000000	99.262779
1680.000000	99.252327
1679.000000	99.242781
1678.000000	99.234696
1677.000000	99.223353
1676.000000	99.206540
1675.000000	99.187866
1674.000000	99.172718
1673.000000	99.157110
1672.000000	99.136741
1671.000000	99.116236
1670.000000	99.099408
1669.000000	99.085470
1668.000000	99.075112
1667.000000	99.066579
1666.000000	99.057132
1665.000000	99.045854
1664.000000	99.033229
1663.000000	99.019634
1662.000000	99.006034
1661.000000	98.993494
1660.000000	98.982219
1659.000000	98.971325
1658.000000	98.956446
1657.000000	98.931950
1656.000000	98.900147
1655.000000	98.875770
1654.000000	98.867654
1653.000000	98.867674
1652.000000	98.889226
1651.000000	98.913627
1650.000000	98.916341
1649.000000	98.909407
1648.000000	98.903828
1647.000000	98.904826
1646.000000	98.916284
1645.000000	98.939522
1644.000000	98.963035
1643.000000	98.982025
1642.000000	98.998576
1641.000000	99.010345
1640.000000	99.014334
1639.000000	99.013996
1638.000000	99.015432
1637.000000	99.019351
1636.000000	99.019014
1635.000000	99.020673
1634.000000	99.037167
1633.000000	99.059071
1632.000000	99.079165
1631.000000	99.097791
1630.000000	99.111773
1629.000000	99.116648
1628.000000	99.115531
1627.000000	99.117631
1626.000000	99.127885
1625.000000	99.144820
1624.000000	99.165572
1623.000000	99.185325
1622.000000	99.198615
1621.000000	99.204632
1620.000000	99.206344
1619.000000	99.208444
1618.000000	99.212930
1617.000000	99.217697
1616.000000	99.226057
1615.000000	99.240433
1614.000000	99.251899
1613.000000	99.256415
1612.000000	99.258323
1611.000000	99.261016
1610.000000	99.261912
1609.000000	99.259036
1608.000000	99.257659
1607.000000	99.262855
1606.000000	99.272026
1605.000000	99.279397
1604.000000	99.283829
1603.000000	99.286962
1602.000000	99.286926
1601.000000	99.280874
1600.000000	99.270932
1599.000000	99.261498
1598.000000	99.253613
1597.000000	99.245791
1596.000000	99.239510
1595.000000	99.238107
1594.000000	99.239918
1593.000000	99.239747
1592.000000	99.236071
1591.000000	99.230361
1590.000000	99.221960
1589.000000	99.210290
1588.000000	99.198580
1587.000000	99.189134
1586.000000	99.178795
1585.000000	99.164958
1584.000000	99.150502
1583.000000	99.139289
1582.000000	99.129049
1581.000000	99.115443
1580.000000	99.100631
1579.000000	99.091515
1578.000000	99.091733
1577.000000	99.099062
1576.000000	99.112858
1575.000000	99.135564
1574.000000	99.159380
1573.000000	99.175723
1572.000000	99.187434
1571.000000	99.201147
1570.000000	99.215878
1569.000000	99.229162
1568.000000	99.245969
1567.000000	99.267239
1566.000000	99.288039
1565.000000	99.304115
1564.000000	99.311685
1563.000000	99.308284
1562.000000	99.293055
1561.000000	99.272296
1560.000000	99.262894
1559.000000	99.255139
1558.000000	99.230681
1557.000000	99.219560
1556.000000	99.200079
1555.000000	99.164416
1554.000000	99.117706
1553.000000	99.064491
1552.000000	99.003878
1551.000000	98.935385
1550.000000	98.860455
1549.000000	98.786520
1548.000000	98.720231
1547.000000	98.655977
1546.000000	98.581418
1545.000000	98.488058
1544.000000	98.381737
1543.000000	98.282625
1542.000000	98.200446
1541.000000	98.117493
1540.000000	98.020522
1539.000000	97.948281
1538.000000	97.916200
1537.000000	97.887061
1536.000000	97.846464
1535.000000	97.797779
1534.000000	97.738910
1533.000000	97.668571
1532.000000	97.604943
1531.000000	97.558052
1530.000000	97.510878
1529.000000	97.445852
1528.000000	97.364558
1527.000000	97.283576
1526.000000	97.213330
1525.000000	97.147900
1524.000000	97.080106
1523.000000	97.009576
1522.000000	96.929028
1521.000000	96.832252
1520.000000	96.743648
1519.000000	96.676837
1518.000000	96.611354
1517.000000	96.527220
1516.000000	96.435781
1515.000000	96.364641
1514.000000	96.309482
1513.000000	96.244353
1512.000000	96.157263
1511.000000	96.058743
1510.000000	95.965196
1509.000000	95.881158
1508.000000	95.794931
1507.000000	95.679051
1506.000000	95.562372
1505.000000	95.495395
1504.000000	95.441086
1503.000000	95.375322
1502.000000	95.297909
1501.000000	95.209189
1500.000000	95.112381
1499.000000	95.015620
1498.000000	94.922604
1497.000000	94.825893
1496.000000	94.728079
1495.000000	94.646474
1494.000000	94.580336
1493.000000	94.511952
1492.000000	94.431770
1491.000000	94.342300
1490.000000	94.247755
1489.000000	94.149669
1488.000000	94.058602
1487.000000	93.984051
1486.000000	93.917540
1485.000000	93.847987
1484.000000	93.774792
1483.000000	93.701089
1482.000000	93.626144
1481.000000	93.547285
1480.000000	93.466811
1479.000000	93.388070
1478.000000	93.307942
1477.000000	93.222479
1476.000000	93.136368
1475.000000	93.059694
1474.000000	92.990660
1473.000000	92.914966
1472.000000	92.836230
1471.000000	92.778841
1470.000000	92.738779
1469.000000	92.692470
1468.000000	92.631317
1467.000000	92.562003
1466.000000	92.491685
1465.000000	92.420734
1464.000000	92.353240
1463.000000	92.295532
1462.000000	92.239262
1461.000000	92.169763
1460.000000	92.083272
1459.000000	91.990629
1458.000000	91.906328
1457.000000	91.835874
1456.000000	91.785069
1455.000000	91.750370
1454.000000	91.711003
1453.000000	91.658291
1452.000000	91.596962
1451.000000	91.534819
1450.000000	91.472053
1449.000000	91.403821
1448.000000	91.332603
1447.000000	91.269453
1446.000000	91.218595
1445.000000	91.171313
1444.000000	91.121756
1443.000000	91.072395
1442.000000	91.022730
1441.000000	90.966255
1440.000000	90.899407
1439.000000	90.826338
1438.000000	90.756288
1437.000000	90.698392
1436.000000	90.657739
1435.000000	90.629162
1434.000000	90.596418
1433.000000	90.546436
1432.000000	90.480326
1431.000000	90.406844
1430.000000	90.332988
1429.000000	90.261818
1428.000000	90.196096
1427.000000	90.136045
1426.000000	90.077390
1425.000000	90.017969
1424.000000	89.960003
1423.000000	89.903770
1422.000000	89.843103
1421.000000	89.769881
1420.000000	89.683808
1419.000000	89.594189
1418.000000	89.515366
1417.000000	89.452338
1416.000000	89.397816
1415.000000	89.345368
1414.000000	89.289540
1413.000000	89.226801
1412.000000	89.160934
1411.000000	89.098799
1410.000000	89.041580
1409.000000	88.984623
1408.000000	88.925481
1407.000000	88.865330
1406.000000	88.804063
1405.000000	88.741615
1404.000000	88.683201
1403.000000	88.632558
1402.000000	88.582486
1401.000000	88.524303
1400.000000	88.461761
1399.000000	88.404437
1398.000000	88.352147
1397.000000	88.297809
1396.000000	88.243476
1395.000000	88.198895
1394.000000	88.165749
1393.000000	88.135249
1392.000000	88.098723
1391.000000	88.054915
1390.000000	88.004394
1389.000000	87.947365
1388.000000	87.889508
1387.000000	87.838557
1386.000000	87.793434
1385.000000	87.746406
1384.000000	87.695280
1383.000000	87.643658
1382.000000	87.590142
1381.000000	87.528195
1380.000000	87.458980
1379.000000	87.390931
1378.000000	87.325364
1377.000000	87.255524
1376.000000	87.180819
1375.000000	87.110571
1374.000000	87.052955
1373.000000	87.010004
1372.000000	86.982352
1371.000000	86.968778
1370.000000	86.963765
1369.000000	86.964939
1368.000000	86.977044
1367.000000	87.003126
1366.000000	87.036619
1365.000000	87.071279
1364.000000	87.115400
1363.000000	87.183061
1362.000000	87.271898
1361.000000	87.369655
1360.000000	87.475544
1359.000000	87.595268
1358.000000	87.725923
1357.000000	87.859031
1356.000000	87.994150
1355.000000	88.136852
1354.000000	88.285346
1353.000000	88.431458
1352.000000	88.574465
1351.000000	88.721397
1350.000000	88.873623
1349.000000	89.027533
1348.000000	89.183021
1347.000000	89.341982
1346.000000	89.501195
1345.000000	89.655587
1344.000000	89.804410
1343.000000	89.949080
1342.000000	90.090205
1341.000000	90.232482
1340.000000	90.384295
1339.000000	90.545083
1338.000000	90.703702
1337.000000	90.854785
1336.000000	91.003743
1335.000000	91.154244
1334.000000	91.300981
1333.000000	91.439112
1332.000000	91.572883
1331.000000	91.708013
1330.000000	91.843026
1329.000000	91.975278
1328.000000	92.107479
1327.000000	92.241122
1326.000000	92.371197
1325.000000	92.495202
1324.000000	92.617416
1323.000000	92.740054
1322.000000	92.858929
1321.000000	92.972452
1320.000000	93.085985
1319.000000	93.201906
1318.000000	93.313214
1317.000000	93.413539
1316.000000	93.506308
1315.000000	93.599113
1314.000000	93.695710
1313.000000	93.796350
1312.000000	93.899936
1311.000000	94.002258
1310.000000	94.097320
1309.000000	94.183991
1308.000000	94.267370
1307.000000	94.352404
1306.000000	94.439588
1305.000000	94.528509
1304.000000	94.618578
1303.000000	94.706349
1302.000000	94.787821
1301.000000	94.864220
1300.000000	94.940225
1299.000000	95.016844
1298.000000	95.091650
1297.000000	95.164844
1296.000000	95.238932
1295.000000	95.312293
1294.000000	95.380137
1293.000000	95.441412
1292.000000	95.498690
1291.000000	95.552498
1290.000000	95.601831
1289.000000	95.649300
1288.000000	95.698483
1287.000000	95.746722
1286.000000	95.788103
1285.000000	95.823242
1284.000000	95.859046
1283.000000	95.899171
1282.000000	95.940963
1281.000000	95.981826
1280.000000	96.022319
1279.000000	96.062158
1278.000000	96.099673
1277.000000	96.135749
1276.000000	96.173171
1275.000000	96.211414
1274.000000	96.247370
1273.000000	96.280849
1272.000000	96.314000
1271.000000	96.345909
1270.000000	96.373680
1269.000000	96.398635
1268.000000	96.425291
1267.000000	96.454149
1266.000000	96.481496
1265.000000	96.505677
1264.000000	96.528131
1263.000000	96.548905
1262.000000	96.566720
1261.000000	96.583509
1260.000000	96.603337
1259.000000	96.626180
1258.000000	96.648103
1257.000000	96.667367
1256.000000	96.686152
1255.000000	96.706912
1254.000000	96.730635
1253.000000	96.757212
1252.000000	96.783730
1251.000000	96.803997
1250.000000	96.814260
1249.000000	96.818414
1248.000000	96.823848
1247.000000	96.833633
1246.000000	96.846496
1245.000000	96.861278
1244.000000	96.876711
1243.000000	96.889376
1242.000000	96.897017
1241.000000	96.902404
1240.000000	96.909828
1239.000000	96.919710
1238.000000	96.930382
1237.000000	96.942521
1236.000000	96.957161
1235.000000	96.971923
1234.000000	96.984372
1233.000000	96.997011
1232.000000	97.013709
1231.000000	97.033069
1230.000000	97.050464
1229.000000	97.065153
1228.000000	97.080537
1227.000000	97.099264
1226.000000	97.122713
1225.000000	97.153203
1224.000000	97.191273
1223.000000	97.231660
1222.000000	97.267251
1221.000000	97.296364
1220.000000	97.321989
1219.000000	97.345517
1218.000000	97.366372
1217.000000	97.386228
1216.000000	97.407852
1215.000000	97.430163
1214.000000	97.449177
1213.000000	97.464136
1212.000000	97.478337
1211.000000	97.494006
1210.000000	97.509821
1209.000000	97.523374
1208.000000	97.533474
1207.000000	97.540483
1206.000000	97.546673
1205.000000	97.555258
1204.000000	97.566881
1203.000000	97.578388
1202.000000	97.586942
1201.000000	97.593708
1200.000000	97.601543
1199.000000	97.611309
1198.000000	97.622790
1197.000000	97.636602
1196.000000	97.652377
1195.000000	97.667298
1194.000000	97.678911
1193.000000	97.687791
1192.000000	97.695753
1191.000000	97.704079
1190.000000	97.714836
1189.000000	97.730247
1188.000000	97.748617
1187.000000	97.764584
1186.000000	97.775703
1185.000000	97.784812
1184.000000	97.793863
1183.000000	97.800843
1182.000000	97.805966
1181.000000	97.814999
1180.000000	97.830953
1179.000000	97.846850
1178.000000	97.853299
1177.000000	97.850171
1176.000000	97.845081
1175.000000	97.843557
1174.000000	97.845786
1173.000000	97.850655
1172.000000	97.857589
1171.000000	97.865114
1170.000000	97.871534
1169.000000	97.876231
1168.000000	97.878230
1167.000000	97.876146
1166.000000	97.872318
1165.000000	97.873412
1164.000000	97.883215
1163.000000	97.897677
1162.000000	97.910317
1161.000000	97.919379
1160.000000	97.926537
1159.000000	97.932539
1158.000000	97.938514
1157.000000	97.947749
1156.000000	97.961661
1155.000000	97.977109
1154.000000	97.991746
1153.000000	98.008356
1152.000000	98.029479
1151.000000	98.051912
1150.000000	98.071395
1149.000000	98.088528
1148.000000	98.104260
1147.000000	98.114242
1146.000000	98.114675
1145.000000	98.110592
1144.000000	98.111252
1143.000000	98.119282
1142.000000	98.130447
1141.000000	98.141939
1140.000000	98.154754
1139.000000	98.169663
1138.000000	98.187216
1137.000000	98.210019
1136.000000	98.239286
1135.000000	98.270164
1134.000000	98.295814
1133.000000	98.314794
1132.000000	98.329711
1131.000000	98.340978
1130.000000	98.347563
1129.000000	98.351844
1128.000000	98.357206
1127.000000	98.362177
1126.000000	98.362789
1125.000000	98.360180
1124.000000	98.360440
1123.000000	98.367356
1122.000000	98.379920
1121.000000	98.396221
1120.000000	98.414583
1119.000000	98.431023
1118.000000	98.440364
1117.000000	98.440911
1116.000000	98.435526
1115.000000	98.428669
1114.000000	98.424188
1113.000000	98.423487
1112.000000	98.423336
1111.000000	98.418354
1110.000000	98.408791
1109.000000	98.402458
1108.000000	98.404774
1107.000000	98.411330
1106.000000	98.414793
1105.000000	98.415176
1104.000000	98.417495
1103.000000	98.422336
1102.000000	98.425326
1101.000000	98.424561
1100.000000	98.421420
1099.000000	98.418305
1098.000000	98.416738
1097.000000	98.418382
1096.000000	98.421724
1095.000000	98.419489
1094.000000	98.405043
1093.000000	98.380550
1092.000000	98.354293
1091.000000	98.331784
1090.000000	98.313815
1089.000000	98.300779
1088.000000	98.292780
1087.000000	98.285985
1086.000000	98.274421
1085.000000	98.255669
1084.000000	98.231507
1083.000000	98.204534
1082.000000	98.178946
1081.000000	98.162432
1080.000000	98.161341
1079.000000	98.173391
1078.000000	98.190010
1077.000000	98.206165
1076.000000	98.223062
1075.000000	98.242165
1074.000000	98.262092
1073.000000	98.282319
1072.000000	98.304842
1071.000000	98.330139
1070.000000	98.354765
1069.000000	98.374463
1068.000000	98.387609
1067.000000	98.395467
1066.000000	98.401276
1065.000000	98.408522
1064.000000	98.417970
1063.000000	98.427213
1062.000000	98.434554
1061.000000	98.441579
1060.000000	98.449297
1059.000000	98.454384
1058.000000	98.453204
1057.000000	98.447726
1056.000000	98.443390
1055.000000	98.441815
1054.000000	98.439613
1053.000000	98.434369
1052.000000	98.428455
1051.000000	98.426347
1050.000000	98.430282
1049.000000	98.439113
1048.000000	98.449875
1047.000000	98.460418
1046.000000	98.470763
1045.000000	98.480803
1044.000000	98.487105
1043.000000	98.485367
1042.000000	98.477413
1041.000000	98.471956
1040.000000	98.475664
1039.000000	98.486096
1038.000000	98.495596
1037.000000	98.499399
1036.000000	98.497634
1035.000000	98.492644
1034.000000	98.487599
1033.000000	98.484911
1032.000000	98.483129
1031.000000	98.478234
1030.000000	98.470478
1029.000000	98.465998
1028.000000	98.468444
1027.000000	98.473176
1026.000000	98.474579
1025.000000	98.475000
1024.000000	98.480364
1023.000000	98.489427
1022.000000	98.494197
1021.000000	98.490849
1020.000000	98.484298
1019.000000	98.481545
1018.000000	98.484827
1017.000000	98.492355
1016.000000	98.502406
1015.000000	98.515289
1014.000000	98.532980
1013.000000	98.556417
1012.000000	98.581977
1011.000000	98.602487
1010.000000	98.613892
1009.000000	98.619423
1008.000000	98.625157
1007.000000	98.634051
1006.000000	98.646958
1005.000000	98.665801
1004.000000	98.691037
1003.000000	98.717622
1002.000000	98.738416
1001.000000	98.751533
1000.000000	98.761023
999.000000	98.771064
998.000000	98.782751
997.000000	98.795970
996.000000	98.810867
995.000000	98.827245
994.000000	98.844501
993.000000	98.861935
992.000000	98.877731
991.000000	98.889344
990.000000	98.897048
989.000000	98.905242
988.000000	98.917552
987.000000	98.932572
986.000000	98.946663
985.000000	98.958936
984.000000	98.970545
983.000000	98.981303
982.000000	98.990642
981.000000	98.999984
980.000000	99.010338
979.000000	99.018701
978.000000	99.020725
977.000000	99.016411
976.000000	99.010286
975.000000	99.006812
974.000000	99.008327
973.000000	99.016059
972.000000	99.029600
971.000000	99.045778
970.000000	99.060704
969.000000	99.072366
968.000000	99.079359
967.000000	99.079391
966.000000	99.072758
965.000000	99.066005
964.000000	99.067901
963.000000	99.082194
962.000000	99.106701
961.000000	99.138276
960.000000	99.174592
959.000000	99.211218
958.000000	99.241413
957.000000	99.260362
956.000000	99.267999
955.000000	99.267911
954.000000	99.265596
953.000000	99.266536
952.000000	99.273016
951.000000	99.282628
950.000000	99.292127
949.000000	99.302133
948.000000	99.315960
947.000000	99.334491
946.000000	99.354679
945.000000	99.372618
944.000000	99.385685
943.000000	99.392386
942.000000	99.393005
941.000000	99.390531
940.000000	99.388964
939.000000	99.390655
938.000000	99.395532
937.000000	99.401625
936.000000	99.405560
935.000000	99.405345
934.000000	99.404602
933.000000	99.411145
932.000000	99.427872
931.000000	99.447722
930.000000	99.461519
929.000000	99.468534
928.000000	99.474991
927.000000	99.483843
926.000000	99.492062
925.000000	99.497750
924.000000	99.504218
923.000000	99.515285
922.000000	99.530540
921.000000	99.547143
920.000000	99.562930
919.000000	99.576407
918.000000	99.586953
917.000000	99.596676
916.000000	99.609082
915.000000	99.624114
914.000000	99.636957
913.000000	99.643534
912.000000	99.644969
911.000000	99.645275
910.000000	99.647600
909.000000	99.654531
908.000000	99.669057
907.000000	99.691501
906.000000	99.716865
905.000000	99.738413
904.000000	99.753836
903.000000	99.766098
902.000000	99.779701
901.000000	99.798286
900.000000	99.823853
899.000000	99.854385
898.000000	99.882584
897.000000	99.901358
896.000000	99.911250
895.000000	99.919899
894.000000	99.933283
893.000000	99.950649
892.000000	99.968443
891.000000	99.984911
890.000000	99.996768
889.000000	99.990821
888.000000	99.940329
887.000000	99.804676
886.000000	99.536054
885.000000	99.092127
884.000000	98.450389
883.000000	97.616618
882.000000	96.617263
881.000000	95.491612
880.000000	94.290757
879.000000	93.075424
878.000000	91.901032
877.000000	90.797839
876.000000	89.763446
875.000000	88.763221
874.000000	87.766419
873.000000	86.839031
872.000000	86.242922
871.000000	86.366110
870.000000	87.441507
869.000000	89.303644
868.000000	91.449957
867.000000	93.365529
866.000000	94.805423
865.000000	95.807522
864.000000	96.512602
863.000000	97.024689
862.000000	97.400458
861.000000	97.682663
860.000000	97.904247
859.000000	98.079497
858.000000	98.219358
857.000000	98.340715
856.000000	98.454062
855.000000	98.555519
854.000000	98.638668
853.000000	98.701842
852.000000	98.734855
851.000000	98.716521
850.000000	98.643543
849.000000	98.555641
848.000000	98.516628
847.000000	98.565249
846.000000	98.686368
845.000000	98.827959
844.000000	98.941917
843.000000	99.013580
842.000000	99.060717
841.000000	99.107155
840.000000	99.158585
839.000000	99.203505
838.000000	99.232600
837.000000	99.250271
836.000000	99.267545
835.000000	99.291646
834.000000	99.323172
833.000000	99.356501
832.000000	99.381125
831.000000	99.388920
830.000000	99.383163
829.000000	99.376243
828.000000	99.377586
827.000000	99.388524
826.000000	99.407341
825.000000	99.431152
824.000000	99.452991
823.000000	99.466744
822.000000	99.476538
821.000000	99.491917
820.000000	99.512632
819.000000	99.527383
818.000000	99.529230
817.000000	99.522969
816.000000	99.515269
815.000000	99.507431
814.000000	99.501668
813.000000	99.505074
812.000000	99.520805
811.000000	99.541792
810.000000	99.559101
809.000000	99.571788
808.000000	99.583436
807.000000	99.594047
806.000000	99.600779
805.000000	99.603195
804.000000	99.603716
803.000000	99.605613
802.000000	99.613162
801.000000	99.629377
800.000000	99.650209
799.000000	99.665120
798.000000	99.667600
797.000000	99.662516
796.000000	99.660236
795.000000	99.666171
794.000000	99.678076
793.000000	99.690131
792.000000	99.696909
791.000000	99.695627
790.000000	99.687711
789.000000	99.677954
788.000000	99.671664
787.000000	99.672471
786.000000	99.680166
785.000000	99.688629
784.000000	99.689291
783.000000	99.680222
782.000000	99.669101
781.000000	99.663538
780.000000	99.662317
779.000000	99.661140
778.000000	99.661942
777.000000	99.669082
776.000000	99.680520
775.000000	99.691682
774.000000	99.705063
773.000000	99.726075
772.000000	99.750809
771.000000	99.768528
770.000000	99.776080
769.000000	99.779695
768.000000	99.782840
767.000000	99.783473
766.000000	99.783655
765.000000	99.789615
764.000000	99.799608
763.000000	99.803057
762.000000	99.795821
761.000000	99.786072
760.000000	99.781448
759.000000	99.781085
758.000000	99.784918
757.000000	99.799417
756.000000	99.826982
755.000000	99.858056
754.000000	99.881066
753.000000	99.894117
752.000000	99.901689
751.000000	99.907049
750.000000	99.912430
749.000000	99.919499
748.000000	99.924259
747.000000	99.918439
746.000000	99.901226
745.000000	99.883553
744.000000	99.876148
743.000000	99.879445
742.000000	99.888260
741.000000	99.898491
740.000000	99.905819
739.000000	99.906497
738.000000	99.904220
737.000000	99.908397
736.000000	99.921097
735.000000	99.933195
734.000000	99.937443
733.000000	99.936386
732.000000	99.933778
731.000000	99.928575
730.000000	99.921958
729.000000	99.917914
728.000000	99.914295
727.000000	99.903632
726.000000	99.884778
725.000000	99.864864
724.000000	99.843243
723.000000	99.803287
722.000000	99.727541
721.000000	99.613644
720.000000	99.464770
719.000000	99.265524
718.000000	98.976866
717.000000	98.557837
716.000000	97.999506
715.000000	97.360404
714.000000	96.779345
713.000000	96.427345
712.000000	96.410599
711.000000	96.702088
710.000000	97.168006
709.000000	97.657457
708.000000	98.072517
707.000000	98.382596
706.000000	98.599186
705.000000	98.748227
704.000000	98.854363
703.000000	98.932442
702.000000	98.990029
701.000000	99.035535
700.000000	99.077741
699.000000	99.123392
698.000000	99.174018
697.000000	99.226352
696.000000	99.277337
695.000000	99.325160
694.000000	99.371316
693.000000	99.416006
692.000000	99.450190
691.000000	99.467304
690.000000	99.475717
689.000000	99.491541
688.000000	99.518372
687.000000	99.542644
686.000000	99.558233
685.000000	99.574837
684.000000	99.595219
683.000000	99.607907
682.000000	99.608733
681.000000	99.609652
680.000000	99.616452
679.000000	99.618693
678.000000	99.611841
677.000000	99.601198
676.000000	99.591539
675.000000	99.583970
674.000000	99.585096
673.000000	99.606411
672.000000	99.654418
671.000000	99.732210
670.000000	99.846256
669.000000	99.988299
668.000000	100.062267
667.000000	99.952166
666.000000	99.792109
665.000000	99.672149
664.000000	99.591132
663.000000	99.548449
662.000000	99.535963
661.000000	99.537159
660.000000	99.542845
659.000000	99.558223
658.000000	99.587067
657.000000	99.612358
656.000000	99.619413
655.000000	99.616601
654.000000	99.617031
653.000000	99.619371
652.000000	99.622379
651.000000	99.631810
650.000000	99.646081
649.000000	99.652293
648.000000	99.649187
647.000000	99.651190
646.000000	99.660907
645.000000	99.664508
644.000000	99.655800
643.000000	99.642884
642.000000	99.632313
641.000000	99.620848
640.000000	99.608204
639.000000	99.603830
638.000000	99.610162
637.000000	99.616023
636.000000	99.615822
635.000000	99.615388
634.000000	99.616365
633.000000	99.611479
632.000000	99.599023
631.000000	99.590708
630.000000	99.596454
629.000000	99.610471
628.000000	99.620976
627.000000	99.622937
626.000000	99.614340
625.000000	99.596686
624.000000	99.581776
623.000000	99.585396
622.000000	99.610021
621.000000	99.640422
620.000000	99.659339
619.000000	99.662473
618.000000	99.658043
617.000000	99.657717
616.000000	99.668432
615.000000	99.688861
614.000000	99.709246
613.000000	99.717939
612.000000	99.710812
611.000000	99.693229
610.000000	99.673311
609.000000	99.656342
608.000000	99.644392
607.000000	99.635359
606.000000	99.624523
605.000000	99.616304
604.000000	99.625010
603.000000	99.653803
602.000000	99.681514
601.000000	99.683750
600.000000	99.663747
599.000000	99.647352
598.000000	99.651702
597.000000	99.670734
596.000000	99.689978
595.000000	99.700931
594.000000	99.700154
593.000000	99.688438
592.000000	99.674119
591.000000	99.667154
590.000000	99.665834
589.000000	99.658348
588.000000	99.639491
587.000000	99.617523
586.000000	99.603381
585.000000	99.599582
584.000000	99.602972
583.000000	99.609032
582.000000	99.612868
581.000000	99.613215
580.000000	99.619035
579.000000	99.641731
578.000000	99.678365
577.000000	99.710122
576.000000	99.721007
575.000000	99.714637
574.000000	99.706888
573.000000	99.704248
572.000000	99.696050
571.000000	99.667886
570.000000	99.618920
569.000000	99.569672
568.000000	99.549422
567.000000	99.570244
566.000000	99.612188
565.000000	99.640457
564.000000	99.641622
563.000000	99.633677
562.000000	99.641076
561.000000	99.667406
560.000000	99.698597
559.000000	99.723609
558.000000	99.739761
557.000000	99.744602
556.000000	99.738170
555.000000	99.731462
554.000000	99.736430
553.000000	99.744655
552.000000	99.730046
551.000000	99.677976
550.000000	99.605571
549.000000	99.548770
548.000000	99.533528
547.000000	99.562224
546.000000	99.615855
545.000000	99.664920
544.000000	99.688544
543.000000	99.687882
542.000000	99.680056
541.000000	99.677318
540.000000	99.676088
539.000000	99.666847
538.000000	99.645990
537.000000	99.615044
536.000000	99.577390
535.000000	99.540195
534.000000	99.513950
533.000000	99.500193
532.000000	99.491760
531.000000	99.485329
530.000000	99.483931
529.000000	99.483574
528.000000	99.470535
527.000000	99.437714
526.000000	99.401933
525.000000	99.393696
524.000000	99.423486
523.000000	99.475924
522.000000	99.532221
521.000000	99.581902
520.000000	99.615601
519.000000	99.620836
518.000000	99.594702
517.000000	99.557217
516.000000	99.539484
515.000000	99.557482
514.000000	99.601201
513.000000	99.643601
512.000000	99.659750
511.000000	99.640625
510.000000	99.598517
509.000000	99.559278
508.000000	99.547229
507.000000	99.562752
506.000000	99.576838
505.000000	99.561382
504.000000	99.521341
503.000000	99.493080
502.000000	99.510008
501.000000	99.572838
500.000000	99.660183
499.000000	99.749147
498.000000	99.815693
497.000000	99.836996
496.000000	99.812911
495.000000	99.772759
494.000000	99.744297
493.000000	99.726029
492.000000	99.703630
491.000000	99.677061
490.000000	99.656183
489.000000	99.634095
488.000000	99.593127
487.000000	99.535982
486.000000	99.492521
485.000000	99.488231
484.000000	99.514573
483.000000	99.540522
482.000000	99.550630
481.000000	99.559946
480.000000	99.590098
479.000000	99.643749
478.000000	99.707805
477.000000	99.769897
476.000000	99.823673
475.000000	99.855471
474.000000	99.843799
473.000000	99.780821
472.000000	99.697555
471.000000	99.641195
470.000000	99.628795
469.000000	99.642209
468.000000	99.658008
467.000000	99.665861
466.000000	99.664728
465.000000	99.648594
464.000000	99.609277
463.000000	99.552853
462.000000	99.501038
461.000000	99.472661
460.000000	99.468890
459.000000	99.485221
458.000000	99.522474
457.000000	99.574137
456.000000	99.626192
455.000000	99.672401
454.000000	99.831664
453.000000	99.887693
452.000000	99.930116
451.000000	99.940216
450.000000	99.933633
