PE IR       SUBTECH     SPECTRUM    ASCII       PEDS        4.00        
   -1
POD9-2C-C002_1.ASC
23/09/08
12:16:55.00
23/09/08
12:25:17.00
uco
Sample 002 By uco Date Friday, September 08 2023
450.000000
#HDR
-1
-1
#GR
cm-1
%T
1.0
0.0
4000.000000
-1.000000
3551
8
99.680019
95.609039
#DATA
4000.000000	99.614494
3999.000000	99.616575
3998.000000	99.616095
3997.000000	99.611849
3996.000000	99.605231
3995.000000	99.599102
3994.000000	99.610235
3993.000000	99.608827
3992.000000	99.607592
3991.000000	99.605800
3990.000000	99.604011
3989.000000	99.603347
3988.000000	99.604407
3987.000000	99.607030
3986.000000	99.610722
3985.000000	99.614824
3984.000000	99.618161
3983.000000	99.618964
3982.000000	99.615882
3981.000000	99.609414
3980.000000	99.602086
3979.000000	99.596706
3978.000000	99.594375
3977.000000	99.594125
3976.000000	99.594274
3975.000000	99.593900
3974.000000	99.592909
3973.000000	99.591263
3972.000000	99.588873
3971.000000	99.586586
3970.000000	99.586453
3969.000000	99.590078
3968.000000	99.596623
3967.000000	99.602838
3966.000000	99.605590
3965.000000	99.604262
3964.000000	99.600909
3963.000000	99.598369
3962.000000	99.598168
3961.000000	99.599992
3960.000000	99.602515
3959.000000	99.604812
3958.000000	99.606986
3957.000000	99.609375
3956.000000	99.611650
3955.000000	99.612706
3954.000000	99.611544
3953.000000	99.608179
3952.000000	99.603581
3951.000000	99.598917
3950.000000	99.594613
3949.000000	99.590517
3948.000000	99.587029
3947.000000	99.585508
3946.000000	99.587405
3945.000000	99.592588
3944.000000	99.598429
3943.000000	99.600675
3942.000000	99.596173
3941.000000	99.586073
3940.000000	99.575279
3939.000000	99.568715
3938.000000	99.568348
3937.000000	99.572641
3936.000000	99.578398
3935.000000	99.582883
3934.000000	99.584998
3933.000000	99.585645
3932.000000	99.586702
3931.000000	99.589518
3930.000000	99.593669
3929.000000	99.597803
3928.000000	99.601313
3927.000000	99.603730
3926.000000	99.604177
3925.000000	99.601720
3924.000000	99.596396
3923.000000	99.589929
3922.000000	99.584643
3921.000000	99.581409
3920.000000	99.579340
3919.000000	99.577726
3918.000000	99.578185
3917.000000	99.583171
3916.000000	99.591895
3915.000000	99.600268
3914.000000	99.604941
3913.000000	99.606228
3912.000000	99.606177
3911.000000	99.605885
3910.000000	99.604424
3909.000000	99.600281
3908.000000	99.593334
3907.000000	99.585158
3906.000000	99.578300
3905.000000	99.575097
3904.000000	99.576063
3903.000000	99.579830
3902.000000	99.584865
3901.000000	99.590015
3900.000000	99.594157
3899.000000	99.595559
3898.000000	99.593381
3897.000000	99.589454
3896.000000	99.586353
3895.000000	99.585142
3894.000000	99.584519
3893.000000	99.581684
3892.000000	99.574557
3891.000000	99.564333
3890.000000	99.555027
3889.000000	99.550179
3888.000000	99.550542
3887.000000	99.555628
3886.000000	99.564557
3885.000000	99.574094
3884.000000	99.580526
3883.000000	99.583915
3882.000000	99.587460
3881.000000	99.593137
3880.000000	99.598109
3879.000000	99.597934
3878.000000	99.592937
3877.000000	99.587213
3876.000000	99.585033
3875.000000	99.588538
3874.000000	99.594692
3873.000000	99.596448
3872.000000	99.589382
3871.000000	99.577039
3870.000000	99.568488
3869.000000	99.568739
3868.000000	99.574867
3867.000000	99.581762
3866.000000	99.586880
3865.000000	99.589469
3864.000000	99.588118
3863.000000	99.582604
3862.000000	99.575883
3861.000000	99.572325
3860.000000	99.574975
3859.000000	99.584372
3858.000000	99.598756
3857.000000	99.613566
3856.000000	99.621589
3855.000000	99.616931
3854.000000	99.601644
3853.000000	99.587224
3852.000000	99.581833
3851.000000	99.581894
3850.000000	99.580733
3849.000000	99.576167
3848.000000	99.569467
3847.000000	99.563703
3846.000000	99.561892
3845.000000	99.564578
3844.000000	99.568867
3843.000000	99.571141
3842.000000	99.569895
3841.000000	99.567369
3840.000000	99.567663
3839.000000	99.572737
3838.000000	99.579776
3837.000000	99.583624
3836.000000	99.582720
3835.000000	99.580391
3834.000000	99.580320
3833.000000	99.582804
3832.000000	99.584638
3831.000000	99.581707
3830.000000	99.573547
3829.000000	99.563954
3828.000000	99.557483
3827.000000	99.556321
3826.000000	99.558513
3825.000000	99.560074
3824.000000	99.558423
3823.000000	99.555249
3822.000000	99.555637
3821.000000	99.561990
3820.000000	99.569907
3819.000000	99.574929
3818.000000	99.577108
3817.000000	99.578821
3816.000000	99.583105
3815.000000	99.588672
3814.000000	99.591581
3813.000000	99.590877
3812.000000	99.588627
3811.000000	99.587160
3810.000000	99.586980
3809.000000	99.587325
3808.000000	99.588326
3807.000000	99.591221
3806.000000	99.595936
3805.000000	99.601899
3804.000000	99.608947
3803.000000	99.617577
3802.000000	99.627024
3801.000000	99.632025
3800.000000	99.627100
3799.000000	99.614959
3798.000000	99.601591
3797.000000	99.590726
3796.000000	99.583227
3795.000000	99.578632
3794.000000	99.577260
3793.000000	99.579786
3792.000000	99.585481
3791.000000	99.591585
3790.000000	99.594656
3789.000000	99.592868
3788.000000	99.587477
3787.000000	99.581727
3786.000000	99.579013
3785.000000	99.581114
3784.000000	99.586907
3783.000000	99.593118
3782.000000	99.597073
3781.000000	99.598264
3780.000000	99.597506
3779.000000	99.595259
3778.000000	99.591314
3777.000000	99.586787
3776.000000	99.584089
3775.000000	99.585036
3774.000000	99.588739
3773.000000	99.591710
3772.000000	99.590557
3771.000000	99.584922
3770.000000	99.577591
3769.000000	99.572331
3768.000000	99.572582
3767.000000	99.579525
3766.000000	99.590548
3765.000000	99.600504
3764.000000	99.605761
3763.000000	99.606920
3762.000000	99.606893
3761.000000	99.607540
3760.000000	99.607515
3759.000000	99.604009
3758.000000	99.596850
3757.000000	99.589053
3756.000000	99.583486
3755.000000	99.581225
3754.000000	99.582290
3753.000000	99.585958
3752.000000	99.589454
3751.000000	99.587507
3750.000000	99.577678
3749.000000	99.565762
3748.000000	99.559303
3747.000000	99.559387
3746.000000	99.563320
3745.000000	99.569882
3744.000000	99.576960
3743.000000	99.581538
3742.000000	99.583677
3741.000000	99.584924
3740.000000	99.586893
3739.000000	99.589634
3738.000000	99.592305
3737.000000	99.594644
3736.000000	99.597347
3735.000000	99.599712
3734.000000	99.598506
3733.000000	99.592879
3732.000000	99.585424
3731.000000	99.578152
3730.000000	99.570671
3729.000000	99.562001
3728.000000	99.554022
3727.000000	99.551406
3726.000000	99.556573
3725.000000	99.565757
3724.000000	99.573325
3723.000000	99.578086
3722.000000	99.582538
3721.000000	99.589046
3720.000000	99.596746
3719.000000	99.602385
3718.000000	99.603901
3717.000000	99.601909
3716.000000	99.597972
3715.000000	99.593051
3714.000000	99.588204
3713.000000	99.586177
3712.000000	99.589977
3711.000000	99.597987
3710.000000	99.603908
3709.000000	99.603677
3708.000000	99.599862
3707.000000	99.598039
3706.000000	99.601468
3705.000000	99.610156
3704.000000	99.621348
3703.000000	99.630346
3702.000000	99.631806
3701.000000	99.623139
3700.000000	99.607607
3699.000000	99.591863
3698.000000	99.581594
3697.000000	99.579625
3696.000000	99.584943
3695.000000	99.593375
3694.000000	99.600744
3693.000000	99.604703
3692.000000	99.603838
3691.000000	99.597995
3690.000000	99.591673
3689.000000	99.592579
3688.000000	99.601419
3687.000000	99.609982
3686.000000	99.611514
3685.000000	99.606312
3684.000000	99.599537
3683.000000	99.596177
3682.000000	99.597043
3681.000000	99.598654
3680.000000	99.597251
3679.000000	99.591508
3678.000000	99.582623
3677.000000	99.575410
3676.000000	99.576879
3675.000000	99.585429
3674.000000	99.591885
3673.000000	99.594753
3672.000000	99.596387
3671.000000	99.598323
3670.000000	99.600368
3669.000000	99.599426
3668.000000	99.595350
3667.000000	99.592212
3666.000000	99.591246
3665.000000	99.590489
3664.000000	99.587807
3663.000000	99.582861
3662.000000	99.576905
3661.000000	99.571453
3660.000000	99.567798
3659.000000	99.566727
3658.000000	99.568611
3657.000000	99.573336
3656.000000	99.579772
3655.000000	99.586633
3654.000000	99.593596
3653.000000	99.600067
3652.000000	99.603950
3651.000000	99.602375
3650.000000	99.595506
3649.000000	99.589127
3648.000000	99.585604
3647.000000	99.578855
3646.000000	99.566241
3645.000000	99.552351
3644.000000	99.542192
3643.000000	99.537469
3642.000000	99.537320
3641.000000	99.539894
3640.000000	99.543772
3639.000000	99.547826
3638.000000	99.550061
3637.000000	99.548384
3636.000000	99.542586
3635.000000	99.534855
3634.000000	99.527726
3633.000000	99.521833
3632.000000	99.516151
3631.000000	99.510490
3630.000000	99.507097
3629.000000	99.507439
3628.000000	99.506240
3627.000000	99.498596
3626.000000	99.486616
3625.000000	99.473233
3624.000000	99.460910
3623.000000	99.452015
3622.000000	99.448019
3621.000000	99.449461
3620.000000	99.456376
3619.000000	99.467102
3618.000000	99.477983
3617.000000	99.485252
3616.000000	99.486251
3615.000000	99.480274
3614.000000	99.469560
3613.000000	99.457636
3612.000000	99.445974
3611.000000	99.434453
3610.000000	99.424387
3609.000000	99.419636
3608.000000	99.422354
3607.000000	99.429011
3606.000000	99.434336
3605.000000	99.436533
3604.000000	99.436884
3603.000000	99.436132
3602.000000	99.433341
3601.000000	99.427898
3600.000000	99.420977
3599.000000	99.414381
3598.000000	99.409373
3597.000000	99.406351
3596.000000	99.405257
3595.000000	99.406049
3594.000000	99.407628
3593.000000	99.407882
3592.000000	99.405061
3591.000000	99.398834
3590.000000	99.390344
3589.000000	99.382387
3588.000000	99.378134
3587.000000	99.378025
3586.000000	99.378720
3585.000000	99.378690
3584.000000	99.379713
3583.000000	99.382691
3582.000000	99.385698
3581.000000	99.386017
3580.000000	99.382590
3579.000000	99.376799
3578.000000	99.370795
3577.000000	99.365633
3576.000000	99.360705
3575.000000	99.354531
3574.000000	99.346057
3573.000000	99.335273
3572.000000	99.323385
3571.000000	99.311539
3570.000000	99.299840
3569.000000	99.288272
3568.000000	99.280060
3567.000000	99.281241
3566.000000	99.292428
3565.000000	99.305197
3564.000000	99.311558
3563.000000	99.309575
3562.000000	99.301698
3561.000000	99.291661
3560.000000	99.282168
3559.000000	99.273703
3558.000000	99.266032
3557.000000	99.260106
3556.000000	99.257895
3555.000000	99.260067
3554.000000	99.264336
3553.000000	99.266165
3552.000000	99.261662
3551.000000	99.249993
3550.000000	99.233237
3549.000000	99.215034
3548.000000	99.200250
3547.000000	99.194373
3546.000000	99.200011
3545.000000	99.212634
3544.000000	99.222530
3543.000000	99.222684
3542.000000	99.213305
3541.000000	99.199744
3540.000000	99.187868
3539.000000	99.180664
3538.000000	99.177684
3537.000000	99.176557
3536.000000	99.175224
3535.000000	99.173374
3534.000000	99.171989
3533.000000	99.171961
3532.000000	99.172903
3531.000000	99.173233
3530.000000	99.170964
3529.000000	99.164551
3528.000000	99.153443
3527.000000	99.138503
3526.000000	99.122326
3525.000000	99.109025
3524.000000	99.102595
3523.000000	99.104099
3522.000000	99.110421
3521.000000	99.116474
3520.000000	99.118543
3519.000000	99.115678
3518.000000	99.109394
3517.000000	99.102972
3516.000000	99.099628
3515.000000	99.100261
3514.000000	99.102351
3513.000000	99.102199
3512.000000	99.098646
3511.000000	99.094025
3510.000000	99.090830
3509.000000	99.088195
3508.000000	99.083040
3507.000000	99.074321
3506.000000	99.064736
3505.000000	99.058012
3504.000000	99.055584
3503.000000	99.055570
3502.000000	99.054663
3501.000000	99.050829
3500.000000	99.044076
3499.000000	99.035493
3498.000000	99.026604
3497.000000	99.019532
3496.000000	99.016165
3495.000000	99.016575
3494.000000	99.018762
3493.000000	99.020356
3492.000000	99.019973
3491.000000	99.016672
3490.000000	99.009451
3489.000000	98.998848
3488.000000	98.988386
3487.000000	98.982355
3486.000000	98.981631
3485.000000	98.983184
3484.000000	98.983968
3483.000000	98.983987
3482.000000	98.984771
3481.000000	98.985983
3480.000000	98.985312
3479.000000	98.981466
3478.000000	98.975654
3477.000000	98.969848
3476.000000	98.964763
3475.000000	98.959760
3474.000000	98.954056
3473.000000	98.947364
3472.000000	98.939577
3471.000000	98.930578
3470.000000	98.920750
3469.000000	98.911612
3468.000000	98.905558
3467.000000	98.904281
3466.000000	98.907226
3465.000000	98.911829
3464.000000	98.915326
3463.000000	98.916464
3462.000000	98.915695
3461.000000	98.914228
3460.000000	98.912855
3459.000000	98.911276
3458.000000	98.908388
3457.000000	98.903342
3456.000000	98.896643
3455.000000	98.890115
3454.000000	98.885431
3453.000000	98.882936
3452.000000	98.881610
3451.000000	98.880002
3450.000000	98.877080
3449.000000	98.872708
3448.000000	98.867728
3447.000000	98.863251
3446.000000	98.859508
3445.000000	98.856004
3444.000000	98.852839
3443.000000	98.850982
3442.000000	98.850884
3441.000000	98.851394
3440.000000	98.850820
3439.000000	98.848595
3438.000000	98.845131
3437.000000	98.840454
3436.000000	98.834198
3435.000000	98.827098
3434.000000	98.821322
3433.000000	98.818809
3432.000000	98.819206
3431.000000	98.819912
3430.000000	98.817957
3429.000000	98.812126
3428.000000	98.803912
3427.000000	98.796488
3426.000000	98.792301
3425.000000	98.791253
3424.000000	98.791356
3423.000000	98.791093
3422.000000	98.790671
3421.000000	98.790863
3420.000000	98.791116
3419.000000	98.789445
3418.000000	98.784322
3417.000000	98.776494
3416.000000	98.768854
3415.000000	98.764471
3414.000000	98.764504
3413.000000	98.767873
3412.000000	98.772608
3411.000000	98.776763
3410.000000	98.778169
3409.000000	98.774839
3408.000000	98.766858
3407.000000	98.757117
3406.000000	98.749118
3405.000000	98.744263
3404.000000	98.742008
3403.000000	98.741934
3402.000000	98.744138
3401.000000	98.747893
3400.000000	98.751283
3399.000000	98.752507
3398.000000	98.750619
3397.000000	98.745201
3396.000000	98.736774
3395.000000	98.727763
3394.000000	98.721525
3393.000000	98.719405
3392.000000	98.719355
3391.000000	98.718183
3390.000000	98.714828
3389.000000	98.710999
3388.000000	98.709339
3387.000000	98.711169
3386.000000	98.714960
3385.000000	98.716565
3384.000000	98.712268
3383.000000	98.702569
3382.000000	98.691981
3381.000000	98.684310
3380.000000	98.679127
3379.000000	98.674085
3378.000000	98.669547
3377.000000	98.668824
3376.000000	98.673763
3375.000000	98.681793
3374.000000	98.688101
3373.000000	98.689621
3372.000000	98.686426
3371.000000	98.680401
3370.000000	98.673743
3369.000000	98.668005
3368.000000	98.663309
3367.000000	98.658168
3366.000000	98.650676
3365.000000	98.640268
3364.000000	98.628412
3363.000000	98.617942
3362.000000	98.611685
3361.000000	98.610688
3360.000000	98.612797
3359.000000	98.613211
3358.000000	98.607571
3357.000000	98.595267
3356.000000	98.579811
3355.000000	98.565869
3354.000000	98.555836
3353.000000	98.548898
3352.000000	98.542752
3351.000000	98.535775
3350.000000	98.527800
3349.000000	98.519398
3348.000000	98.511016
3347.000000	98.502946
3346.000000	98.495730
3345.000000	98.489919
3344.000000	98.485161
3343.000000	98.480190
3342.000000	98.474278
3341.000000	98.468440
3340.000000	98.464458
3339.000000	98.462651
3338.000000	98.461218
3337.000000	98.458031
3336.000000	98.452607
3335.000000	98.445897
3334.000000	98.438619
3333.000000	98.430637
3332.000000	98.421957
3331.000000	98.413413
3330.000000	98.405914
3329.000000	98.399507
3328.000000	98.393768
3327.000000	98.388847
3326.000000	98.385447
3325.000000	98.383733
3324.000000	98.382901
3323.000000	98.382200
3322.000000	98.381549
3321.000000	98.380601
3320.000000	98.377871
3319.000000	98.371942
3318.000000	98.363673
3317.000000	98.356231
3316.000000	98.352225
3315.000000	98.351172
3314.000000	98.350181
3313.000000	98.346722
3312.000000	98.340407
3311.000000	98.332726
3310.000000	98.325902
3309.000000	98.321792
3308.000000	98.320795
3307.000000	98.321248
3306.000000	98.320528
3305.000000	98.317352
3304.000000	98.313117
3303.000000	98.310816
3302.000000	98.312404
3301.000000	98.317013
3300.000000	98.321629
3299.000000	98.323682
3298.000000	98.323046
3297.000000	98.321476
3296.000000	98.319920
3295.000000	98.317029
3294.000000	98.311065
3293.000000	98.302941
3292.000000	98.296230
3291.000000	98.293845
3290.000000	98.295463
3289.000000	98.298629
3288.000000	98.301514
3287.000000	98.303757
3286.000000	98.305467
3285.000000	98.306844
3284.000000	98.308631
3283.000000	98.311703
3282.000000	98.315672
3281.000000	98.318605
3280.000000	98.318778
3279.000000	98.316342
3278.000000	98.313118
3277.000000	98.311378
3276.000000	98.313131
3275.000000	98.319698
3274.000000	98.330581
3273.000000	98.342631
3272.000000	98.351382
3271.000000	98.354202
3270.000000	98.352244
3269.000000	98.349119
3268.000000	98.347817
3267.000000	98.349012
3266.000000	98.351978
3265.000000	98.356362
3264.000000	98.362455
3263.000000	98.369911
3262.000000	98.377031
3261.000000	98.381741
3260.000000	98.383377
3259.000000	98.383370
3258.000000	98.384307
3257.000000	98.388223
3256.000000	98.395205
3255.000000	98.403091
3254.000000	98.408723
3253.000000	98.410086
3252.000000	98.407503
3251.000000	98.403138
3250.000000	98.399612
3249.000000	98.398923
3248.000000	98.401686
3247.000000	98.406515
3246.000000	98.410593
3245.000000	98.411978
3244.000000	98.411593
3243.000000	98.412252
3242.000000	98.415524
3241.000000	98.419988
3240.000000	98.422697
3239.000000	98.421971
3238.000000	98.418866
3237.000000	98.416632
3236.000000	98.418713
3235.000000	98.426206
3234.000000	98.436554
3233.000000	98.445279
3232.000000	98.449702
3231.000000	98.450984
3230.000000	98.452123
3229.000000	98.454626
3228.000000	98.457824
3227.000000	98.460736
3226.000000	98.463290
3225.000000	98.465614
3224.000000	98.467437
3223.000000	98.468935
3222.000000	98.471465
3221.000000	98.476483
3220.000000	98.483821
3219.000000	98.491287
3218.000000	98.496051
3217.000000	98.496322
3216.000000	98.492502
3215.000000	98.487510
3214.000000	98.485438
3213.000000	98.488589
3212.000000	98.495429
3211.000000	98.501892
3210.000000	98.504993
3209.000000	98.504802
3208.000000	98.503293
3207.000000	98.502180
3206.000000	98.502272
3205.000000	98.504001
3204.000000	98.507557
3203.000000	98.512510
3202.000000	98.517781
3201.000000	98.521977
3200.000000	98.523802
3199.000000	98.522727
3198.000000	98.519840
3197.000000	98.517680
3196.000000	98.518531
3195.000000	98.522751
3194.000000	98.529011
3193.000000	98.535576
3192.000000	98.540953
3191.000000	98.544037
3190.000000	98.544832
3189.000000	98.545141
3188.000000	98.547416
3187.000000	98.552390
3186.000000	98.558393
3185.000000	98.563193
3184.000000	98.566215
3183.000000	98.568726
3182.000000	98.572610
3181.000000	98.579081
3180.000000	98.587665
3179.000000	98.595714
3178.000000	98.599669
3177.000000	98.598112
3176.000000	98.593649
3175.000000	98.591072
3174.000000	98.593148
3173.000000	98.598325
3172.000000	98.602442
3171.000000	98.602932
3170.000000	98.601535
3169.000000	98.603019
3168.000000	98.610774
3167.000000	98.623427
3166.000000	98.636022
3165.000000	98.644352
3164.000000	98.647680
3163.000000	98.647336
3162.000000	98.644253
3161.000000	98.639067
3160.000000	98.633962
3159.000000	98.632557
3158.000000	98.637182
3157.000000	98.646958
3156.000000	98.658834
3155.000000	98.669923
3154.000000	98.678500
3153.000000	98.683778
3152.000000	98.685925
3151.000000	98.686313
3150.000000	98.686848
3149.000000	98.688428
3148.000000	98.690125
3147.000000	98.690115
3146.000000	98.687717
3145.000000	98.684793
3144.000000	98.685195
3143.000000	98.692107
3142.000000	98.705196
3141.000000	98.720094
3140.000000	98.731111
3139.000000	98.735030
3138.000000	98.732980
3137.000000	98.729118
3136.000000	98.727676
3135.000000	98.730490
3134.000000	98.736284
3133.000000	98.741738
3132.000000	98.743739
3131.000000	98.741503
3130.000000	98.736982
3129.000000	98.733165
3128.000000	98.731845
3127.000000	98.732992
3126.000000	98.735886
3125.000000	98.740079
3124.000000	98.744772
3123.000000	98.747979
3122.000000	98.747653
3121.000000	98.744116
3120.000000	98.740464
3119.000000	98.739900
3118.000000	98.742923
3117.000000	98.747602
3116.000000	98.752030
3115.000000	98.755608
3114.000000	98.758153
3113.000000	98.759106
3112.000000	98.758197
3111.000000	98.756259
3110.000000	98.754661
3109.000000	98.754230
3108.000000	98.754972
3107.000000	98.756325
3106.000000	98.757007
3105.000000	98.755326
3104.000000	98.750894
3103.000000	98.746001
3102.000000	98.744060
3101.000000	98.746021
3100.000000	98.749112
3099.000000	98.749840
3098.000000	98.747760
3097.000000	98.745762
3096.000000	98.747018
3095.000000	98.751891
3094.000000	98.757419
3093.000000	98.759428
3092.000000	98.755599
3091.000000	98.747165
3090.000000	98.737955
3089.000000	98.731734
3088.000000	98.730223
3087.000000	98.732919
3086.000000	98.737600
3085.000000	98.740725
3084.000000	98.738886
3083.000000	98.731510
3082.000000	98.722215
3081.000000	98.716348
3080.000000	98.716626
3079.000000	98.721197
3078.000000	98.725830
3077.000000	98.727478
3076.000000	98.726036
3075.000000	98.723746
3074.000000	98.723266
3073.000000	98.725619
3072.000000	98.729351
3071.000000	98.731846
3070.000000	98.731669
3069.000000	98.729583
3068.000000	98.727463
3067.000000	98.726684
3066.000000	98.727524
3065.000000	98.729538
3064.000000	98.732168
3063.000000	98.735170
3062.000000	98.738719
3061.000000	98.742973
3060.000000	98.747726
3059.000000	98.752691
3058.000000	98.757986
3057.000000	98.763732
3056.000000	98.769088
3055.000000	98.772445
3054.000000	98.772903
3053.000000	98.771194
3052.000000	98.768816
3051.000000	98.766813
3050.000000	98.765769
3049.000000	98.766357
3048.000000	98.769125
3047.000000	98.773771
3046.000000	98.779303
3045.000000	98.784885
3044.000000	98.789977
3043.000000	98.793665
3042.000000	98.794797
3041.000000	98.793406
3040.000000	98.791775
3039.000000	98.793194
3038.000000	98.799208
3037.000000	98.808039
3036.000000	98.815981
3035.000000	98.820601
3034.000000	98.822801
3033.000000	98.825576
3032.000000	98.830763
3031.000000	98.837108
3030.000000	98.841744
3029.000000	98.843291
3028.000000	98.843161
3027.000000	98.843948
3026.000000	98.846880
3025.000000	98.850776
3024.000000	98.853340
3023.000000	98.853644
3022.000000	98.853389
3021.000000	98.855448
3020.000000	98.860917
3019.000000	98.867820
3018.000000	98.872973
3017.000000	98.874710
3016.000000	98.873352
3015.000000	98.869578
3014.000000	98.863587
3013.000000	98.856143
3012.000000	98.849294
3011.000000	98.844951
3010.000000	98.843079
3009.000000	98.842073
3008.000000	98.840848
3007.000000	98.839885
3006.000000	98.840150
3005.000000	98.841702
3004.000000	98.843846
3003.000000	98.846306
3002.000000	98.849689
3001.000000	98.854693
3000.000000	98.861226
2999.000000	98.868356
2998.000000	98.874772
2997.000000	98.879088
2996.000000	98.880256
2995.000000	98.878446
2994.000000	98.875519
2993.000000	98.873798
2992.000000	98.873737
2991.000000	98.873189
2990.000000	98.869471
2989.000000	98.862020
2988.000000	98.852699
2987.000000	98.843867
2986.000000	98.836820
2985.000000	98.831757
2984.000000	98.828098
2983.000000	98.824357
2982.000000	98.818671
2981.000000	98.810393
2980.000000	98.801005
2979.000000	98.792766
2978.000000	98.786172
2977.000000	98.778979
2976.000000	98.767814
2975.000000	98.751108
2974.000000	98.730812
2973.000000	98.711193
2972.000000	98.695331
2971.000000	98.682320
2970.000000	98.668130
2969.000000	98.649350
2968.000000	98.625822
2967.000000	98.599720
2966.000000	98.572789
2965.000000	98.545157
2964.000000	98.516335
2963.000000	98.486676
2962.000000	98.457958
2961.000000	98.433028
2960.000000	98.414556
2959.000000	98.403031
2958.000000	98.395866
2957.000000	98.389080
2956.000000	98.380760
2955.000000	98.372752
2954.000000	98.368763
2953.000000	98.370658
2952.000000	98.376493
2951.000000	98.382046
2950.000000	98.384071
2949.000000	98.382288
2948.000000	98.378238
2947.000000	98.372480
2946.000000	98.363121
2945.000000	98.347271
2944.000000	98.323782
2943.000000	98.294156
2942.000000	98.260906
2941.000000	98.225125
2940.000000	98.185707
2939.000000	98.140630
2938.000000	98.089056
2937.000000	98.032657
2936.000000	97.975054
2935.000000	97.919558
2934.000000	97.866716
2933.000000	97.813635
2932.000000	97.756221
2931.000000	97.692809
2930.000000	97.626228
2929.000000	97.561910
2928.000000	97.503805
2927.000000	97.452052
2926.000000	97.404795
2925.000000	97.361559
2924.000000	97.324109
2923.000000	97.294464
2922.000000	97.273260
2921.000000	97.260533
2920.000000	97.257399
2919.000000	97.266048
2918.000000	97.288475
2917.000000	97.325657
2916.000000	97.377606
2915.000000	97.443298
2914.000000	97.519886
2913.000000	97.602504
2912.000000	97.685398
2911.000000	97.763973
2910.000000	97.835763
2909.000000	97.899847
2908.000000	97.955762
2907.000000	98.003191
2906.000000	98.042490
2905.000000	98.074964
2904.000000	98.102650
2903.000000	98.127867
2902.000000	98.152713
2901.000000	98.178594
2900.000000	98.204998
2899.000000	98.230475
2898.000000	98.254357
2897.000000	98.277647
2896.000000	98.301478
2895.000000	98.325150
2894.000000	98.346635
2893.000000	98.365062
2892.000000	98.381543
2891.000000	98.397164
2890.000000	98.411227
2889.000000	98.422634
2888.000000	98.432424
2887.000000	98.443587
2886.000000	98.457963
2885.000000	98.474121
2884.000000	98.488758
2883.000000	98.499862
2882.000000	98.507980
2881.000000	98.514602
2880.000000	98.519695
2879.000000	98.521105
2878.000000	98.516501
2877.000000	98.505936
2876.000000	98.492494
2875.000000	98.480339
2874.000000	98.472197
2873.000000	98.468498
2872.000000	98.468182
2871.000000	98.469484
2870.000000	98.470107
2869.000000	98.467930
2868.000000	98.462419
2867.000000	98.454883
2866.000000	98.446324
2865.000000	98.434963
2864.000000	98.416697
2863.000000	98.388463
2862.000000	98.350695
2861.000000	98.306368
2860.000000	98.258358
2859.000000	98.208367
2858.000000	98.157594
2857.000000	98.106963
2856.000000	98.056398
2855.000000	98.005034
2854.000000	97.953717
2853.000000	97.907320
2852.000000	97.874187
2851.000000	97.862967
2850.000000	97.878945
2849.000000	97.922150
2848.000000	97.987688
2847.000000	98.067957
2846.000000	98.155186
2845.000000	98.242640
2844.000000	98.324281
2843.000000	98.395326
2842.000000	98.454143
2841.000000	98.502870
2840.000000	98.544914
2839.000000	98.581444
2838.000000	98.611281
2837.000000	98.634208
2836.000000	98.653167
2835.000000	98.672200
2834.000000	98.692819
2833.000000	98.713234
2832.000000	98.730942
2831.000000	98.745277
2830.000000	98.757180
2829.000000	98.767355
2828.000000	98.775492
2827.000000	98.781419
2826.000000	98.786533
2825.000000	98.793465
2824.000000	98.804249
2823.000000	98.818978
2822.000000	98.836004
2821.000000	98.852733
2820.000000	98.866178
2819.000000	98.874090
2818.000000	98.876902
2817.000000	98.878349
2816.000000	98.882766
2815.000000	98.891250
2814.000000	98.900883
2813.000000	98.907825
2812.000000	98.910483
2811.000000	98.909907
2810.000000	98.908343
2809.000000	98.908094
2808.000000	98.910825
2807.000000	98.916839
2806.000000	98.924985
2805.000000	98.933559
2804.000000	98.941092
2803.000000	98.946464
2802.000000	98.949351
2801.000000	98.951229
2800.000000	98.954866
2799.000000	98.961642
2798.000000	98.969572
2797.000000	98.975006
2796.000000	98.976198
2795.000000	98.974593
2794.000000	98.972830
2793.000000	98.972381
2792.000000	98.973132
2791.000000	98.974376
2790.000000	98.975850
2789.000000	98.978140
2788.000000	98.982127
2787.000000	98.987646
2786.000000	98.992748
2785.000000	98.994991
2784.000000	98.993857
2783.000000	98.991694
2782.000000	98.991993
2781.000000	98.996588
2780.000000	99.004269
2779.000000	99.011817
2778.000000	99.016399
2777.000000	99.017278
2776.000000	99.015565
2775.000000	99.012707
2774.000000	99.009608
2773.000000	99.006967
2772.000000	99.005552
2771.000000	99.005743
2770.000000	99.007432
2769.000000	99.010735
2768.000000	99.016088
2767.000000	99.023034
2766.000000	99.029632
2765.000000	99.033937
2764.000000	99.035687
2763.000000	99.035820
2762.000000	99.034967
2761.000000	99.033491
2760.000000	99.032539
2759.000000	99.033573
2758.000000	99.036649
2757.000000	99.040205
2756.000000	99.042888
2755.000000	99.044903
2754.000000	99.047317
2753.000000	99.050648
2752.000000	99.054200
2751.000000	99.056310
2750.000000	99.055514
2749.000000	99.052304
2748.000000	99.049514
2747.000000	99.049712
2746.000000	99.052180
2745.000000	99.053739
2744.000000	99.052841
2743.000000	99.051509
2742.000000	99.052645
2741.000000	99.056637
2740.000000	99.061527
2739.000000	99.065506
2738.000000	99.068045
2737.000000	99.069213
2736.000000	99.069149
2735.000000	99.068277
2734.000000	99.067315
2733.000000	99.067002
2732.000000	99.067920
2731.000000	99.070012
2730.000000	99.071900
2729.000000	99.071529
2728.000000	99.068444
2727.000000	99.064898
2726.000000	99.063737
2725.000000	99.065542
2724.000000	99.068823
2723.000000	99.072576
2722.000000	99.077099
2721.000000	99.082165
2720.000000	99.086028
2719.000000	99.087323
2718.000000	99.087090
2717.000000	99.087824
2716.000000	99.090768
2715.000000	99.094897
2714.000000	99.098403
2713.000000	99.100334
2712.000000	99.100770
2711.000000	99.100393
2710.000000	99.100532
2709.000000	99.102874
2708.000000	99.107928
2707.000000	99.113571
2706.000000	99.116165
2705.000000	99.113965
2704.000000	99.109063
2703.000000	99.105290
2702.000000	99.104472
2701.000000	99.105536
2700.000000	99.107020
2699.000000	99.109078
2698.000000	99.112378
2697.000000	99.116128
2696.000000	99.118474
2695.000000	99.118676
2694.000000	99.117870
2693.000000	99.117507
2692.000000	99.117692
2691.000000	99.117304
2690.000000	99.115405
2689.000000	99.112379
2688.000000	99.109975
2687.000000	99.110152
2686.000000	99.113241
2685.000000	99.116988
2684.000000	99.117917
2683.000000	99.114303
2682.000000	99.107910
2681.000000	99.102594
2680.000000	99.101118
2679.000000	99.103165
2678.000000	99.106154
2677.000000	99.107695
2676.000000	99.107452
2675.000000	99.107041
2674.000000	99.108330
2673.000000	99.111701
2672.000000	99.115745
2671.000000	99.118627
2670.000000	99.119760
2669.000000	99.120181
2668.000000	99.121287
2667.000000	99.123250
2666.000000	99.124662
2665.000000	99.123798
2664.000000	99.120377
2663.000000	99.116177
2662.000000	99.113839
2661.000000	99.114727
2660.000000	99.117697
2659.000000	99.119896
2658.000000	99.119015
2657.000000	99.115074
2656.000000	99.110333
2655.000000	99.107564
2654.000000	99.108143
2653.000000	99.111354
2652.000000	99.115195
2651.000000	99.118128
2650.000000	99.120348
2649.000000	99.123296
2648.000000	99.127692
2647.000000	99.132166
2646.000000	99.134290
2645.000000	99.133164
2644.000000	99.130783
2643.000000	99.130684
2642.000000	99.135181
2641.000000	99.143551
2640.000000	99.152536
2639.000000	99.158804
2638.000000	99.161594
2637.000000	99.163123
2636.000000	99.165976
2635.000000	99.170132
2634.000000	99.173209
2633.000000	99.173624
2632.000000	99.172622
2631.000000	99.172801
2630.000000	99.175362
2629.000000	99.179354
2628.000000	99.182661
2627.000000	99.183051
2626.000000	99.179257
2625.000000	99.172500
2624.000000	99.166792
2623.000000	99.166364
2622.000000	99.172177
2621.000000	99.181014
2620.000000	99.187828
2619.000000	99.188982
2618.000000	99.184506
2617.000000	99.178402
2616.000000	99.176131
2615.000000	99.180254
2614.000000	99.188458
2613.000000	99.196716
2612.000000	99.203912
2611.000000	99.211802
2610.000000	99.220721
2609.000000	99.227437
2608.000000	99.228064
2607.000000	99.222111
2606.000000	99.213197
2605.000000	99.206983
2604.000000	99.208559
2603.000000	99.219726
2602.000000	99.236935
2601.000000	99.252318
2600.000000	99.258274
2599.000000	99.252126
2598.000000	99.237277
2597.000000	99.220804
2596.000000	99.209579
2595.000000	99.206604
2594.000000	99.209779
2593.000000	99.214564
2592.000000	99.218268
2591.000000	99.221173
2590.000000	99.223856
2589.000000	99.225309
2588.000000	99.224636
2587.000000	99.223118
2586.000000	99.223001
2585.000000	99.225133
2584.000000	99.228882
2583.000000	99.233584
2582.000000	99.238638
2581.000000	99.242838
2580.000000	99.245160
2579.000000	99.246078
2578.000000	99.246848
2577.000000	99.247590
2576.000000	99.247387
2575.000000	99.246414
2574.000000	99.246722
2573.000000	99.250253
2572.000000	99.256689
2571.000000	99.263747
2570.000000	99.269344
2569.000000	99.273098
2568.000000	99.275743
2567.000000	99.277164
2566.000000	99.275513
2565.000000	99.268973
2564.000000	99.258751
2563.000000	99.249598
2562.000000	99.246498
2561.000000	99.250815
2560.000000	99.259842
2559.000000	99.269755
2558.000000	99.278165
2557.000000	99.283867
2556.000000	99.285343
2555.000000	99.281181
2554.000000	99.272773
2553.000000	99.265582
2552.000000	99.265526
2551.000000	99.273107
2550.000000	99.282328
2549.000000	99.286976
2548.000000	99.286886
2547.000000	99.286384
2546.000000	99.287571
2545.000000	99.288192
2544.000000	99.286286
2543.000000	99.283632
2542.000000	99.282802
2541.000000	99.283192
2540.000000	99.282241
2539.000000	99.279221
2538.000000	99.275610
2537.000000	99.272526
2536.000000	99.269738
2535.000000	99.266917
2534.000000	99.264284
2533.000000	99.262286
2532.000000	99.261792
2531.000000	99.264001
2530.000000	99.268877
2529.000000	99.274288
2528.000000	99.277968
2527.000000	99.279615
2526.000000	99.279795
2525.000000	99.277971
2524.000000	99.273879
2523.000000	99.270030
2522.000000	99.270069
2521.000000	99.274338
2520.000000	99.279381
2519.000000	99.282379
2518.000000	99.283844
2517.000000	99.285344
2516.000000	99.286764
2515.000000	99.287124
2514.000000	99.286135
2513.000000	99.283490
2512.000000	99.278251
2511.000000	99.270733
2510.000000	99.263717
2509.000000	99.259862
2508.000000	99.258690
2507.000000	99.258115
2506.000000	99.258433
2505.000000	99.262287
2504.000000	99.270419
2503.000000	99.279557
2502.000000	99.285837
2501.000000	99.289210
2500.000000	99.292962
2499.000000	99.299355
2498.000000	99.306690
2497.000000	99.310851
2496.000000	99.309097
2495.000000	99.302277
2494.000000	99.294050
2493.000000	99.288487
2492.000000	99.288092
2491.000000	99.292815
2490.000000	99.299808
2489.000000	99.304417
2488.000000	99.303109
2487.000000	99.296693
2486.000000	99.290114
2485.000000	99.287973
2484.000000	99.290106
2483.000000	99.292384
2482.000000	99.291802
2481.000000	99.289666
2480.000000	99.289667
2479.000000	99.293836
2478.000000	99.301075
2477.000000	99.308668
2476.000000	99.313998
2475.000000	99.315319
2474.000000	99.312281
2473.000000	99.306272
2472.000000	99.299671
2471.000000	99.294251
2470.000000	99.290556
2469.000000	99.288955
2468.000000	99.290742
2467.000000	99.297367
2466.000000	99.308347
2465.000000	99.320214
2464.000000	99.328281
2463.000000	99.330047
2462.000000	99.326884
2461.000000	99.322250
2460.000000	99.318313
2459.000000	99.314858
2458.000000	99.311177
2457.000000	99.307909
2456.000000	99.306490
2455.000000	99.307559
2454.000000	99.310575
2453.000000	99.314337
2452.000000	99.317203
2451.000000	99.317633
2450.000000	99.315703
2449.000000	99.313640
2448.000000	99.313915
2447.000000	99.317271
2446.000000	99.323349
2445.000000	99.331707
2444.000000	99.340191
2443.000000	99.343615
2442.000000	99.337840
2441.000000	99.325921
2440.000000	99.316998
2439.000000	99.317141
2438.000000	99.323598
2437.000000	99.329626
2436.000000	99.332521
2435.000000	99.333950
2434.000000	99.334470
2433.000000	99.332113
2432.000000	99.326793
2431.000000	99.322761
2430.000000	99.324790
2429.000000	99.333268
2428.000000	99.343881
2427.000000	99.351218
2426.000000	99.352375
2425.000000	99.348499
2424.000000	99.343779
2423.000000	99.342197
2422.000000	99.344287
2421.000000	99.347295
2420.000000	99.348428
2419.000000	99.347355
2418.000000	99.345724
2417.000000	99.345519
2416.000000	99.348226
2415.000000	99.354348
2414.000000	99.362509
2413.000000	99.369409
2412.000000	99.371696
2411.000000	99.368459
2410.000000	99.362161
2409.000000	99.357338
2408.000000	99.357798
2407.000000	99.363947
2406.000000	99.372427
2405.000000	99.378913
2404.000000	99.381709
2403.000000	99.382473
2402.000000	99.383281
2401.000000	99.383520
2400.000000	99.380016
2399.000000	99.370357
2398.000000	99.356120
2397.000000	99.342705
2396.000000	99.335567
2395.000000	99.336303
2394.000000	99.342247
2393.000000	99.349332
2392.000000	99.354335
2391.000000	99.354852
2390.000000	99.349443
2389.000000	99.339590
2388.000000	99.330308
2387.000000	99.326677
2386.000000	99.329405
2385.000000	99.334867
2384.000000	99.339194
2383.000000	99.340894
2382.000000	99.339882
2381.000000	99.336196
2380.000000	99.331135
2379.000000	99.328069
2378.000000	99.329826
2377.000000	99.335062
2376.000000	99.338712
2375.000000	99.336866
2374.000000	99.330574
2373.000000	99.324182
2372.000000	99.320456
2371.000000	99.318232
2370.000000	99.314891
2369.000000	99.310402
2368.000000	99.308245
2367.000000	99.311676
2366.000000	99.319578
2365.000000	99.327005
2364.000000	99.329587
2363.000000	99.326376
2362.000000	99.319050
2361.000000	99.310141
2360.000000	99.300803
2359.000000	99.291093
2358.000000	99.282031
2357.000000	99.276135
2356.000000	99.277535
2355.000000	99.285853
2354.000000	99.294390
2353.000000	99.297009
2352.000000	99.294648
2351.000000	99.291533
2350.000000	99.288165
2349.000000	99.283699
2348.000000	99.279184
2347.000000	99.276936
2346.000000	99.277268
2345.000000	99.276717
2344.000000	99.272086
2343.000000	99.262613
2342.000000	99.252153
2341.000000	99.245438
2340.000000	99.244305
2339.000000	99.248492
2338.000000	99.256320
2337.000000	99.265147
2336.000000	99.272001
2335.000000	99.275758
2334.000000	99.275912
2333.000000	99.272833
2332.000000	99.267413
2331.000000	99.263181
2330.000000	99.262535
2329.000000	99.265881
2328.000000	99.267788
2327.000000	99.260943
2326.000000	99.242241
2325.000000	99.218228
2324.000000	99.201419
2323.000000	99.198679
2322.000000	99.205342
2321.000000	99.212647
2320.000000	99.218342
2319.000000	99.227005
2318.000000	99.239752
2317.000000	99.252409
2316.000000	99.260013
2315.000000	99.262480
2314.000000	99.261328
2313.000000	99.258713
2312.000000	99.257269
2311.000000	99.260394
2310.000000	99.267186
2309.000000	99.272619
2308.000000	99.272255
2307.000000	99.267217
2306.000000	99.261245
2305.000000	99.256690
2304.000000	99.254050
2303.000000	99.254392
2302.000000	99.258083
2301.000000	99.263411
2300.000000	99.267472
2299.000000	99.270098
2298.000000	99.273218
2297.000000	99.278406
2296.000000	99.285305
2295.000000	99.293627
2294.000000	99.303154
2293.000000	99.312312
2292.000000	99.318078
2291.000000	99.318839
2290.000000	99.316363
2289.000000	99.314260
2288.000000	99.315174
2287.000000	99.319357
2286.000000	99.325275
2285.000000	99.330136
2284.000000	99.330335
2283.000000	99.322731
2282.000000	99.307758
2281.000000	99.291366
2280.000000	99.281788
2279.000000	99.282084
2278.000000	99.287297
2277.000000	99.291533
2276.000000	99.296715
2275.000000	99.310422
2274.000000	99.334419
2273.000000	99.360123
2272.000000	99.377454
2271.000000	99.384620
2270.000000	99.386434
2269.000000	99.387380
2268.000000	99.390630
2267.000000	99.399927
2266.000000	99.415366
2265.000000	99.427864
2264.000000	99.424693
2263.000000	99.403332
2262.000000	99.376191
2261.000000	99.359154
2260.000000	99.357377
2259.000000	99.362937
2258.000000	99.364387
2257.000000	99.357162
2256.000000	99.346738
2255.000000	99.343586
2254.000000	99.353719
2253.000000	99.372837
2252.000000	99.389380
2251.000000	99.393685
2250.000000	99.383899
2249.000000	99.365282
2248.000000	99.346648
2247.000000	99.337904
2246.000000	99.345985
2245.000000	99.369330
2244.000000	99.396186
2243.000000	99.411798
2242.000000	99.409699
2241.000000	99.396067
2240.000000	99.383313
2239.000000	99.379527
2238.000000	99.383851
2237.000000	99.389941
2236.000000	99.392217
2235.000000	99.389060
2234.000000	99.382141
2233.000000	99.374367
2232.000000	99.368652
2231.000000	99.367764
2230.000000	99.374316
2229.000000	99.388863
2228.000000	99.406501
2227.000000	99.416871
2226.000000	99.411042
2225.000000	99.390421
2224.000000	99.367527
2223.000000	99.356287
2222.000000	99.362125
2221.000000	99.380509
2220.000000	99.401098
2219.000000	99.412411
2218.000000	99.407575
2217.000000	99.391141
2216.000000	99.378300
2215.000000	99.381866
2214.000000	99.399662
2213.000000	99.417713
2212.000000	99.425061
2211.000000	99.422812
2210.000000	99.420160
2209.000000	99.426371
2208.000000	99.445447
2207.000000	99.473084
2206.000000	99.498278
2205.000000	99.512082
2204.000000	99.515119
2203.000000	99.512690
2202.000000	99.504922
2201.000000	99.489378
2200.000000	99.472482
2199.000000	99.466755
2198.000000	99.472308
2197.000000	99.469926
2196.000000	99.441355
2195.000000	99.391529
2194.000000	99.343319
2193.000000	99.314218
2192.000000	99.305976
2191.000000	99.315277
2190.000000	99.343042
2189.000000	99.386479
2188.000000	99.428638
2187.000000	99.446377
2186.000000	99.431454
2185.000000	99.399611
2184.000000	99.375305
2183.000000	99.368458
2182.000000	99.370671
2181.000000	99.373787
2180.000000	99.384302
2179.000000	99.413388
2178.000000	99.456195
2177.000000	99.489113
2176.000000	99.491449
2175.000000	99.467817
2174.000000	99.446608
2173.000000	99.456020
2172.000000	99.500434
2171.000000	99.557079
2170.000000	99.593650
2169.000000	99.591133
2168.000000	99.554866
2167.000000	99.506989
2166.000000	99.470812
2165.000000	99.459293
2164.000000	99.468155
2163.000000	99.477584
2162.000000	99.469392
2161.000000	99.449835
2160.000000	99.449568
2159.000000	99.490622
2158.000000	99.558064
2157.000000	99.619183
2156.000000	99.658961
2155.000000	99.678272
2154.000000	99.673114
2153.000000	99.639285
2152.000000	99.590082
2151.000000	99.550122
2150.000000	99.531361
2149.000000	99.524779
2148.000000	99.515149
2147.000000	99.495991
2146.000000	99.472440
2145.000000	99.457747
2144.000000	99.465089
2143.000000	99.493703
2142.000000	99.524563
2141.000000	99.537772
2140.000000	99.533284
2139.000000	99.525717
2138.000000	99.521636
2137.000000	99.515034
2136.000000	99.504827
2135.000000	99.502578
2134.000000	99.516005
2133.000000	99.535453
2132.000000	99.543777
2131.000000	99.533256
2130.000000	99.508244
2129.000000	99.478509
2128.000000	99.455164
2127.000000	99.447331
2126.000000	99.456543
2125.000000	99.474872
2124.000000	99.490753
2123.000000	99.495347
2122.000000	99.484149
2121.000000	99.458775
2120.000000	99.429764
2119.000000	99.411147
2118.000000	99.407262
2117.000000	99.408743
2116.000000	99.405515
2115.000000	99.400162
2114.000000	99.402761
2113.000000	99.416002
2112.000000	99.431766
2111.000000	99.441179
2110.000000	99.441682
2109.000000	99.434549
2108.000000	99.422572
2107.000000	99.411616
2106.000000	99.408839
2105.000000	99.415963
2104.000000	99.427257
2103.000000	99.436147
2102.000000	99.441338
2101.000000	99.444698
2100.000000	99.445990
2099.000000	99.442686
2098.000000	99.434677
2097.000000	99.427342
2096.000000	99.428649
2095.000000	99.442115
2094.000000	99.462080
2093.000000	99.476751
2092.000000	99.477697
2091.000000	99.466331
2090.000000	99.450997
2089.000000	99.439104
2088.000000	99.432911
2087.000000	99.431265
2086.000000	99.432328
2085.000000	99.433631
2084.000000	99.432210
2083.000000	99.427016
2082.000000	99.420166
2081.000000	99.414152
2080.000000	99.408335
2079.000000	99.399979
2078.000000	99.388789
2077.000000	99.378159
2076.000000	99.371339
2075.000000	99.369515
2074.000000	99.375200
2073.000000	99.392938
2072.000000	99.421170
2071.000000	99.446481
2070.000000	99.454173
2069.000000	99.446877
2068.000000	99.445177
2067.000000	99.463685
2066.000000	99.492330
2065.000000	99.507987
2064.000000	99.502458
2063.000000	99.490965
2062.000000	99.493274
2061.000000	99.514702
2060.000000	99.543828
2059.000000	99.561492
2058.000000	99.553385
2057.000000	99.522436
2056.000000	99.489866
2055.000000	99.475468
2054.000000	99.475793
2053.000000	99.470992
2052.000000	99.455243
2051.000000	99.449707
2050.000000	99.479362
2049.000000	99.541140
2048.000000	99.600734
2047.000000	99.622453
2046.000000	99.597891
2045.000000	99.549444
2044.000000	99.514124
2043.000000	99.517076
2042.000000	99.550657
2041.000000	99.580132
2040.000000	99.577352
2039.000000	99.546224
2038.000000	99.508872
2037.000000	99.478339
2036.000000	99.454912
2035.000000	99.440183
2034.000000	99.437971
2033.000000	99.441973
2032.000000	99.439951
2031.000000	99.435410
2030.000000	99.449024
2029.000000	99.489436
2028.000000	99.535008
2027.000000	99.557243
2026.000000	99.553717
2025.000000	99.545460
2024.000000	99.548612
2023.000000	99.562913
2022.000000	99.585485
2021.000000	99.615909
2020.000000	99.640086
2019.000000	99.627765
2018.000000	99.564175
2017.000000	99.479107
2016.000000	99.422894
2015.000000	99.412523
2014.000000	99.426528
2013.000000	99.446846
2012.000000	99.480384
2011.000000	99.536641
2010.000000	99.603022
2009.000000	99.650849
2008.000000	99.655050
2007.000000	99.605819
2006.000000	99.518743
2005.000000	99.442557
2004.000000	99.431954
2003.000000	99.494203
2002.000000	99.576849
2001.000000	99.618944
2000.000000	99.607855
1999.000000	99.575436
1998.000000	99.550618
1997.000000	99.538351
1996.000000	99.537042
1995.000000	99.548454
1994.000000	99.565312
1993.000000	99.569187
1992.000000	99.551831
1991.000000	99.527317
1990.000000	99.514054
1989.000000	99.516804
1988.000000	99.529963
1987.000000	99.543426
1986.000000	99.541447
1985.000000	99.511420
1984.000000	99.461914
1983.000000	99.420781
1982.000000	99.408342
1981.000000	99.420277
1980.000000	99.441376
1979.000000	99.467019
1978.000000	99.503622
1977.000000	99.553604
1976.000000	99.608626
1975.000000	99.654191
1974.000000	99.676202
1973.000000	99.669813
1972.000000	99.644901
1971.000000	99.614587
1970.000000	99.580088
1969.000000	99.538039
1968.000000	99.499377
1967.000000	99.485171
1966.000000	99.501690
1965.000000	99.534059
1964.000000	99.566202
1963.000000	99.593365
1962.000000	99.614231
1961.000000	99.623842
1960.000000	99.617310
1959.000000	99.592559
1958.000000	99.551093
1957.000000	99.505355
1956.000000	99.479900
1955.000000	99.491744
1954.000000	99.530377
1953.000000	99.566739
1952.000000	99.581747
1951.000000	99.579345
1950.000000	99.575088
1949.000000	99.582546
1948.000000	99.606588
1947.000000	99.637058
1946.000000	99.650086
1945.000000	99.627959
1944.000000	99.579583
1943.000000	99.533263
1942.000000	99.507933
1941.000000	99.500860
1940.000000	99.504910
1939.000000	99.519240
1938.000000	99.538489
1937.000000	99.549598
1936.000000	99.547599
1935.000000	99.543405
1934.000000	99.548452
1933.000000	99.560843
1932.000000	99.571662
1931.000000	99.577239
1930.000000	99.579109
1929.000000	99.578485
1928.000000	99.576775
1927.000000	99.576872
1926.000000	99.579858
1925.000000	99.582555
1924.000000	99.581588
1923.000000	99.575974
1922.000000	99.565143
1921.000000	99.549644
1920.000000	99.535964
1919.000000	99.535558
1918.000000	99.553231
1917.000000	99.576771
1916.000000	99.587637
1915.000000	99.578549
1914.000000	99.554057
1913.000000	99.525059
1912.000000	99.504772
1911.000000	99.500690
1910.000000	99.507514
1909.000000	99.512787
1908.000000	99.512880
1907.000000	99.517252
1906.000000	99.533228
1905.000000	99.553241
1904.000000	99.563501
1903.000000	99.560373
1902.000000	99.551855
1901.000000	99.546077
1900.000000	99.544945
1899.000000	99.546917
1898.000000	99.550154
1897.000000	99.552690
1896.000000	99.553647
1895.000000	99.554560
1894.000000	99.557784
1893.000000	99.563789
1892.000000	99.571065
1891.000000	99.576560
1890.000000	99.575351
1889.000000	99.566080
1888.000000	99.557222
1887.000000	99.559763
1886.000000	99.573422
1885.000000	99.585846
1884.000000	99.587027
1883.000000	99.581004
1882.000000	99.578128
1881.000000	99.580440
1880.000000	99.582128
1879.000000	99.580751
1878.000000	99.580575
1877.000000	99.585214
1876.000000	99.592711
1875.000000	99.599055
1874.000000	99.601848
1873.000000	99.600331
1872.000000	99.595226
1871.000000	99.589017
1870.000000	99.584244
1869.000000	99.581279
1868.000000	99.578569
1867.000000	99.575339
1866.000000	99.572491
1865.000000	99.569504
1864.000000	99.564957
1863.000000	99.559180
1862.000000	99.553717
1861.000000	99.550133
1860.000000	99.550342
1859.000000	99.555795
1858.000000	99.564847
1857.000000	99.572352
1856.000000	99.574386
1855.000000	99.572164
1854.000000	99.567583
1853.000000	99.559011
1852.000000	99.546565
1851.000000	99.536565
1850.000000	99.536533
1849.000000	99.545358
1848.000000	99.552721
1847.000000	99.549991
1846.000000	99.539273
1845.000000	99.531987
1844.000000	99.538027
1843.000000	99.553443
1842.000000	99.565996
1841.000000	99.569083
1840.000000	99.565740
1839.000000	99.563900
1838.000000	99.568142
1837.000000	99.574813
1836.000000	99.577619
1835.000000	99.575279
1834.000000	99.570605
1833.000000	99.566051
1832.000000	99.564539
1831.000000	99.569646
1830.000000	99.580704
1829.000000	99.590156
1828.000000	99.592563
1827.000000	99.589919
1826.000000	99.586903
1825.000000	99.586649
1824.000000	99.588231
1823.000000	99.588437
1822.000000	99.586156
1821.000000	99.584483
1820.000000	99.588773
1819.000000	99.600339
1818.000000	99.612953
1817.000000	99.617540
1816.000000	99.611375
1815.000000	99.600566
1814.000000	99.593233
1813.000000	99.593573
1812.000000	99.600762
1811.000000	99.609522
1810.000000	99.613279
1809.000000	99.609763
1808.000000	99.601559
1807.000000	99.592982
1806.000000	99.587311
1805.000000	99.584772
1804.000000	99.583155
1803.000000	99.580301
1802.000000	99.574970
1801.000000	99.567419
1800.000000	99.558045
1799.000000	99.548274
1798.000000	99.541983
1797.000000	99.541672
1796.000000	99.544663
1795.000000	99.546334
1794.000000	99.545566
1793.000000	99.546709
1792.000000	99.553163
1791.000000	99.560580
1790.000000	99.563901
1789.000000	99.563547
1788.000000	99.561049
1787.000000	99.557105
1786.000000	99.552951
1785.000000	99.551574
1784.000000	99.556200
1783.000000	99.567216
1782.000000	99.580769
1781.000000	99.592463
1780.000000	99.599912
1779.000000	99.604315
1778.000000	99.608034
1777.000000	99.612048
1776.000000	99.616740
1775.000000	99.621787
1774.000000	99.625219
1773.000000	99.624906
1772.000000	99.621082
1771.000000	99.614176
1770.000000	99.604123
1769.000000	99.592299
1768.000000	99.584521
1767.000000	99.587110
1766.000000	99.597453
1765.000000	99.606607
1764.000000	99.608810
1763.000000	99.606002
1762.000000	99.603061
1761.000000	99.601509
1760.000000	99.599795
1759.000000	99.595800
1758.000000	99.586418
1757.000000	99.569945
1756.000000	99.550599
1755.000000	99.534835
1754.000000	99.521249
1753.000000	99.502226
1752.000000	99.476312
1751.000000	99.454861
1750.000000	99.446323
1749.000000	99.439799
1748.000000	99.424633
1747.000000	99.404603
1746.000000	99.385888
1745.000000	99.368546
1744.000000	99.352049
1743.000000	99.339413
1742.000000	99.331755
1741.000000	99.327618
1740.000000	99.329436
1739.000000	99.340672
1738.000000	99.355012
1737.000000	99.362132
1736.000000	99.358509
1735.000000	99.355295
1734.000000	99.374608
1733.000000	99.411223
1732.000000	99.439759
1731.000000	99.456461
1730.000000	99.469276
1729.000000	99.477958
1728.000000	99.479562
1727.000000	99.476914
1726.000000	99.474156
1725.000000	99.472668
1724.000000	99.472415
1723.000000	99.474372
1722.000000	99.477084
1721.000000	99.477837
1720.000000	99.477934
1719.000000	99.479973
1718.000000	99.477792
1717.000000	99.464615
1716.000000	99.444133
1715.000000	99.423446
1714.000000	99.407899
1713.000000	99.394476
1712.000000	99.378023
1711.000000	99.361765
1710.000000	99.352929
1709.000000	99.352208
1708.000000	99.352782
1707.000000	99.348949
1706.000000	99.342131
1705.000000	99.336095
1704.000000	99.329304
1703.000000	99.314333
1702.000000	99.283033
1701.000000	99.241937
1700.000000	99.216048
1699.000000	99.212503
1698.000000	99.211742
1697.000000	99.191467
1696.000000	99.148055
1695.000000	99.099918
1694.000000	99.064985
1693.000000	99.040163
1692.000000	99.015907
1691.000000	98.987881
1690.000000	98.956802
1689.000000	98.929155
1688.000000	98.912753
1687.000000	98.906155
1686.000000	98.896897
1685.000000	98.868654
1684.000000	98.813528
1683.000000	98.746665
1682.000000	98.689861
1681.000000	98.641529
1680.000000	98.594181
1679.000000	98.545779
1678.000000	98.494319
1677.000000	98.432704
1676.000000	98.357953
1675.000000	98.284540
1674.000000	98.229296
1673.000000	98.185340
1672.000000	98.134251
1671.000000	98.067882
1670.000000	97.989257
1669.000000	97.907523
1668.000000	97.833700
1667.000000	97.774119
1666.000000	97.722586
1665.000000	97.666698
1664.000000	97.598604
1663.000000	97.523517
1662.000000	97.454502
1661.000000	97.396478
1660.000000	97.344901
1659.000000	97.299382
1658.000000	97.263714
1657.000000	97.238506
1656.000000	97.217811
1655.000000	97.194067
1654.000000	97.168745
1653.000000	97.152940
1652.000000	97.136163
1651.000000	97.113761
1650.000000	97.081937
1649.000000	97.049317
1648.000000	97.022322
1647.000000	97.007556
1646.000000	97.005499
1645.000000	97.001671
1644.000000	96.990861
1643.000000	96.979110
1642.000000	96.972041
1641.000000	96.968667
1640.000000	96.964707
1639.000000	96.959587
1638.000000	96.955568
1637.000000	96.952299
1636.000000	96.948313
1635.000000	96.943639
1634.000000	96.940774
1633.000000	96.940155
1632.000000	96.938859
1631.000000	96.939540
1630.000000	96.949299
1629.000000	96.973291
1628.000000	97.008713
1627.000000	97.047927
1626.000000	97.086112
1625.000000	97.125035
1624.000000	97.171817
1623.000000	97.231740
1622.000000	97.297074
1621.000000	97.354682
1620.000000	97.401841
1619.000000	97.445541
1618.000000	97.497976
1617.000000	97.571440
1616.000000	97.656761
1615.000000	97.726908
1614.000000	97.775864
1613.000000	97.815144
1612.000000	97.855349
1611.000000	97.900802
1610.000000	97.951458
1609.000000	98.004863
1608.000000	98.057490
1607.000000	98.105766
1606.000000	98.146721
1605.000000	98.180426
1604.000000	98.209530
1603.000000	98.236167
1602.000000	98.260949
1601.000000	98.284667
1600.000000	98.309055
1599.000000	98.334796
1598.000000	98.360029
1597.000000	98.383008
1596.000000	98.403658
1595.000000	98.421179
1594.000000	98.433152
1593.000000	98.438165
1592.000000	98.438090
1591.000000	98.436523
1590.000000	98.435310
1589.000000	98.432944
1588.000000	98.426697
1587.000000	98.415996
1586.000000	98.402924
1585.000000	98.389225
1584.000000	98.374184
1583.000000	98.354339
1582.000000	98.327954
1581.000000	98.298634
1580.000000	98.272598
1579.000000	98.251762
1578.000000	98.231191
1577.000000	98.204323
1576.000000	98.173664
1575.000000	98.145257
1574.000000	98.116406
1573.000000	98.084172
1572.000000	98.050153
1571.000000	98.015678
1570.000000	97.981574
1569.000000	97.946220
1568.000000	97.909367
1567.000000	97.870691
1566.000000	97.827055
1565.000000	97.778816
1564.000000	97.733934
1563.000000	97.699866
1562.000000	97.673369
1561.000000	97.641556
1560.000000	97.599435
1559.000000	97.549168
1558.000000	97.503780
1557.000000	97.460619
1556.000000	97.419171
1555.000000	97.380379
1554.000000	97.347092
1553.000000	97.320541
1552.000000	97.298738
1551.000000	97.278803
1550.000000	97.259292
1549.000000	97.237904
1548.000000	97.214954
1547.000000	97.192628
1546.000000	97.173436
1545.000000	97.158622
1544.000000	97.146421
1543.000000	97.132371
1542.000000	97.115245
1541.000000	97.106756
1540.000000	97.130861
1539.000000	97.175373
1538.000000	97.201731
1537.000000	97.205010
1536.000000	97.198921
1535.000000	97.201080
1534.000000	97.226178
1533.000000	97.270455
1532.000000	97.309756
1531.000000	97.334517
1530.000000	97.352582
1529.000000	97.370446
1528.000000	97.388468
1527.000000	97.404811
1526.000000	97.420163
1525.000000	97.437016
1524.000000	97.455323
1523.000000	97.475133
1522.000000	97.500674
1521.000000	97.532848
1520.000000	97.557447
1519.000000	97.568811
1518.000000	97.576082
1517.000000	97.586679
1516.000000	97.598912
1515.000000	97.608663
1514.000000	97.616556
1513.000000	97.626195
1512.000000	97.640512
1511.000000	97.659894
1510.000000	97.681312
1509.000000	97.701405
1508.000000	97.721687
1507.000000	97.751285
1506.000000	97.773279
1505.000000	97.770225
1504.000000	97.763378
1503.000000	97.758877
1502.000000	97.757337
1501.000000	97.756967
1500.000000	97.756452
1499.000000	97.755197
1498.000000	97.750466
1497.000000	97.744394
1496.000000	97.746971
1495.000000	97.758897
1494.000000	97.769128
1493.000000	97.770846
1492.000000	97.765556
1491.000000	97.758282
1490.000000	97.749464
1489.000000	97.737453
1488.000000	97.722984
1487.000000	97.707390
1486.000000	97.691095
1485.000000	97.671130
1484.000000	97.645944
1483.000000	97.616749
1482.000000	97.583741
1481.000000	97.546457
1480.000000	97.507922
1479.000000	97.471736
1478.000000	97.437563
1477.000000	97.402224
1476.000000	97.363372
1475.000000	97.316937
1474.000000	97.252985
1473.000000	97.168196
1472.000000	97.083265
1471.000000	97.018710
1470.000000	96.970541
1469.000000	96.927513
1468.000000	96.884990
1467.000000	96.841617
1466.000000	96.794192
1465.000000	96.743553
1464.000000	96.701301
1463.000000	96.675762
1462.000000	96.660901
1461.000000	96.647310
1460.000000	96.630533
1459.000000	96.603070
1458.000000	96.548399
1457.000000	96.470115
1456.000000	96.411323
1455.000000	96.385214
1454.000000	96.368064
1453.000000	96.347744
1452.000000	96.326797
1451.000000	96.310237
1450.000000	96.297316
1449.000000	96.283407
1448.000000	96.266456
1447.000000	96.248373
1446.000000	96.231078
1445.000000	96.217547
1444.000000	96.209517
1443.000000	96.205577
1442.000000	96.203074
1441.000000	96.201721
1440.000000	96.203094
1439.000000	96.205654
1438.000000	96.204629
1437.000000	96.199806
1436.000000	96.199335
1435.000000	96.205258
1434.000000	96.207430
1433.000000	96.199451
1432.000000	96.184975
1431.000000	96.171516
1430.000000	96.160372
1429.000000	96.146283
1428.000000	96.128122
1427.000000	96.109565
1426.000000	96.090958
1425.000000	96.070239
1424.000000	96.048791
1423.000000	96.030461
1422.000000	96.012433
1421.000000	95.987254
1420.000000	95.952509
1419.000000	95.914762
1418.000000	95.880267
1417.000000	95.850378
1416.000000	95.826931
1415.000000	95.809372
1414.000000	95.792344
1413.000000	95.770730
1412.000000	95.745024
1411.000000	95.718536
1410.000000	95.691169
1409.000000	95.663535
1408.000000	95.642915
1407.000000	95.635154
1406.000000	95.633329
1405.000000	95.625521
1404.000000	95.613521
1403.000000	95.609039
1402.000000	95.613236
1401.000000	95.617852
1400.000000	95.619206
1399.000000	95.622357
1398.000000	95.630647
1397.000000	95.640386
1396.000000	95.649310
1395.000000	95.659896
1394.000000	95.672293
1393.000000	95.685382
1392.000000	95.702595
1391.000000	95.725362
1390.000000	95.749507
1389.000000	95.770876
1388.000000	95.791252
1387.000000	95.815028
1386.000000	95.840209
1385.000000	95.863177
1384.000000	95.886994
1383.000000	95.915390
1382.000000	95.946084
1381.000000	95.974596
1380.000000	96.001182
1379.000000	96.028745
1378.000000	96.057258
1377.000000	96.085720
1376.000000	96.117941
1375.000000	96.160065
1374.000000	96.211139
1373.000000	96.262400
1372.000000	96.308838
1371.000000	96.352480
1370.000000	96.395609
1369.000000	96.438792
1368.000000	96.484041
1367.000000	96.533481
1366.000000	96.585932
1365.000000	96.639152
1364.000000	96.691457
1363.000000	96.739242
1362.000000	96.777819
1361.000000	96.806933
1360.000000	96.833055
1359.000000	96.862731
1358.000000	96.896981
1357.000000	96.932611
1356.000000	96.966142
1355.000000	96.995418
1354.000000	97.019815
1353.000000	97.040540
1352.000000	97.058641
1351.000000	97.072774
1350.000000	97.081429
1349.000000	97.085606
1348.000000	97.088175
1347.000000	97.090527
1346.000000	97.092081
1345.000000	97.092896
1344.000000	97.094353
1343.000000	97.096482
1342.000000	97.097607
1341.000000	97.097630
1340.000000	97.100062
1339.000000	97.108379
1338.000000	97.120303
1337.000000	97.131522
1336.000000	97.142277
1335.000000	97.154917
1334.000000	97.170065
1333.000000	97.187732
1332.000000	97.209190
1331.000000	97.235833
1330.000000	97.267250
1329.000000	97.301301
1328.000000	97.335549
1327.000000	97.367926
1326.000000	97.396900
1325.000000	97.421234
1324.000000	97.440628
1323.000000	97.455474
1322.000000	97.466593
1321.000000	97.475214
1320.000000	97.482260
1319.000000	97.487624
1318.000000	97.491209
1317.000000	97.495071
1316.000000	97.502636
1315.000000	97.515602
1314.000000	97.533162
1313.000000	97.554087
1312.000000	97.577000
1311.000000	97.598699
1310.000000	97.615593
1309.000000	97.627928
1308.000000	97.640041
1307.000000	97.655228
1306.000000	97.672547
1305.000000	97.688894
1304.000000	97.702954
1303.000000	97.715129
1302.000000	97.726381
1301.000000	97.738800
1300.000000	97.755059
1299.000000	97.775043
1298.000000	97.794467
1297.000000	97.808590
1296.000000	97.815824
1295.000000	97.816701
1294.000000	97.811534
1293.000000	97.801320
1292.000000	97.789533
1291.000000	97.780611
1290.000000	97.776436
1289.000000	97.775281
1288.000000	97.773329
1287.000000	97.766656
1286.000000	97.753636
1285.000000	97.737169
1284.000000	97.723377
1283.000000	97.716364
1282.000000	97.714736
1281.000000	97.714206
1280.000000	97.712685
1279.000000	97.711450
1278.000000	97.712443
1277.000000	97.716746
1276.000000	97.724971
1275.000000	97.737259
1274.000000	97.752286
1273.000000	97.767543
1272.000000	97.781054
1271.000000	97.792288
1270.000000	97.801509
1269.000000	97.808758
1268.000000	97.813430
1267.000000	97.814427
1266.000000	97.810971
1265.000000	97.803592
1264.000000	97.793951
1263.000000	97.783575
1262.000000	97.773397
1261.000000	97.764511
1260.000000	97.757751
1259.000000	97.752071
1258.000000	97.744340
1257.000000	97.732084
1256.000000	97.715833
1255.000000	97.698189
1254.000000	97.681167
1253.000000	97.664586
1252.000000	97.646122
1251.000000	97.623118
1250.000000	97.595230
1249.000000	97.565492
1248.000000	97.537717
1247.000000	97.512491
1246.000000	97.487170
1245.000000	97.460384
1244.000000	97.434398
1243.000000	97.411583
1242.000000	97.390725
1241.000000	97.369295
1240.000000	97.347798
1239.000000	97.329342
1238.000000	97.315555
1237.000000	97.305575
1236.000000	97.298500
1235.000000	97.294600
1234.000000	97.294640
1233.000000	97.299647
1232.000000	97.311317
1231.000000	97.330509
1230.000000	97.355900
1229.000000	97.386032
1228.000000	97.421071
1227.000000	97.460622
1226.000000	97.501171
1225.000000	97.538817
1224.000000	97.574402
1223.000000	97.612832
1222.000000	97.657193
1221.000000	97.705283
1220.000000	97.752056
1219.000000	97.793712
1218.000000	97.829174
1217.000000	97.858861
1216.000000	97.882896
1215.000000	97.900636
1214.000000	97.911618
1213.000000	97.917074
1212.000000	97.919613
1211.000000	97.920981
1210.000000	97.920718
1209.000000	97.916964
1208.000000	97.908547
1207.000000	97.896061
1206.000000	97.881548
1205.000000	97.867304
1204.000000	97.854915
1203.000000	97.846012
1202.000000	97.843820
1201.000000	97.852155
1200.000000	97.870997
1199.000000	97.894524
1198.000000	97.915954
1197.000000	97.934399
1196.000000	97.954839
1195.000000	97.981150
1194.000000	98.012354
1193.000000	98.045457
1192.000000	98.078605
1191.000000	98.110420
1190.000000	98.139374
1189.000000	98.165435
1188.000000	98.189939
1187.000000	98.212758
1186.000000	98.232012
1185.000000	98.247872
1184.000000	98.263677
1183.000000	98.281689
1182.000000	98.300207
1181.000000	98.316279
1180.000000	98.328958
1179.000000	98.337806
1178.000000	98.341063
1177.000000	98.338374
1176.000000	98.333511
1175.000000	98.331571
1174.000000	98.333675
1173.000000	98.336254
1172.000000	98.335514
1171.000000	98.331195
1170.000000	98.326427
1169.000000	98.324954
1168.000000	98.327860
1167.000000	98.332085
1166.000000	98.333131
1165.000000	98.330188
1164.000000	98.327354
1163.000000	98.328882
1162.000000	98.334745
1161.000000	98.342411
1160.000000	98.351014
1159.000000	98.361571
1158.000000	98.374370
1157.000000	98.388471
1156.000000	98.403287
1155.000000	98.418449
1154.000000	98.432723
1153.000000	98.445242
1152.000000	98.457510
1151.000000	98.472152
1150.000000	98.489564
1149.000000	98.507575
1148.000000	98.524486
1147.000000	98.540699
1146.000000	98.557032
1145.000000	98.573034
1144.000000	98.587668
1143.000000	98.600559
1142.000000	98.611934
1141.000000	98.622082
1140.000000	98.631675
1139.000000	98.642346
1138.000000	98.656072
1137.000000	98.673383
1136.000000	98.691878
1135.000000	98.706895
1134.000000	98.714966
1133.000000	98.717186
1132.000000	98.718414
1131.000000	98.722107
1130.000000	98.726052
1129.000000	98.724423
1128.000000	98.714119
1127.000000	98.698613
1126.000000	98.685049
1125.000000	98.677893
1124.000000	98.675850
1123.000000	98.674455
1122.000000	98.671055
1121.000000	98.667295
1120.000000	98.667211
1119.000000	98.672800
1118.000000	98.681466
1117.000000	98.688097
1116.000000	98.689920
1115.000000	98.688777
1114.000000	98.688107
1113.000000	98.688626
1112.000000	98.688699
1111.000000	98.688796
1110.000000	98.692735
1109.000000	98.702633
1108.000000	98.714628
1107.000000	98.721902
1106.000000	98.721617
1105.000000	98.716407
1104.000000	98.709547
1103.000000	98.702088
1102.000000	98.695482
1101.000000	98.693050
1100.000000	98.696914
1099.000000	98.703312
1098.000000	98.706025
1097.000000	98.702107
1096.000000	98.693376
1095.000000	98.683119
1094.000000	98.672980
1093.000000	98.662021
1092.000000	98.647140
1091.000000	98.625624
1090.000000	98.598807
1089.000000	98.572325
1088.000000	98.550769
1087.000000	98.533086
1086.000000	98.515189
1085.000000	98.495903
1084.000000	98.477761
1083.000000	98.462542
1082.000000	98.449734
1081.000000	98.439728
1080.000000	98.435457
1079.000000	98.438823
1078.000000	98.447749
1077.000000	98.459039
1076.000000	98.472172
1075.000000	98.488260
1074.000000	98.506163
1073.000000	98.522244
1072.000000	98.534370
1071.000000	98.544506
1070.000000	98.556553
1069.000000	98.571665
1068.000000	98.586509
1067.000000	98.596275
1066.000000	98.599014
1065.000000	98.595868
1064.000000	98.587935
1063.000000	98.575949
1062.000000	98.563690
1061.000000	98.558312
1060.000000	98.564253
1059.000000	98.578148
1058.000000	98.592175
1057.000000	98.601170
1056.000000	98.604498
1055.000000	98.603369
1054.000000	98.600779
1053.000000	98.602739
1052.000000	98.614434
1051.000000	98.633895
1050.000000	98.653403
1049.000000	98.667827
1048.000000	98.677379
1047.000000	98.682218
1046.000000	98.680568
1045.000000	98.674537
1044.000000	98.671746
1043.000000	98.676905
1042.000000	98.684446
1041.000000	98.684186
1040.000000	98.673054
1039.000000	98.657012
1038.000000	98.642254
1037.000000	98.628278
1036.000000	98.611149
1035.000000	98.590825
1034.000000	98.572843
1033.000000	98.563190
1032.000000	98.562623
1031.000000	98.566560
1030.000000	98.570480
1029.000000	98.574967
1028.000000	98.584304
1027.000000	98.600805
1026.000000	98.622448
1025.000000	98.646049
1024.000000	98.669980
1023.000000	98.692531
1022.000000	98.710613
1021.000000	98.722960
1020.000000	98.732845
1019.000000	98.744721
1018.000000	98.758625
1017.000000	98.770413
1016.000000	98.777678
1015.000000	98.783303
1014.000000	98.792621
1013.000000	98.808200
1012.000000	98.828007
1011.000000	98.847580
1010.000000	98.863343
1009.000000	98.874792
1008.000000	98.884498
1007.000000	98.896091
1006.000000	98.911485
1005.000000	98.929110
1004.000000	98.944591
1003.000000	98.954224
1002.000000	98.958758
1001.000000	98.963449
1000.000000	98.973465
999.000000	98.989112
998.000000	99.006241
997.000000	99.021448
996.000000	99.036192
995.000000	99.055253
994.000000	99.081275
993.000000	99.111044
992.000000	99.137589
991.000000	99.155984
990.000000	99.166778
989.000000	99.173081
988.000000	99.175580
987.000000	99.173014
986.000000	99.166847
985.000000	99.162169
984.000000	99.162311
983.000000	99.165193
982.000000	99.166723
981.000000	99.164875
980.000000	99.158610
979.000000	99.146234
978.000000	99.129358
977.000000	99.116059
976.000000	99.115114
975.000000	99.126724
974.000000	99.142893
973.000000	99.156897
972.000000	99.168017
971.000000	99.177091
970.000000	99.182934
969.000000	99.185862
968.000000	99.190261
967.000000	99.200033
966.000000	99.213477
965.000000	99.225440
964.000000	99.232753
963.000000	99.235018
962.000000	99.232535
961.000000	99.226700
960.000000	99.221489
959.000000	99.221397
958.000000	99.227524
957.000000	99.237138
956.000000	99.246879
955.000000	99.254987
954.000000	99.261002
953.000000	99.265094
952.000000	99.267667
951.000000	99.268632
950.000000	99.267475
949.000000	99.264948
948.000000	99.263949
947.000000	99.267320
946.000000	99.274937
945.000000	99.284197
944.000000	99.292935
943.000000	99.300405
942.000000	99.305624
941.000000	99.306488
940.000000	99.301863
939.000000	99.294378
938.000000	99.290103
937.000000	99.293901
936.000000	99.304483
935.000000	99.314946
934.000000	99.319437
933.000000	99.319070
932.000000	99.319829
931.000000	99.325104
930.000000	99.332611
929.000000	99.338467
928.000000	99.341463
927.000000	99.342314
926.000000	99.341782
925.000000	99.341936
924.000000	99.346919
923.000000	99.359262
922.000000	99.375955
921.000000	99.390971
920.000000	99.401395
919.000000	99.408864
918.000000	99.415251
917.000000	99.419872
916.000000	99.421931
915.000000	99.423101
914.000000	99.425887
913.000000	99.430474
912.000000	99.435307
911.000000	99.440562
910.000000	99.449179
909.000000	99.463283
908.000000	99.480115
907.000000	99.493263
906.000000	99.499052
905.000000	99.501757
904.000000	99.510916
903.000000	99.531878
902.000000	99.558964
901.000000	99.579029
900.000000	99.582442
899.000000	99.570952
898.000000	99.555035
897.000000	99.544351
896.000000	99.542023
895.000000	99.547240
894.000000	99.560517
893.000000	99.583381
892.000000	99.613276
891.000000	99.641998
890.000000	99.661688
889.000000	99.671577
888.000000	99.676744
887.000000	99.680019
886.000000	99.676130
885.000000	99.652416
884.000000	99.593325
883.000000	99.485633
882.000000	99.321761
881.000000	99.102171
880.000000	98.835475
879.000000	98.537234
878.000000	98.227721
877.000000	97.926962
876.000000	97.650200
875.000000	97.407653
874.000000	97.212641
873.000000	97.090216
872.000000	97.075734
871.000000	97.193008
870.000000	97.427979
869.000000	97.727354
868.000000	98.025221
867.000000	98.275295
866.000000	98.464548
865.000000	98.604583
864.000000	98.713179
863.000000	98.802034
862.000000	98.876436
861.000000	98.940838
860.000000	99.000710
859.000000	99.058523
858.000000	99.111606
857.000000	99.154784
856.000000	99.184361
855.000000	99.199810
854.000000	99.204815
853.000000	99.207663
852.000000	99.216218
851.000000	99.229345
850.000000	99.236795
849.000000	99.232213
848.000000	99.224647
847.000000	99.231489
846.000000	99.259209
845.000000	99.296379
844.000000	99.327264
843.000000	99.347934
842.000000	99.366275
841.000000	99.389460
840.000000	99.416169
839.000000	99.440373
838.000000	99.459107
837.000000	99.474944
836.000000	99.491412
835.000000	99.507571
834.000000	99.518380
833.000000	99.521525
832.000000	99.522363
831.000000	99.528486
830.000000	99.539325
829.000000	99.545499
828.000000	99.541257
827.000000	99.533655
826.000000	99.534348
825.000000	99.544643
824.000000	99.554889
823.000000	99.558248
822.000000	99.557740
821.000000	99.557856
820.000000	99.556172
819.000000	99.547619
818.000000	99.533210
817.000000	99.519600
816.000000	99.512034
815.000000	99.511691
814.000000	99.518546
813.000000	99.532127
812.000000	99.548367
811.000000	99.559781
810.000000	99.562027
809.000000	99.559086
808.000000	99.559351
807.000000	99.566904
806.000000	99.578347
805.000000	99.587881
804.000000	99.593911
803.000000	99.599964
802.000000	99.609744
801.000000	99.622048
800.000000	99.630946
799.000000	99.631480
798.000000	99.624883
797.000000	99.617161
796.000000	99.612621
795.000000	99.610468
794.000000	99.608519
793.000000	99.607951
792.000000	99.611571
791.000000	99.617762
790.000000	99.619094
789.000000	99.608714
788.000000	99.587529
787.000000	99.564345
786.000000	99.549420
785.000000	99.547235
784.000000	99.553884
783.000000	99.560624
782.000000	99.560924
781.000000	99.555263
780.000000	99.549461
779.000000	99.548675
778.000000	99.553509
777.000000	99.560852
776.000000	99.566335
775.000000	99.566425
774.000000	99.561119
773.000000	99.555603
772.000000	99.556279
771.000000	99.563245
770.000000	99.569364
769.000000	99.569424
768.000000	99.567518
767.000000	99.571282
766.000000	99.580810
765.000000	99.588358
764.000000	99.588656
763.000000	99.583998
762.000000	99.577921
761.000000	99.569306
760.000000	99.556544
759.000000	99.544077
758.000000	99.540077
757.000000	99.548423
756.000000	99.565844
755.000000	99.585563
754.000000	99.600731
753.000000	99.606008
752.000000	99.600871
751.000000	99.592215
750.000000	99.589416
749.000000	99.593634
748.000000	99.594311
747.000000	99.579862
746.000000	99.551448
745.000000	99.523793
744.000000	99.511396
743.000000	99.515561
742.000000	99.525380
741.000000	99.529178
740.000000	99.523668
739.000000	99.513771
738.000000	99.506493
737.000000	99.505150
736.000000	99.507246
735.000000	99.507102
734.000000	99.501508
733.000000	99.492719
732.000000	99.484712
731.000000	99.476981
730.000000	99.464489
729.000000	99.444030
728.000000	99.417524
727.000000	99.388680
726.000000	99.360151
725.000000	99.334744
724.000000	99.315037
723.000000	99.299834
722.000000	99.284870
721.000000	99.269383
720.000000	99.256857
719.000000	99.244094
718.000000	99.215295
717.000000	99.154611
716.000000	99.063588
715.000000	98.962513
714.000000	98.876580
713.000000	98.823798
712.000000	98.810880
711.000000	98.831700
710.000000	98.869688
709.000000	98.909841
708.000000	98.949936
707.000000	98.994419
706.000000	99.038305
705.000000	99.066557
704.000000	99.071479
703.000000	99.062853
702.000000	99.056340
701.000000	99.058504
700.000000	99.067451
699.000000	99.079704
698.000000	99.090312
697.000000	99.092020
696.000000	99.082468
695.000000	99.069377
694.000000	99.061961
693.000000	99.060411
692.000000	99.060076
691.000000	99.062305
690.000000	99.073245
689.000000	99.092734
688.000000	99.111661
687.000000	99.122490
686.000000	99.125840
685.000000	99.125117
684.000000	99.120897
683.000000	99.112582
682.000000	99.101395
681.000000	99.089306
680.000000	99.077291
679.000000	99.065896
678.000000	99.056124
677.000000	99.049441
676.000000	99.046661
675.000000	99.046446
674.000000	99.044181
673.000000	99.034940
672.000000	99.019077
671.000000	99.002103
670.000000	98.989483
669.000000	98.984849
668.000000	98.993222
667.000000	99.001081
666.000000	98.990499
665.000000	98.970729
664.000000	98.950864
663.000000	98.934482
662.000000	98.924834
661.000000	98.923926
660.000000	98.929179
659.000000	98.931648
658.000000	98.920439
657.000000	98.893448
656.000000	98.862152
655.000000	98.844381
654.000000	98.850558
653.000000	98.876198
652.000000	98.906759
651.000000	98.926496
650.000000	98.925048
649.000000	98.903074
648.000000	98.873199
647.000000	98.852891
646.000000	98.852714
645.000000	98.870384
644.000000	98.896674
643.000000	98.924219
642.000000	98.949368
641.000000	98.969408
640.000000	98.981378
639.000000	98.982293
638.000000	98.970626
637.000000	98.950080
636.000000	98.931389
635.000000	98.925918
634.000000	98.933728
633.000000	98.942238
632.000000	98.940423
631.000000	98.929509
630.000000	98.916982
629.000000	98.905587
628.000000	98.893784
627.000000	98.883257
626.000000	98.879094
625.000000	98.882840
624.000000	98.891737
623.000000	98.904727
622.000000	98.921877
621.000000	98.937811
620.000000	98.943324
619.000000	98.935359
618.000000	98.921377
617.000000	98.911033
616.000000	98.905882
615.000000	98.900237
614.000000	98.890294
613.000000	98.879255
612.000000	98.873734
611.000000	98.876089
610.000000	98.882108
609.000000	98.887538
608.000000	98.895290
607.000000	98.912781
606.000000	98.940509
605.000000	98.967830
604.000000	98.982441
603.000000	98.980282
602.000000	98.963789
601.000000	98.936440
600.000000	98.903975
599.000000	98.878302
598.000000	98.870011
597.000000	98.877730
596.000000	98.892084
595.000000	98.907033
594.000000	98.921914
593.000000	98.934107
592.000000	98.938321
591.000000	98.934938
590.000000	98.931655
589.000000	98.933779
588.000000	98.938706
587.000000	98.941984
586.000000	98.943076
585.000000	98.943172
584.000000	98.941377
583.000000	98.938706
582.000000	98.941207
581.000000	98.953866
580.000000	98.971279
579.000000	98.980114
578.000000	98.973176
577.000000	98.958438
576.000000	98.950474
575.000000	98.951098
574.000000	98.944194
573.000000	98.916687
572.000000	98.877225
571.000000	98.845718
570.000000	98.828646
569.000000	98.814270
568.000000	98.797194
567.000000	98.791311
566.000000	98.808828
565.000000	98.839100
564.000000	98.859951
563.000000	98.861933
562.000000	98.849702
561.000000	98.827029
560.000000	98.793351
559.000000	98.755120
558.000000	98.727637
557.000000	98.721441
556.000000	98.732015
555.000000	98.746352
554.000000	98.756948
553.000000	98.766742
552.000000	98.781662
551.000000	98.800923
550.000000	98.816755
549.000000	98.825021
548.000000	98.833312
547.000000	98.853246
546.000000	98.886365
545.000000	98.922145
544.000000	98.950371
543.000000	98.968601
542.000000	98.978132
541.000000	98.980397
540.000000	98.976080
539.000000	98.963890
538.000000	98.941948
537.000000	98.914505
536.000000	98.891269
535.000000	98.872988
534.000000	98.843839
533.000000	98.793245
532.000000	98.738944
531.000000	98.713221
530.000000	98.725282
529.000000	98.755389
528.000000	98.785289
527.000000	98.813196
526.000000	98.831650
525.000000	98.816819
524.000000	98.765252
523.000000	98.714445
522.000000	98.707014
521.000000	98.747277
520.000000	98.800846
519.000000	98.832189
518.000000	98.837442
517.000000	98.840241
516.000000	98.860077
515.000000	98.888439
514.000000	98.896488
513.000000	98.867308
512.000000	98.821235
511.000000	98.803389
510.000000	98.835986
509.000000	98.893298
508.000000	98.932869
507.000000	98.943787
506.000000	98.949608
505.000000	98.967145
504.000000	98.986517
503.000000	98.993170
502.000000	98.992068
501.000000	99.001531
500.000000	99.027170
499.000000	99.057413
498.000000	99.078611
497.000000	99.085708
496.000000	99.082194
495.000000	99.075263
494.000000	99.074634
493.000000	99.091883
492.000000	99.131052
491.000000	99.179652
490.000000	99.212801
489.000000	99.214529
488.000000	99.190928
487.000000	99.160076
486.000000	99.135944
485.000000	99.124903
484.000000	99.127798
483.000000	99.134830
482.000000	99.123398
481.000000	99.078978
480.000000	99.021434
479.000000	98.993906
478.000000	99.017687
477.000000	99.071861
476.000000	99.129077
475.000000	99.192697
474.000000	99.273696
473.000000	99.349186
472.000000	99.373869
471.000000	99.343045
470.000000	99.298575
469.000000	99.267706
468.000000	99.241797
467.000000	99.208776
466.000000	99.183201
465.000000	99.196944
464.000000	99.262737
463.000000	99.352051
462.000000	99.416121
461.000000	99.438368
460.000000	99.451605
459.000000	99.363894
458.000000	99.390452
457.000000	99.430183
456.000000	99.464025
455.000000	99.478810
454.000000	99.469805
453.000000	99.459798
452.000000	99.496133
451.000000	99.588481
450.000000	99.668073
