PE IR       SUBTECH     SPECTRUM    ASCII       PEDS        4.00        
   -1
POD9-2C-F002_1.ASC
23/09/08
12:06:54.00
23/09/08
12:25:17.00
uco
Sample 002 By uco Date Friday, September 08 2023
450.000000
#HDR
-1
-1
#GR
cm-1
%T
1.0
0.0
4000.000000
-1.000000
3551
8
100.174227
96.147148
#DATA
4000.000000	100.094412
3999.000000	100.095628
3998.000000	100.091963
3997.000000	100.084326
3996.000000	100.076183
3995.000000	100.071392
3994.000000	100.076869
3993.000000	100.080098
3992.000000	100.083169
3991.000000	100.082934
3990.000000	100.078844
3989.000000	100.073329
3988.000000	100.070165
3987.000000	100.071880
3986.000000	100.078240
3985.000000	100.086505
3984.000000	100.093029
3983.000000	100.095306
3982.000000	100.093082
3981.000000	100.087897
3980.000000	100.081661
3979.000000	100.075473
3978.000000	100.069668
3977.000000	100.064670
3976.000000	100.061587
3975.000000	100.061788
3974.000000	100.065600
3973.000000	100.071419
3972.000000	100.076347
3971.000000	100.078217
3970.000000	100.077286
3969.000000	100.075767
3968.000000	100.075424
3967.000000	100.075766
3966.000000	100.075058
3965.000000	100.072762
3964.000000	100.070471
3963.000000	100.070128
3962.000000	100.071698
3961.000000	100.073232
3960.000000	100.073169
3959.000000	100.071981
3958.000000	100.071388
3957.000000	100.072324
3956.000000	100.073994
3955.000000	100.074741
3954.000000	100.073813
3953.000000	100.072005
3952.000000	100.070679
3951.000000	100.070457
3950.000000	100.070692
3949.000000	100.070215
3948.000000	100.068473
3947.000000	100.066030
3946.000000	100.064103
3945.000000	100.063326
3944.000000	100.062968
3943.000000	100.061776
3942.000000	100.059312
3941.000000	100.056265
3940.000000	100.053512
3939.000000	100.051569
3938.000000	100.051044
3937.000000	100.053044
3936.000000	100.058372
3935.000000	100.065778
3934.000000	100.071821
3933.000000	100.073401
3932.000000	100.070817
3931.000000	100.067530
3930.000000	100.066101
3929.000000	100.066176
3928.000000	100.066570
3927.000000	100.067057
3926.000000	100.067680
3925.000000	100.067631
3924.000000	100.066041
3923.000000	100.063166
3922.000000	100.060207
3921.000000	100.058241
3920.000000	100.057746
3919.000000	100.058576
3918.000000	100.060023
3917.000000	100.061425
3916.000000	100.063038
3915.000000	100.065831
3914.000000	100.069810
3913.000000	100.073427
3912.000000	100.074579
3911.000000	100.072210
3910.000000	100.066741
3909.000000	100.059265
3908.000000	100.050994
3907.000000	100.042525
3906.000000	100.033809
3905.000000	100.024908
3904.000000	100.017938
3903.000000	100.017044
3902.000000	100.024940
3901.000000	100.040006
3900.000000	100.056922
3899.000000	100.069960
3898.000000	100.076462
3897.000000	100.077336
3896.000000	100.074716
3895.000000	100.070716
3894.000000	100.066600
3893.000000	100.061786
3892.000000	100.053864
3891.000000	100.041898
3890.000000	100.029409
3889.000000	100.022161
3888.000000	100.023389
3887.000000	100.030464
3886.000000	100.036669
3885.000000	100.037405
3884.000000	100.033690
3883.000000	100.029274
3882.000000	100.026615
3881.000000	100.026819
3880.000000	100.030891
3879.000000	100.038605
3878.000000	100.048360
3877.000000	100.058403
3876.000000	100.066320
3875.000000	100.068722
3874.000000	100.064917
3873.000000	100.059708
3872.000000	100.058639
3871.000000	100.061188
3870.000000	100.062225
3869.000000	100.060781
3868.000000	100.062138
3867.000000	100.069853
3866.000000	100.079563
3865.000000	100.082920
3864.000000	100.076871
3863.000000	100.066773
3862.000000	100.059274
3861.000000	100.056421
3860.000000	100.056537
3859.000000	100.057162
3858.000000	100.057727
3857.000000	100.059434
3856.000000	100.063189
3855.000000	100.066618
3854.000000	100.064385
3853.000000	100.060160
3852.000000	100.061603
3851.000000	100.066843
3850.000000	100.070299
3849.000000	100.069573
3848.000000	100.066015
3847.000000	100.063342
3846.000000	100.063758
3845.000000	100.066024
3844.000000	100.066393
3843.000000	100.062524
3842.000000	100.056470
3841.000000	100.052570
3840.000000	100.052177
3839.000000	100.052612
3838.000000	100.051454
3837.000000	100.048784
3836.000000	100.046634
3835.000000	100.047660
3834.000000	100.053574
3833.000000	100.062873
3832.000000	100.070569
3831.000000	100.071977
3830.000000	100.067387
3829.000000	100.061751
3828.000000	100.059335
3827.000000	100.059428
3826.000000	100.057930
3825.000000	100.053535
3824.000000	100.049431
3823.000000	100.048946
3822.000000	100.050796
3821.000000	100.051535
3820.000000	100.051735
3819.000000	100.054727
3818.000000	100.061972
3817.000000	100.069580
3816.000000	100.072966
3815.000000	100.073642
3814.000000	100.076136
3813.000000	100.080611
3812.000000	100.082609
3811.000000	100.079178
3810.000000	100.072244
3809.000000	100.065466
3808.000000	100.058397
3807.000000	100.047946
3806.000000	100.035663
3805.000000	100.029323
3804.000000	100.035588
3803.000000	100.053071
3802.000000	100.070710
3801.000000	100.077356
3800.000000	100.073108
3799.000000	100.067086
3798.000000	100.065974
3797.000000	100.069407
3796.000000	100.073400
3795.000000	100.075430
3794.000000	100.076081
3793.000000	100.076849
3792.000000	100.078178
3791.000000	100.079146
3790.000000	100.077991
3789.000000	100.073688
3788.000000	100.067621
3787.000000	100.063135
3786.000000	100.062772
3785.000000	100.066153
3784.000000	100.070748
3783.000000	100.074838
3782.000000	100.078703
3781.000000	100.083141
3780.000000	100.087492
3779.000000	100.089724
3778.000000	100.087928
3777.000000	100.082387
3776.000000	100.075501
3775.000000	100.070166
3774.000000	100.068866
3773.000000	100.072983
3772.000000	100.080916
3771.000000	100.087014
3770.000000	100.085322
3769.000000	100.075650
3768.000000	100.064221
3767.000000	100.057590
3766.000000	100.057566
3765.000000	100.061288
3764.000000	100.065173
3763.000000	100.067990
3762.000000	100.069331
3761.000000	100.068030
3760.000000	100.064061
3759.000000	100.059959
3758.000000	100.057419
3757.000000	100.055362
3756.000000	100.053468
3755.000000	100.053732
3754.000000	100.057605
3753.000000	100.063861
3752.000000	100.069903
3751.000000	100.073194
3750.000000	100.070737
3749.000000	100.061200
3748.000000	100.049845
3747.000000	100.044857
3746.000000	100.048135
3745.000000	100.052165
3744.000000	100.050805
3743.000000	100.047895
3742.000000	100.048856
3741.000000	100.052749
3740.000000	100.055719
3739.000000	100.056537
3738.000000	100.057736
3737.000000	100.060608
3736.000000	100.063617
3735.000000	100.065129
3734.000000	100.064945
3733.000000	100.063538
3732.000000	100.060904
3731.000000	100.057242
3730.000000	100.053807
3729.000000	100.051963
3728.000000	100.051620
3727.000000	100.051560
3726.000000	100.051314
3725.000000	100.050986
3724.000000	100.049881
3723.000000	100.048225
3722.000000	100.048562
3721.000000	100.053689
3720.000000	100.062892
3719.000000	100.071814
3718.000000	100.075993
3717.000000	100.074734
3716.000000	100.071826
3715.000000	100.071578
3714.000000	100.074677
3713.000000	100.078374
3712.000000	100.080499
3711.000000	100.082696
3710.000000	100.087080
3709.000000	100.092216
3708.000000	100.095236
3707.000000	100.094869
3706.000000	100.092388
3705.000000	100.090469
3704.000000	100.090767
3703.000000	100.092518
3702.000000	100.093535
3701.000000	100.092437
3700.000000	100.090045
3699.000000	100.088285
3698.000000	100.087792
3697.000000	100.087181
3696.000000	100.085112
3695.000000	100.081767
3694.000000	100.077368
3693.000000	100.071035
3692.000000	100.061722
3691.000000	100.050968
3690.000000	100.045031
3689.000000	100.051303
3688.000000	100.067577
3687.000000	100.082051
3686.000000	100.087155
3685.000000	100.083448
3684.000000	100.075775
3683.000000	100.070306
3682.000000	100.071000
3681.000000	100.075441
3680.000000	100.076967
3679.000000	100.072941
3678.000000	100.067671
3677.000000	100.065709
3676.000000	100.065192
3675.000000	100.063513
3674.000000	100.062636
3673.000000	100.067023
3672.000000	100.075625
3671.000000	100.079349
3670.000000	100.070520
3669.000000	100.055313
3668.000000	100.046303
3667.000000	100.047833
3666.000000	100.055477
3665.000000	100.062870
3664.000000	100.066414
3663.000000	100.065892
3662.000000	100.062249
3661.000000	100.056204
3660.000000	100.049601
3659.000000	100.045730
3658.000000	100.046693
3657.000000	100.050288
3656.000000	100.051822
3655.000000	100.050025
3654.000000	100.048207
3653.000000	100.049428
3652.000000	100.051728
3651.000000	100.049131
3650.000000	100.039618
3649.000000	100.031207
3648.000000	100.030006
3647.000000	100.031019
3646.000000	100.029444
3645.000000	100.027303
3644.000000	100.028431
3643.000000	100.033911
3642.000000	100.041800
3641.000000	100.049244
3640.000000	100.054363
3639.000000	100.055698
3638.000000	100.052073
3637.000000	100.043860
3636.000000	100.032944
3635.000000	100.020752
3634.000000	100.007553
3633.000000	99.994533
3632.000000	99.984716
3631.000000	99.980855
3630.000000	99.981798
3629.000000	99.982812
3628.000000	99.980655
3627.000000	99.975195
3626.000000	99.968550
3625.000000	99.962016
3624.000000	99.955907
3623.000000	99.951004
3622.000000	99.948529
3621.000000	99.948503
3620.000000	99.949501
3619.000000	99.950048
3618.000000	99.949469
3617.000000	99.947656
3616.000000	99.945148
3615.000000	99.942316
3614.000000	99.938840
3613.000000	99.934272
3612.000000	99.928193
3611.000000	99.920832
3610.000000	99.914142
3609.000000	99.911982
3608.000000	99.917094
3607.000000	99.926635
3606.000000	99.933659
3605.000000	99.933465
3604.000000	99.926755
3603.000000	99.917409
3602.000000	99.909138
3601.000000	99.903521
3600.000000	99.900528
3599.000000	99.899316
3598.000000	99.898332
3597.000000	99.896183
3596.000000	99.893377
3595.000000	99.892560
3594.000000	99.895528
3593.000000	99.900302
3592.000000	99.902095
3591.000000	99.897988
3590.000000	99.888938
3589.000000	99.878370
3588.000000	99.869869
3587.000000	99.865719
3586.000000	99.865841
3585.000000	99.869314
3584.000000	99.875249
3583.000000	99.881494
3582.000000	99.885126
3581.000000	99.884967
3580.000000	99.882687
3579.000000	99.880731
3578.000000	99.879110
3577.000000	99.875532
3576.000000	99.868240
3575.000000	99.858019
3574.000000	99.847098
3573.000000	99.836959
3572.000000	99.827688
3571.000000	99.818896
3570.000000	99.810411
3569.000000	99.801999
3568.000000	99.794677
3567.000000	99.792633
3566.000000	99.799416
3565.000000	99.811932
3564.000000	99.823250
3563.000000	99.827898
3562.000000	99.823908
3561.000000	99.813041
3560.000000	99.799429
3559.000000	99.786853
3558.000000	99.776969
3557.000000	99.769721
3556.000000	99.764742
3555.000000	99.761835
3554.000000	99.760447
3553.000000	99.759519
3552.000000	99.758362
3551.000000	99.756857
3550.000000	99.754421
3549.000000	99.749497
3548.000000	99.741138
3547.000000	99.731661
3546.000000	99.726321
3545.000000	99.728131
3544.000000	99.733745
3543.000000	99.736791
3542.000000	99.734059
3541.000000	99.727418
3540.000000	99.720628
3539.000000	99.715282
3538.000000	99.710165
3537.000000	99.704048
3536.000000	99.698298
3535.000000	99.695588
3534.000000	99.696626
3533.000000	99.699268
3532.000000	99.700631
3531.000000	99.699458
3530.000000	99.696595
3529.000000	99.693678
3528.000000	99.691414
3527.000000	99.688719
3526.000000	99.683362
3525.000000	99.674005
3524.000000	99.662063
3523.000000	99.651525
3522.000000	99.646226
3521.000000	99.647005
3520.000000	99.651339
3519.000000	99.655131
3518.000000	99.655254
3517.000000	99.651424
3516.000000	99.645838
3515.000000	99.640689
3514.000000	99.636146
3513.000000	99.631016
3512.000000	99.624979
3511.000000	99.619568
3510.000000	99.616650
3509.000000	99.616139
3508.000000	99.615822
3507.000000	99.613533
3506.000000	99.609258
3505.000000	99.605233
3504.000000	99.604486
3503.000000	99.608132
3502.000000	99.613337
3501.000000	99.614972
3500.000000	99.610009
3499.000000	99.599950
3498.000000	99.589072
3497.000000	99.580750
3496.000000	99.575093
3495.000000	99.570087
3494.000000	99.564731
3493.000000	99.560444
3492.000000	99.559032
3491.000000	99.559958
3490.000000	99.560513
3489.000000	99.559002
3488.000000	99.557013
3487.000000	99.557632
3486.000000	99.561685
3485.000000	99.566799
3484.000000	99.570015
3483.000000	99.570247
3482.000000	99.567997
3481.000000	99.563495
3480.000000	99.556095
3479.000000	99.545527
3478.000000	99.533159
3477.000000	99.521779
3476.000000	99.514152
3475.000000	99.511179
3474.000000	99.511116
3473.000000	99.511044
3472.000000	99.509346
3471.000000	99.506413
3470.000000	99.502914
3469.000000	99.498389
3468.000000	99.492371
3467.000000	99.486352
3466.000000	99.483134
3465.000000	99.483751
3464.000000	99.486084
3463.000000	99.487188
3462.000000	99.486272
3461.000000	99.484432
3460.000000	99.482104
3459.000000	99.478339
3458.000000	99.472874
3457.000000	99.467391
3456.000000	99.463947
3455.000000	99.462906
3454.000000	99.463364
3453.000000	99.465023
3452.000000	99.468322
3451.000000	99.472613
3450.000000	99.475149
3449.000000	99.472748
3448.000000	99.464655
3447.000000	99.453786
3446.000000	99.444725
3445.000000	99.440397
3444.000000	99.440679
3443.000000	99.443367
3442.000000	99.445882
3441.000000	99.446531
3440.000000	99.444908
3439.000000	99.441472
3438.000000	99.436984
3437.000000	99.432340
3436.000000	99.428699
3435.000000	99.427280
3434.000000	99.428583
3433.000000	99.431556
3432.000000	99.433576
3431.000000	99.431761
3430.000000	99.424866
3429.000000	99.414503
3428.000000	99.404404
3427.000000	99.397893
3426.000000	99.395633
3425.000000	99.395778
3424.000000	99.396235
3423.000000	99.396434
3422.000000	99.396992
3421.000000	99.398289
3420.000000	99.399777
3419.000000	99.400420
3418.000000	99.399526
3417.000000	99.397411
3416.000000	99.395435
3415.000000	99.394956
3414.000000	99.395878
3413.000000	99.396654
3412.000000	99.396264
3411.000000	99.395636
3410.000000	99.396253
3409.000000	99.397578
3408.000000	99.396806
3407.000000	99.391549
3406.000000	99.382495
3405.000000	99.373370
3404.000000	99.368442
3403.000000	99.369648
3402.000000	99.375411
3401.000000	99.381968
3400.000000	99.385812
3399.000000	99.385198
3398.000000	99.380062
3397.000000	99.371678
3396.000000	99.362648
3395.000000	99.356157
3394.000000	99.353978
3393.000000	99.354995
3392.000000	99.356214
3391.000000	99.355461
3390.000000	99.353030
3389.000000	99.350957
3388.000000	99.351180
3387.000000	99.353910
3386.000000	99.356962
3385.000000	99.356910
3384.000000	99.351899
3383.000000	99.343482
3382.000000	99.335058
3381.000000	99.328619
3380.000000	99.323738
3379.000000	99.319521
3378.000000	99.316222
3377.000000	99.314460
3376.000000	99.313936
3375.000000	99.313922
3374.000000	99.314427
3373.000000	99.315746
3372.000000	99.316995
3371.000000	99.316168
3370.000000	99.311994
3369.000000	99.305270
3368.000000	99.298209
3367.000000	99.292805
3366.000000	99.289656
3365.000000	99.287727
3364.000000	99.285118
3363.000000	99.280680
3362.000000	99.275198
3361.000000	99.270625
3360.000000	99.267912
3359.000000	99.265899
3358.000000	99.262485
3357.000000	99.256582
3356.000000	99.248888
3355.000000	99.241285
3354.000000	99.235750
3353.000000	99.233188
3352.000000	99.232456
3351.000000	99.230654
3350.000000	99.225293
3349.000000	99.216715
3348.000000	99.208141
3347.000000	99.202843
3346.000000	99.201047
3345.000000	99.199661
3344.000000	99.195177
3343.000000	99.187038
3342.000000	99.178273
3341.000000	99.172801
3340.000000	99.171941
3339.000000	99.173374
3338.000000	99.173334
3337.000000	99.169851
3336.000000	99.164128
3335.000000	99.158944
3334.000000	99.155780
3333.000000	99.153496
3332.000000	99.149795
3331.000000	99.143837
3330.000000	99.137192
3329.000000	99.132098
3328.000000	99.129042
3327.000000	99.126300
3326.000000	99.121747
3325.000000	99.114837
3324.000000	99.107018
3323.000000	99.100717
3322.000000	99.097838
3321.000000	99.098584
3320.000000	99.101301
3319.000000	99.103765
3318.000000	99.104967
3317.000000	99.105608
3316.000000	99.106836
3315.000000	99.108725
3314.000000	99.109905
3313.000000	99.108309
3312.000000	99.102522
3311.000000	99.093283
3310.000000	99.083862
3309.000000	99.077937
3308.000000	99.076204
3307.000000	99.075604
3306.000000	99.072675
3305.000000	99.067238
3304.000000	99.062290
3303.000000	99.060846
3302.000000	99.063463
3301.000000	99.068210
3300.000000	99.071995
3299.000000	99.072277
3298.000000	99.068946
3297.000000	99.064788
3296.000000	99.063110
3295.000000	99.064484
3294.000000	99.066430
3293.000000	99.066179
3292.000000	99.062798
3291.000000	99.056929
3290.000000	99.050232
3289.000000	99.045706
3288.000000	99.046760
3287.000000	99.054004
3286.000000	99.063452
3285.000000	99.069558
3284.000000	99.070258
3283.000000	99.068291
3282.000000	99.067558
3281.000000	99.069031
3280.000000	99.070508
3279.000000	99.069513
3278.000000	99.066078
3277.000000	99.063034
3276.000000	99.063523
3275.000000	99.067738
3274.000000	99.072368
3273.000000	99.073970
3272.000000	99.072885
3271.000000	99.072979
3270.000000	99.077245
3269.000000	99.084563
3268.000000	99.091383
3267.000000	99.095809
3266.000000	99.099104
3265.000000	99.103316
3264.000000	99.108478
3263.000000	99.112780
3262.000000	99.114906
3261.000000	99.115373
3260.000000	99.115535
3259.000000	99.116013
3258.000000	99.116712
3257.000000	99.117945
3256.000000	99.120743
3255.000000	99.125885
3254.000000	99.132965
3253.000000	99.140497
3252.000000	99.146647
3251.000000	99.150129
3250.000000	99.151203
3249.000000	99.151891
3248.000000	99.154158
3247.000000	99.157273
3246.000000	99.157838
3245.000000	99.153494
3244.000000	99.146188
3243.000000	99.140664
3242.000000	99.139998
3241.000000	99.143420
3240.000000	99.147932
3239.000000	99.150889
3238.000000	99.151300
3237.000000	99.150265
3236.000000	99.150583
3235.000000	99.154593
3234.000000	99.161417
3233.000000	99.166993
3232.000000	99.167773
3231.000000	99.164273
3230.000000	99.160427
3229.000000	99.159940
3228.000000	99.163674
3227.000000	99.169812
3226.000000	99.175601
3225.000000	99.179154
3224.000000	99.180685
3223.000000	99.182293
3222.000000	99.185900
3221.000000	99.191269
3220.000000	99.196372
3219.000000	99.199578
3218.000000	99.200844
3217.000000	99.200698
3216.000000	99.199114
3215.000000	99.195936
3214.000000	99.191789
3213.000000	99.187978
3212.000000	99.185911
3211.000000	99.187010
3210.000000	99.192230
3209.000000	99.200398
3208.000000	99.207289
3207.000000	99.207943
3206.000000	99.201013
3205.000000	99.190665
3204.000000	99.183853
3203.000000	99.185211
3202.000000	99.193961
3201.000000	99.204985
3200.000000	99.212645
3199.000000	99.214560
3198.000000	99.212603
3197.000000	99.210710
3196.000000	99.211667
3195.000000	99.215761
3194.000000	99.221949
3193.000000	99.229218
3192.000000	99.236766
3191.000000	99.243754
3190.000000	99.249592
3189.000000	99.254270
3188.000000	99.258025
3187.000000	99.260999
3186.000000	99.263527
3185.000000	99.266289
3184.000000	99.269643
3183.000000	99.273205
3182.000000	99.276654
3181.000000	99.280608
3180.000000	99.285905
3179.000000	99.292038
3178.000000	99.296903
3177.000000	99.298484
3176.000000	99.296645
3175.000000	99.293342
3174.000000	99.291108
3173.000000	99.290963
3172.000000	99.291356
3171.000000	99.289701
3170.000000	99.285706
3169.000000	99.282796
3168.000000	99.285174
3167.000000	99.293383
3166.000000	99.303598
3165.000000	99.311301
3164.000000	99.314876
3163.000000	99.315692
3162.000000	99.316021
3161.000000	99.317389
3160.000000	99.320053
3159.000000	99.323186
3158.000000	99.326043
3157.000000	99.329303
3156.000000	99.334478
3155.000000	99.341323
3154.000000	99.346852
3153.000000	99.348297
3152.000000	99.346808
3151.000000	99.346750
3150.000000	99.350973
3149.000000	99.357658
3148.000000	99.362318
3147.000000	99.362211
3146.000000	99.358569
3145.000000	99.355334
3144.000000	99.356485
3143.000000	99.363818
3142.000000	99.376066
3141.000000	99.389653
3140.000000	99.400812
3139.000000	99.407594
3138.000000	99.410338
3137.000000	99.410624
3136.000000	99.409899
3135.000000	99.408724
3134.000000	99.406724
3133.000000	99.403013
3132.000000	99.397142
3131.000000	99.390165
3130.000000	99.384744
3129.000000	99.383504
3128.000000	99.386700
3127.000000	99.391699
3126.000000	99.395349
3125.000000	99.396890
3124.000000	99.398060
3123.000000	99.400350
3122.000000	99.402903
3121.000000	99.403621
3120.000000	99.401941
3119.000000	99.399769
3118.000000	99.399727
3117.000000	99.402930
3116.000000	99.408329
3115.000000	99.413622
3114.000000	99.416690
3113.000000	99.416686
3112.000000	99.414268
3111.000000	99.410885
3110.000000	99.407752
3109.000000	99.405537
3108.000000	99.404749
3107.000000	99.405739
3106.000000	99.407908
3105.000000	99.409530
3104.000000	99.409266
3103.000000	99.407862
3102.000000	99.407494
3101.000000	99.409149
3100.000000	99.411267
3099.000000	99.411532
3098.000000	99.409572
3097.000000	99.407231
3096.000000	99.406303
3095.000000	99.406604
3094.000000	99.406550
3093.000000	99.405149
3092.000000	99.402811
3091.000000	99.400226
3090.000000	99.397242
3089.000000	99.393386
3088.000000	99.389197
3087.000000	99.386186
3086.000000	99.385141
3085.000000	99.385022
3084.000000	99.384058
3083.000000	99.381690
3082.000000	99.378915
3081.000000	99.376953
3080.000000	99.376243
3079.000000	99.376712
3078.000000	99.378249
3077.000000	99.380504
3076.000000	99.382795
3075.000000	99.384895
3074.000000	99.387685
3073.000000	99.392403
3072.000000	99.398976
3071.000000	99.405264
3070.000000	99.407987
3069.000000	99.404800
3068.000000	99.396175
3067.000000	99.385744
3066.000000	99.378335
3065.000000	99.376866
3064.000000	99.380850
3063.000000	99.387748
3062.000000	99.395141
3061.000000	99.401342
3060.000000	99.405056
3059.000000	99.405923
3058.000000	99.405541
3057.000000	99.406767
3056.000000	99.411236
3055.000000	99.418019
3054.000000	99.424919
3053.000000	99.430382
3052.000000	99.433773
3051.000000	99.434856
3050.000000	99.434074
3049.000000	99.432928
3048.000000	99.433026
3047.000000	99.434723
3046.000000	99.437394
3045.000000	99.440822
3044.000000	99.445246
3043.000000	99.449975
3042.000000	99.453109
3041.000000	99.453441
3040.000000	99.452094
3039.000000	99.451578
3038.000000	99.453517
3037.000000	99.457714
3036.000000	99.462947
3035.000000	99.467818
3034.000000	99.470975
3033.000000	99.471511
3032.000000	99.469823
3031.000000	99.467884
3030.000000	99.468205
3029.000000	99.472300
3028.000000	99.479959
3027.000000	99.489550
3026.000000	99.498724
3025.000000	99.505112
3024.000000	99.507060
3023.000000	99.504446
3022.000000	99.499100
3021.000000	99.494210
3020.000000	99.492642
3019.000000	99.495194
3018.000000	99.500260
3017.000000	99.505245
3016.000000	99.508470
3015.000000	99.509851
3014.000000	99.510014
3013.000000	99.509180
3012.000000	99.507121
3011.000000	99.503991
3010.000000	99.500733
3009.000000	99.498469
3008.000000	99.497686
3007.000000	99.498201
3006.000000	99.499633
3005.000000	99.501510
3004.000000	99.503041
3003.000000	99.503436
3002.000000	99.502787
3001.000000	99.502234
3000.000000	99.502763
2999.000000	99.503956
2998.000000	99.504276
2997.000000	99.502562
2996.000000	99.499030
2995.000000	99.494944
2994.000000	99.491592
2993.000000	99.489420
2992.000000	99.487686
2991.000000	99.484835
2990.000000	99.479539
2989.000000	99.471600
2988.000000	99.461990
2987.000000	99.452312
2986.000000	99.444302
2985.000000	99.439158
2984.000000	99.436389
2983.000000	99.433336
2982.000000	99.426817
2981.000000	99.415735
2980.000000	99.401830
2979.000000	99.387775
2978.000000	99.375014
2977.000000	99.363503
2976.000000	99.352666
2975.000000	99.342099
2974.000000	99.331772
2973.000000	99.322013
2972.000000	99.312909
2971.000000	99.303312
2970.000000	99.290979
2969.000000	99.274444
2968.000000	99.254541
2967.000000	99.233455
2966.000000	99.212132
2965.000000	99.189174
2964.000000	99.162564
2963.000000	99.132529
2962.000000	99.102774
2961.000000	99.078835
2960.000000	99.064569
2959.000000	99.059351
2958.000000	99.058498
2957.000000	99.056541
2956.000000	99.050653
2955.000000	99.041549
2954.000000	99.032020
2953.000000	99.024838
2952.000000	99.021308
2951.000000	99.020958
2950.000000	99.022374
2949.000000	99.024397
2948.000000	99.026177
2947.000000	99.026041
2946.000000	99.021165
2945.000000	99.009373
2944.000000	98.991262
2943.000000	98.969603
2942.000000	98.946351
2941.000000	98.920573
2940.000000	98.889750
2939.000000	98.852826
2938.000000	98.811569
2937.000000	98.768984
2936.000000	98.726653
2935.000000	98.684021
2934.000000	98.640077
2933.000000	98.595080
2932.000000	98.550237
2931.000000	98.506193
2930.000000	98.462803
2929.000000	98.420347
2928.000000	98.380074
2927.000000	98.343138
2926.000000	98.309796
2925.000000	98.280376
2924.000000	98.256515
2923.000000	98.240899
2922.000000	98.235841
2921.000000	98.242277
2920.000000	98.259428
2919.000000	98.284675
2918.000000	98.314535
2917.000000	98.346934
2916.000000	98.382959
2915.000000	98.425622
2914.000000	98.476360
2913.000000	98.532801
2912.000000	98.589825
2911.000000	98.642628
2910.000000	98.688864
2909.000000	98.728752
2908.000000	98.763816
2907.000000	98.795388
2906.000000	98.823847
2905.000000	98.848894
2904.000000	98.870540
2903.000000	98.889647
2902.000000	98.907681
2901.000000	98.925667
2900.000000	98.943778
2899.000000	98.961793
2898.000000	98.979640
2897.000000	98.997469
2896.000000	99.015169
2895.000000	99.032210
2894.000000	99.048179
2893.000000	99.063148
2892.000000	99.077072
2891.000000	99.089058
2890.000000	99.098010
2889.000000	99.104293
2888.000000	99.110182
2887.000000	99.118152
2886.000000	99.128906
2885.000000	99.141225
2884.000000	99.153271
2883.000000	99.163625
2882.000000	99.171516
2881.000000	99.176648
2880.000000	99.178728
2879.000000	99.177002
2878.000000	99.170909
2877.000000	99.161831
2876.000000	99.153543
2875.000000	99.149629
2874.000000	99.150183
2873.000000	99.151810
2872.000000	99.151031
2871.000000	99.147087
2870.000000	99.141533
2869.000000	99.136089
2868.000000	99.131301
2867.000000	99.126314
2866.000000	99.119202
2865.000000	99.108105
2864.000000	99.092727
2863.000000	99.074346
2862.000000	99.053629
2861.000000	99.028744
2860.000000	98.996713
2859.000000	98.956923
2858.000000	98.912735
2857.000000	98.869285
2856.000000	98.829876
2855.000000	98.794654
2854.000000	98.762746
2853.000000	98.735401
2852.000000	98.717133
2851.000000	98.713891
2850.000000	98.729682
2849.000000	98.764368
2848.000000	98.814003
2847.000000	98.872955
2846.000000	98.936010
2845.000000	98.999276
2844.000000	99.059818
2843.000000	99.115223
2842.000000	99.163794
2841.000000	99.205124
2840.000000	99.240282
2839.000000	99.270877
2838.000000	99.297786
2837.000000	99.320838
2836.000000	99.339701
2835.000000	99.354911
2834.000000	99.367981
2833.000000	99.380596
2832.000000	99.393703
2831.000000	99.407108
2830.000000	99.419685
2829.000000	99.430073
2828.000000	99.437379
2827.000000	99.441615
2826.000000	99.443943
2825.000000	99.446616
2824.000000	99.452198
2823.000000	99.461988
2822.000000	99.474764
2821.000000	99.487268
2820.000000	99.496331
2819.000000	99.501002
2818.000000	99.503057
2817.000000	99.505689
2816.000000	99.511248
2815.000000	99.519467
2814.000000	99.527588
2813.000000	99.532541
2812.000000	99.533330
2811.000000	99.531490
2810.000000	99.529552
2809.000000	99.529460
2808.000000	99.532204
2807.000000	99.537871
2806.000000	99.545314
2805.000000	99.552196
2804.000000	99.556310
2803.000000	99.557239
2802.000000	99.556546
2801.000000	99.556376
2800.000000	99.558051
2799.000000	99.561736
2798.000000	99.566774
2797.000000	99.571903
2796.000000	99.575479
2795.000000	99.576226
2794.000000	99.574265
2793.000000	99.571356
2792.000000	99.569813
2791.000000	99.570921
2790.000000	99.574304
2789.000000	99.578697
2788.000000	99.583039
2787.000000	99.586729
2786.000000	99.589308
2785.000000	99.590539
2784.000000	99.591043
2783.000000	99.592476
2782.000000	99.596474
2781.000000	99.603056
2780.000000	99.610079
2779.000000	99.614642
2778.000000	99.615384
2777.000000	99.613507
2776.000000	99.611424
2775.000000	99.610425
2774.000000	99.609991
2773.000000	99.609381
2772.000000	99.609185
2771.000000	99.610728
2770.000000	99.614256
2769.000000	99.618506
2768.000000	99.622131
2767.000000	99.624869
2766.000000	99.626995
2765.000000	99.628131
2764.000000	99.627313
2763.000000	99.624347
2762.000000	99.620768
2761.000000	99.619024
2760.000000	99.620504
2759.000000	99.624304
2758.000000	99.628077
2757.000000	99.630191
2756.000000	99.630999
2755.000000	99.632059
2754.000000	99.634376
2753.000000	99.637527
2752.000000	99.640136
2751.000000	99.640978
2750.000000	99.639862
2749.000000	99.637774
2748.000000	99.635993
2747.000000	99.634867
2746.000000	99.633866
2745.000000	99.633073
2744.000000	99.633880
2743.000000	99.637332
2742.000000	99.642191
2741.000000	99.645776
2740.000000	99.646919
2739.000000	99.647198
2738.000000	99.648925
2737.000000	99.652622
2736.000000	99.656888
2735.000000	99.660077
2734.000000	99.661618
2733.000000	99.662155
2732.000000	99.662841
2731.000000	99.664186
2730.000000	99.665207
2729.000000	99.664142
2728.000000	99.660465
2727.000000	99.655863
2726.000000	99.652806
2725.000000	99.652398
2724.000000	99.653868
2723.000000	99.655699
2722.000000	99.656739
2721.000000	99.656707
2720.000000	99.656445
2719.000000	99.657550
2718.000000	99.660968
2717.000000	99.665852
2716.000000	99.670386
2715.000000	99.673768
2714.000000	99.676715
2713.000000	99.679798
2712.000000	99.682152
2711.000000	99.682700
2710.000000	99.682333
2709.000000	99.683661
2708.000000	99.687927
2707.000000	99.692678
2706.000000	99.693464
2705.000000	99.688203
2704.000000	99.679341
2703.000000	99.671489
2702.000000	99.667528
2701.000000	99.667437
2700.000000	99.669976
2699.000000	99.674024
2698.000000	99.678214
2697.000000	99.680825
2696.000000	99.681103
2695.000000	99.680092
2694.000000	99.679334
2693.000000	99.679205
2692.000000	99.679201
2691.000000	99.679307
2690.000000	99.679946
2689.000000	99.680838
2688.000000	99.681258
2687.000000	99.681690
2686.000000	99.683878
2685.000000	99.688284
2684.000000	99.692261
2683.000000	99.692035
2682.000000	99.686587
2681.000000	99.678879
2680.000000	99.673230
2679.000000	99.672028
2678.000000	99.674909
2677.000000	99.680061
2676.000000	99.685654
2675.000000	99.690497
2674.000000	99.694141
2673.000000	99.696487
2672.000000	99.697091
2671.000000	99.695158
2670.000000	99.690781
2669.000000	99.685888
2668.000000	99.683020
2667.000000	99.682773
2666.000000	99.683155
2665.000000	99.682030
2664.000000	99.679756
2663.000000	99.678661
2662.000000	99.680072
2661.000000	99.682578
2660.000000	99.683337
2659.000000	99.680719
2658.000000	99.675667
2657.000000	99.670975
2656.000000	99.669310
2655.000000	99.671329
2654.000000	99.675263
2653.000000	99.678468
2652.000000	99.679613
2651.000000	99.679335
2650.000000	99.678970
2649.000000	99.679201
2648.000000	99.680107
2647.000000	99.681762
2646.000000	99.684042
2645.000000	99.686047
2644.000000	99.686666
2643.000000	99.686175
2642.000000	99.686805
2641.000000	99.690945
2640.000000	99.698502
2639.000000	99.706426
2638.000000	99.711310
2637.000000	99.712390
2636.000000	99.711669
2635.000000	99.711278
2634.000000	99.711512
2633.000000	99.711553
2632.000000	99.711133
2631.000000	99.710690
2630.000000	99.710554
2629.000000	99.711065
2628.000000	99.713070
2627.000000	99.717024
2626.000000	99.721553
2625.000000	99.724192
2624.000000	99.724200
2623.000000	99.723897
2622.000000	99.726529
2621.000000	99.732980
2620.000000	99.740664
2619.000000	99.745242
2618.000000	99.743670
2617.000000	99.736717
2616.000000	99.728998
2615.000000	99.725743
2614.000000	99.728914
2613.000000	99.736550
2612.000000	99.745562
2611.000000	99.754009
2610.000000	99.760727
2609.000000	99.764672
2608.000000	99.765868
2607.000000	99.765874
2606.000000	99.765869
2605.000000	99.765156
2604.000000	99.763055
2603.000000	99.761720
2602.000000	99.765061
2601.000000	99.774245
2600.000000	99.785417
2599.000000	99.792626
2598.000000	99.792678
2597.000000	99.787114
2596.000000	99.780272
2595.000000	99.775961
2594.000000	99.775401
2593.000000	99.777297
2592.000000	99.779350
2591.000000	99.779792
2590.000000	99.778182
2589.000000	99.775559
2588.000000	99.774024
2587.000000	99.775509
2586.000000	99.780311
2585.000000	99.786770
2584.000000	99.792382
2583.000000	99.795163
2582.000000	99.794368
2581.000000	99.790870
2580.000000	99.786935
2579.000000	99.784559
2578.000000	99.783447
2577.000000	99.781443
2576.000000	99.777680
2575.000000	99.774703
2574.000000	99.776632
2573.000000	99.785332
2572.000000	99.798631
2571.000000	99.811618
2570.000000	99.819442
2569.000000	99.820017
2568.000000	99.815288
2567.000000	99.809514
2566.000000	99.805477
2565.000000	99.802607
2564.000000	99.799318
2563.000000	99.796441
2562.000000	99.797168
2561.000000	99.803809
2560.000000	99.815291
2559.000000	99.827581
2558.000000	99.835956
2557.000000	99.837644
2556.000000	99.833754
2555.000000	99.828741
2554.000000	99.826923
2553.000000	99.829072
2552.000000	99.832539
2551.000000	99.834323
2550.000000	99.833534
2549.000000	99.831428
2548.000000	99.830211
2547.000000	99.831645
2546.000000	99.835638
2545.000000	99.839787
2544.000000	99.840790
2543.000000	99.836723
2542.000000	99.828076
2541.000000	99.817273
2540.000000	99.807548
2539.000000	99.801341
2538.000000	99.798681
2537.000000	99.797435
2536.000000	99.796010
2535.000000	99.795305
2534.000000	99.796991
2533.000000	99.800423
2532.000000	99.802695
2531.000000	99.801699
2530.000000	99.797914
2529.000000	99.793473
2528.000000	99.790841
2527.000000	99.792084
2526.000000	99.797244
2525.000000	99.802793
2524.000000	99.803848
2523.000000	99.799547
2522.000000	99.795252
2521.000000	99.797695
2520.000000	99.808076
2519.000000	99.820783
2518.000000	99.828461
2517.000000	99.827796
2516.000000	99.821039
2515.000000	99.813163
2514.000000	99.807563
2513.000000	99.803927
2512.000000	99.800244
2511.000000	99.796692
2510.000000	99.796140
2509.000000	99.799863
2508.000000	99.804334
2507.000000	99.804959
2506.000000	99.803025
2505.000000	99.805721
2504.000000	99.817451
2503.000000	99.832808
2502.000000	99.841127
2501.000000	99.837959
2500.000000	99.829635
2499.000000	99.826130
2498.000000	99.831202
2497.000000	99.840516
2496.000000	99.847118
2495.000000	99.846556
2494.000000	99.838463
2493.000000	99.826765
2492.000000	99.818917
2491.000000	99.821538
2490.000000	99.834252
2489.000000	99.848600
2488.000000	99.855071
2487.000000	99.851297
2486.000000	99.842652
2485.000000	99.835854
2484.000000	99.833077
2483.000000	99.831791
2482.000000	99.828673
2481.000000	99.823138
2480.000000	99.817986
2479.000000	99.816714
2478.000000	99.819772
2477.000000	99.823689
2476.000000	99.824518
2475.000000	99.822009
2474.000000	99.819731
2473.000000	99.821510
2472.000000	99.828549
2471.000000	99.839261
2470.000000	99.850248
2469.000000	99.857676
2468.000000	99.859702
2467.000000	99.858320
2466.000000	99.857303
2465.000000	99.857656
2464.000000	99.856600
2463.000000	99.851972
2462.000000	99.845953
2461.000000	99.842711
2460.000000	99.843372
2459.000000	99.845383
2458.000000	99.846322
2457.000000	99.846036
2456.000000	99.845008
2455.000000	99.843013
2454.000000	99.840423
2453.000000	99.838922
2452.000000	99.839281
2451.000000	99.839737
2450.000000	99.838656
2449.000000	99.838150
2448.000000	99.842680
2447.000000	99.853552
2446.000000	99.866420
2445.000000	99.875061
2444.000000	99.876481
2443.000000	99.871618
2442.000000	99.862831
2441.000000	99.852869
2440.000000	99.845681
2439.000000	99.845345
2438.000000	99.852557
2437.000000	99.862990
2436.000000	99.870438
2435.000000	99.871708
2434.000000	99.868117
2433.000000	99.863066
2432.000000	99.859218
2431.000000	99.857575
2430.000000	99.857640
2429.000000	99.857694
2428.000000	99.855771
2427.000000	99.851469
2426.000000	99.846694
2425.000000	99.844009
2424.000000	99.844303
2423.000000	99.846504
2422.000000	99.849248
2421.000000	99.851940
2420.000000	99.854175
2419.000000	99.855255
2418.000000	99.855025
2417.000000	99.854459
2416.000000	99.854496
2415.000000	99.854599
2414.000000	99.853416
2413.000000	99.850786
2412.000000	99.848083
2411.000000	99.846390
2410.000000	99.845300
2409.000000	99.844039
2408.000000	99.842972
2407.000000	99.843301
2406.000000	99.845766
2405.000000	99.850346
2404.000000	99.856598
2403.000000	99.863369
2402.000000	99.868599
2401.000000	99.870691
2400.000000	99.870321
2399.000000	99.869895
2398.000000	99.870790
2397.000000	99.872048
2396.000000	99.872552
2395.000000	99.873630
2394.000000	99.878037
2393.000000	99.885886
2392.000000	99.892562
2391.000000	99.891991
2390.000000	99.882527
2389.000000	99.869486
2388.000000	99.861400
2387.000000	99.863535
2386.000000	99.874834
2385.000000	99.890313
2384.000000	99.905373
2383.000000	99.917581
2382.000000	99.925697
2381.000000	99.928975
2380.000000	99.928373
2379.000000	99.927698
2378.000000	99.931921
2377.000000	99.942988
2376.000000	99.956607
2375.000000	99.963691
2374.000000	99.956708
2373.000000	99.936297
2372.000000	99.912005
2371.000000	99.895627
2370.000000	99.892946
2369.000000	99.901433
2368.000000	99.914625
2367.000000	99.927106
2366.000000	99.935776
2365.000000	99.939175
2364.000000	99.937844
2363.000000	99.934489
2362.000000	99.931382
2361.000000	99.927239
2360.000000	99.919346
2359.000000	99.908483
2358.000000	99.900266
2357.000000	99.899969
2356.000000	99.906797
2355.000000	99.915604
2354.000000	99.922099
2353.000000	99.924568
2352.000000	99.920445
2351.000000	99.907142
2350.000000	99.887465
2349.000000	99.869347
2348.000000	99.860884
2347.000000	99.864684
2346.000000	99.874971
2345.000000	99.881185
2344.000000	99.877552
2343.000000	99.868419
2342.000000	99.862379
2341.000000	99.863118
2340.000000	99.866200
2339.000000	99.865984
2338.000000	99.862999
2337.000000	99.862339
2336.000000	99.866783
2335.000000	99.874178
2334.000000	99.880001
2333.000000	99.880124
2332.000000	99.871800
2331.000000	99.856250
2330.000000	99.840990
2329.000000	99.834041
2328.000000	99.834843
2327.000000	99.833508
2326.000000	99.822704
2325.000000	99.806976
2324.000000	99.797539
2323.000000	99.799815
2322.000000	99.808535
2321.000000	99.816556
2320.000000	99.822652
2319.000000	99.828421
2318.000000	99.832362
2317.000000	99.831441
2316.000000	99.826227
2315.000000	99.820335
2314.000000	99.816611
2313.000000	99.816139
2312.000000	99.819617
2311.000000	99.826313
2310.000000	99.832599
2309.000000	99.834563
2308.000000	99.832303
2307.000000	99.829455
2306.000000	99.828838
2305.000000	99.830933
2304.000000	99.835525
2303.000000	99.841583
2302.000000	99.844915
2301.000000	99.839755
2300.000000	99.825159
2299.000000	99.807995
2298.000000	99.797517
2297.000000	99.797364
2296.000000	99.804124
2295.000000	99.812281
2294.000000	99.818769
2293.000000	99.822898
2292.000000	99.824359
2291.000000	99.822989
2290.000000	99.820052
2289.000000	99.818198
2288.000000	99.818906
2287.000000	99.820402
2286.000000	99.819392
2285.000000	99.815188
2284.000000	99.810521
2283.000000	99.807728
2282.000000	99.806205
2281.000000	99.805459
2280.000000	99.808258
2279.000000	99.816945
2278.000000	99.826909
2277.000000	99.827898
2276.000000	99.813895
2275.000000	99.789808
2274.000000	99.767350
2273.000000	99.755913
2272.000000	99.757918
2271.000000	99.770511
2270.000000	99.789624
2269.000000	99.812750
2268.000000	99.838863
2267.000000	99.865600
2266.000000	99.886967
2265.000000	99.895552
2264.000000	99.888487
2263.000000	99.870743
2262.000000	99.852074
2261.000000	99.840486
2260.000000	99.837042
2259.000000	99.835719
2258.000000	99.829097
2257.000000	99.815703
2256.000000	99.801355
2255.000000	99.793160
2254.000000	99.794158
2253.000000	99.804337
2252.000000	99.822210
2251.000000	99.841570
2250.000000	99.850795
2249.000000	99.842382
2248.000000	99.823733
2247.000000	99.812380
2246.000000	99.818824
2245.000000	99.837714
2244.000000	99.855678
2243.000000	99.863137
2242.000000	99.857792
2241.000000	99.843209
2240.000000	99.828519
2239.000000	99.825525
2238.000000	99.840664
2237.000000	99.869340
2236.000000	99.899727
2235.000000	99.921623
2234.000000	99.931264
2233.000000	99.930133
2232.000000	99.921045
2231.000000	99.904635
2230.000000	99.879879
2229.000000	99.849658
2228.000000	99.823797
2227.000000	99.812489
2226.000000	99.816965
2225.000000	99.830015
2224.000000	99.844644
2223.000000	99.857421
2222.000000	99.864180
2221.000000	99.859729
2220.000000	99.844906
2219.000000	99.828722
2218.000000	99.820572
2217.000000	99.823732
2216.000000	99.837108
2215.000000	99.857947
2214.000000	99.880180
2213.000000	99.895146
2212.000000	99.898263
2211.000000	99.892486
2210.000000	99.883734
2209.000000	99.877140
2208.000000	99.878204
2207.000000	99.890925
2206.000000	99.911669
2205.000000	99.930095
2204.000000	99.939331
2203.000000	99.940801
2202.000000	99.937831
2201.000000	99.932145
2200.000000	99.928972
2199.000000	99.935021
2198.000000	99.944766
2197.000000	99.938239
2196.000000	99.903680
2195.000000	99.856218
2194.000000	99.822950
2193.000000	99.813376
2192.000000	99.815505
2191.000000	99.819364
2190.000000	99.829960
2189.000000	99.852955
2188.000000	99.879403
2187.000000	99.893811
2186.000000	99.892656
2185.000000	99.887153
2184.000000	99.888711
2183.000000	99.896407
2182.000000	99.899847
2181.000000	99.892665
2180.000000	99.881909
2179.000000	99.882752
2178.000000	99.903260
2177.000000	99.935528
2176.000000	99.963805
2175.000000	99.981616
2174.000000	99.997918
2173.000000	100.024548
2172.000000	100.059842
2171.000000	100.087713
2170.000000	100.092952
2169.000000	100.076186
2168.000000	100.052095
2167.000000	100.032614
2166.000000	100.016693
2165.000000	99.998378
2164.000000	99.978535
2163.000000	99.962441
2162.000000	99.951872
2161.000000	99.950772
2160.000000	99.973499
2159.000000	100.028606
2158.000000	100.091995
2157.000000	100.122341
2156.000000	100.109869
2155.000000	100.083917
2154.000000	100.071052
2153.000000	100.067613
2152.000000	100.056204
2151.000000	100.033864
2150.000000	100.014370
2149.000000	100.008304
2148.000000	100.010137
2147.000000	100.005571
2146.000000	99.987155
2145.000000	99.961791
2144.000000	99.944179
2143.000000	99.943020
2142.000000	99.954248
2141.000000	99.968122
2140.000000	99.980061
2139.000000	99.990382
2138.000000	99.996028
2137.000000	99.991487
2136.000000	99.980412
2135.000000	99.978208
2134.000000	99.996583
2133.000000	100.029266
2132.000000	100.057419
2131.000000	100.066285
2130.000000	100.053711
2129.000000	100.027143
2128.000000	99.997534
2127.000000	99.973862
2126.000000	99.959151
2125.000000	99.950266
2124.000000	99.941475
2123.000000	99.928137
2122.000000	99.908738
2121.000000	99.886965
2120.000000	99.871624
2119.000000	99.869831
2118.000000	99.878258
2117.000000	99.884439
2116.000000	99.879512
2115.000000	99.867432
2114.000000	99.859119
2113.000000	99.860363
2112.000000	99.868083
2111.000000	99.875549
2110.000000	99.877481
2109.000000	99.872325
2108.000000	99.864446
2107.000000	99.862915
2106.000000	99.873332
2105.000000	99.890534
2104.000000	99.902791
2103.000000	99.903489
2102.000000	99.896372
2101.000000	99.890125
2100.000000	99.890901
2099.000000	99.899497
2098.000000	99.912640
2097.000000	99.926916
2096.000000	99.943112
2095.000000	99.964593
2094.000000	99.988274
2093.000000	100.000522
2092.000000	99.988681
2091.000000	99.956714
2090.000000	99.924396
2089.000000	99.909677
2088.000000	99.914070
2087.000000	99.925591
2086.000000	99.931439
2085.000000	99.925214
2084.000000	99.907217
2083.000000	99.883311
2082.000000	99.861967
2081.000000	99.848132
2080.000000	99.839318
2079.000000	99.830288
2078.000000	99.821546
2077.000000	99.819974
2076.000000	99.830747
2075.000000	99.851738
2074.000000	99.875974
2073.000000	99.895521
2072.000000	99.902024
2071.000000	99.889003
2070.000000	99.859162
2069.000000	99.828089
2068.000000	99.814256
2067.000000	99.823289
2066.000000	99.845416
2065.000000	99.868393
2064.000000	99.889306
2063.000000	99.912304
2062.000000	99.939134
2061.000000	99.965604
2060.000000	99.983788
2059.000000	99.984964
2058.000000	99.965510
2057.000000	99.936166
2056.000000	99.920475
2055.000000	99.932595
2054.000000	99.955919
2053.000000	99.954555
2052.000000	99.911176
2051.000000	99.847112
2050.000000	99.803702
2049.000000	99.807574
2048.000000	99.850323
2047.000000	99.897044
2046.000000	99.913223
2045.000000	99.888787
2044.000000	99.846614
2043.000000	99.825702
2042.000000	99.846535
2041.000000	99.889347
2040.000000	99.911269
2039.000000	99.888639
2038.000000	99.837728
2037.000000	99.797086
2036.000000	99.793441
2035.000000	99.820434
2034.000000	99.849139
2033.000000	99.861586
2032.000000	99.874099
2031.000000	99.918520
2030.000000	99.996771
2029.000000	100.065763
2028.000000	100.078825
2027.000000	100.036390
2026.000000	99.980887
2025.000000	99.947450
2024.000000	99.936381
2023.000000	99.932828
2022.000000	99.933806
2021.000000	99.943516
2020.000000	99.955373
2019.000000	99.955292
2018.000000	99.939240
2017.000000	99.916030
2016.000000	99.893512
2015.000000	99.874273
2014.000000	99.866779
2013.000000	99.884784
2012.000000	99.927212
2011.000000	99.970865
2010.000000	99.993832
2009.000000	99.999069
2008.000000	100.004983
2007.000000	100.018062
2006.000000	100.030144
2005.000000	100.039951
2004.000000	100.056056
2003.000000	100.075514
2002.000000	100.078166
2001.000000	100.051532
2000.000000	100.009689
1999.000000	99.975971
1998.000000	99.956457
1997.000000	99.943784
1996.000000	99.939022
1995.000000	99.952241
1994.000000	99.980819
1993.000000	99.999308
1992.000000	99.979688
1991.000000	99.920895
1990.000000	99.850862
1989.000000	99.802923
1988.000000	99.794315
1987.000000	99.816999
1986.000000	99.842321
1985.000000	99.840423
1984.000000	99.803122
1983.000000	99.750581
1982.000000	99.715711
1981.000000	99.721157
1980.000000	99.765059
1979.000000	99.823743
1978.000000	99.871110
1977.000000	99.900220
1976.000000	99.924775
1975.000000	99.956817
1974.000000	99.991570
1973.000000	100.019706
1972.000000	100.042397
1971.000000	100.065030
1970.000000	100.085308
1969.000000	100.099055
1968.000000	100.111472
1967.000000	100.128295
1966.000000	100.138415
1965.000000	100.121892
1964.000000	100.075917
1963.000000	100.020894
1962.000000	99.983423
1961.000000	99.979235
1960.000000	100.005596
1959.000000	100.042880
1958.000000	100.066286
1957.000000	100.064124
1956.000000	100.046243
1955.000000	100.030214
1954.000000	100.022247
1953.000000	100.016454
1952.000000	100.007117
1951.000000	99.994202
1950.000000	99.980729
1949.000000	99.973195
1948.000000	99.981105
1947.000000	100.006169
1946.000000	100.033513
1945.000000	100.043258
1944.000000	100.031162
1943.000000	100.010188
1942.000000	99.991119
1941.000000	99.972116
1940.000000	99.951685
1939.000000	99.938739
1938.000000	99.943445
1937.000000	99.964886
1936.000000	99.991436
1935.000000	100.011284
1934.000000	100.019633
1933.000000	100.018932
1932.000000	100.015614
1931.000000	100.014542
1930.000000	100.014867
1929.000000	100.012634
1928.000000	100.007038
1927.000000	100.002163
1926.000000	100.003289
1925.000000	100.012202
1924.000000	100.024286
1923.000000	100.027711
1922.000000	100.011057
1921.000000	99.977443
1920.000000	99.945908
1919.000000	99.936924
1918.000000	99.954051
1917.000000	99.977680
1916.000000	99.985746
1915.000000	99.974872
1914.000000	99.956130
1913.000000	99.944078
1912.000000	99.949820
1911.000000	99.974481
1910.000000	100.005890
1909.000000	100.025805
1908.000000	100.026150
1907.000000	100.015123
1906.000000	100.005536
1905.000000	100.002464
1904.000000	100.003212
1903.000000	100.003806
1902.000000	100.002606
1901.000000	100.000549
1900.000000	100.000351
1899.000000	100.003753
1898.000000	100.008754
1897.000000	100.011514
1896.000000	100.011665
1895.000000	100.013120
1894.000000	100.018404
1893.000000	100.025052
1892.000000	100.028538
1891.000000	100.025887
1890.000000	100.017098
1889.000000	100.007194
1888.000000	100.004316
1887.000000	100.011678
1886.000000	100.023264
1885.000000	100.029778
1884.000000	100.029110
1883.000000	100.027958
1882.000000	100.031319
1881.000000	100.035530
1880.000000	100.034712
1879.000000	100.029590
1878.000000	100.026923
1877.000000	100.032512
1876.000000	100.046470
1875.000000	100.063271
1874.000000	100.074519
1873.000000	100.074462
1872.000000	100.064991
1871.000000	100.053417
1870.000000	100.045147
1869.000000	100.040286
1868.000000	100.037471
1867.000000	100.037917
1866.000000	100.042442
1865.000000	100.047594
1864.000000	100.048590
1863.000000	100.043771
1862.000000	100.034573
1861.000000	100.023921
1860.000000	100.015696
1859.000000	100.012912
1858.000000	100.015028
1857.000000	100.018906
1856.000000	100.023279
1855.000000	100.029959
1854.000000	100.038303
1853.000000	100.042398
1852.000000	100.037843
1851.000000	100.027667
1850.000000	100.019165
1849.000000	100.016770
1848.000000	100.019852
1847.000000	100.026506
1846.000000	100.036595
1845.000000	100.049734
1844.000000	100.060478
1843.000000	100.062538
1842.000000	100.057714
1841.000000	100.052599
1840.000000	100.051871
1839.000000	100.056160
1838.000000	100.061041
1837.000000	100.061014
1836.000000	100.056238
1835.000000	100.051988
1834.000000	100.051301
1833.000000	100.053357
1832.000000	100.058408
1831.000000	100.068735
1830.000000	100.082440
1829.000000	100.091289
1828.000000	100.091465
1827.000000	100.087565
1826.000000	100.083925
1825.000000	100.080487
1824.000000	100.075112
1823.000000	100.067379
1822.000000	100.058922
1821.000000	100.052544
1820.000000	100.051875
1819.000000	100.057804
1818.000000	100.065819
1817.000000	100.069730
1816.000000	100.068863
1815.000000	100.068120
1814.000000	100.070798
1813.000000	100.075578
1812.000000	100.079865
1811.000000	100.082709
1810.000000	100.083595
1809.000000	100.081454
1808.000000	100.076326
1807.000000	100.069565
1806.000000	100.061419
1805.000000	100.050229
1804.000000	100.036733
1803.000000	100.026576
1802.000000	100.025241
1801.000000	100.030493
1800.000000	100.032608
1799.000000	100.026352
1798.000000	100.017251
1797.000000	100.012477
1796.000000	100.011911
1795.000000	100.010232
1794.000000	100.004509
1793.000000	99.998915
1792.000000	100.000420
1791.000000	100.008654
1790.000000	100.016902
1789.000000	100.020710
1788.000000	100.019534
1787.000000	100.015460
1786.000000	100.012395
1785.000000	100.014025
1784.000000	100.022007
1783.000000	100.035151
1782.000000	100.050220
1781.000000	100.064065
1780.000000	100.074361
1779.000000	100.080950
1778.000000	100.085693
1777.000000	100.090038
1776.000000	100.094279
1775.000000	100.098018
1774.000000	100.100823
1773.000000	100.102089
1772.000000	100.099381
1771.000000	100.089898
1770.000000	100.075156
1769.000000	100.060723
1768.000000	100.053802
1767.000000	100.057170
1766.000000	100.064264
1765.000000	100.066278
1764.000000	100.060671
1763.000000	100.051944
1762.000000	100.044829
1761.000000	100.038594
1760.000000	100.031356
1759.000000	100.024051
1758.000000	100.017465
1757.000000	100.011170
1756.000000	100.004760
1755.000000	99.997305
1754.000000	99.985569
1753.000000	99.966404
1752.000000	99.943493
1751.000000	99.927929
1750.000000	99.923659
1749.000000	99.918769
1748.000000	99.903278
1747.000000	99.880382
1746.000000	99.856315
1745.000000	99.833027
1744.000000	99.812195
1743.000000	99.798408
1742.000000	99.793056
1741.000000	99.791182
1740.000000	99.788072
1739.000000	99.784415
1738.000000	99.780621
1737.000000	99.773812
1736.000000	99.762989
1735.000000	99.759069
1734.000000	99.776562
1733.000000	99.806108
1732.000000	99.830466
1731.000000	99.848560
1730.000000	99.863313
1729.000000	99.874307
1728.000000	99.881552
1727.000000	99.887450
1726.000000	99.893900
1725.000000	99.900131
1724.000000	99.904765
1723.000000	99.908185
1722.000000	99.910662
1721.000000	99.910991
1720.000000	99.909653
1719.000000	99.909740
1718.000000	99.910752
1717.000000	99.907316
1716.000000	99.899435
1715.000000	99.893455
1714.000000	99.891246
1713.000000	99.887888
1712.000000	99.880518
1711.000000	99.872941
1710.000000	99.869428
1709.000000	99.868878
1708.000000	99.866767
1707.000000	99.860593
1706.000000	99.852349
1705.000000	99.844139
1704.000000	99.833346
1703.000000	99.814874
1702.000000	99.785510
1701.000000	99.752636
1700.000000	99.731895
1699.000000	99.725617
1698.000000	99.719529
1697.000000	99.700048
1696.000000	99.668023
1695.000000	99.636306
1694.000000	99.614067
1693.000000	99.597329
1692.000000	99.577414
1691.000000	99.552792
1690.000000	99.526402
1689.000000	99.501180
1688.000000	99.479277
1687.000000	99.460677
1686.000000	99.443436
1685.000000	99.425110
1684.000000	99.402341
1683.000000	99.373483
1682.000000	99.341464
1681.000000	99.306393
1680.000000	99.268480
1679.000000	99.232541
1678.000000	99.198535
1677.000000	99.159024
1676.000000	99.109821
1675.000000	99.060636
1674.000000	99.024023
1673.000000	98.997132
1672.000000	98.968077
1671.000000	98.930631
1670.000000	98.884829
1669.000000	98.832437
1668.000000	98.779173
1667.000000	98.732161
1666.000000	98.690085
1665.000000	98.645400
1664.000000	98.594345
1663.000000	98.541582
1662.000000	98.492782
1661.000000	98.446689
1660.000000	98.401820
1659.000000	98.362561
1658.000000	98.334595
1657.000000	98.314924
1656.000000	98.294896
1655.000000	98.267278
1654.000000	98.239609
1653.000000	98.220521
1652.000000	98.203409
1651.000000	98.193008
1650.000000	98.187306
1649.000000	98.174217
1648.000000	98.153807
1647.000000	98.137743
1646.000000	98.132245
1645.000000	98.127104
1644.000000	98.119121
1643.000000	98.111910
1642.000000	98.105701
1641.000000	98.099334
1640.000000	98.091303
1639.000000	98.081518
1638.000000	98.070276
1637.000000	98.058029
1636.000000	98.047936
1635.000000	98.040760
1634.000000	98.034235
1633.000000	98.028453
1632.000000	98.023221
1631.000000	98.020586
1630.000000	98.025204
1629.000000	98.038791
1628.000000	98.059126
1627.000000	98.082072
1626.000000	98.103931
1625.000000	98.123855
1624.000000	98.146486
1623.000000	98.177856
1622.000000	98.214099
1621.000000	98.245141
1620.000000	98.268847
1619.000000	98.291915
1618.000000	98.326091
1617.000000	98.378389
1616.000000	98.435897
1615.000000	98.482026
1614.000000	98.517959
1613.000000	98.551055
1612.000000	98.586524
1611.000000	98.627206
1610.000000	98.671245
1609.000000	98.713917
1608.000000	98.751848
1607.000000	98.784403
1606.000000	98.811281
1605.000000	98.833536
1604.000000	98.854766
1603.000000	98.878222
1602.000000	98.903046
1601.000000	98.925360
1600.000000	98.943766
1599.000000	98.960534
1598.000000	98.977365
1597.000000	98.993488
1596.000000	99.007778
1595.000000	99.020078
1594.000000	99.029984
1593.000000	99.036396
1592.000000	99.039540
1591.000000	99.041570
1590.000000	99.043512
1589.000000	99.043259
1588.000000	99.038050
1587.000000	99.028164
1586.000000	99.016000
1585.000000	99.002500
1584.000000	98.986073
1583.000000	98.964073
1582.000000	98.936988
1581.000000	98.910230
1580.000000	98.889045
1579.000000	98.872674
1578.000000	98.855857
1577.000000	98.835389
1576.000000	98.815726
1575.000000	98.803782
1574.000000	98.797842
1573.000000	98.790637
1572.000000	98.778318
1571.000000	98.762716
1570.000000	98.746687
1569.000000	98.728529
1568.000000	98.706715
1567.000000	98.682961
1566.000000	98.656440
1565.000000	98.625504
1564.000000	98.592622
1563.000000	98.563387
1562.000000	98.537813
1561.000000	98.513595
1560.000000	98.485252
1559.000000	98.451447
1558.000000	98.422016
1557.000000	98.397090
1556.000000	98.375129
1555.000000	98.354154
1554.000000	98.332574
1553.000000	98.311696
1552.000000	98.289430
1551.000000	98.264388
1550.000000	98.239146
1549.000000	98.217803
1548.000000	98.200728
1547.000000	98.185831
1546.000000	98.171524
1545.000000	98.158060
1544.000000	98.143718
1543.000000	98.122567
1542.000000	98.089155
1541.000000	98.051986
1540.000000	98.042809
1539.000000	98.066900
1538.000000	98.093393
1537.000000	98.111133
1536.000000	98.123717
1535.000000	98.137883
1534.000000	98.161045
1533.000000	98.186700
1532.000000	98.203378
1531.000000	98.213894
1530.000000	98.227373
1529.000000	98.244371
1528.000000	98.260134
1527.000000	98.272352
1526.000000	98.283347
1525.000000	98.293794
1524.000000	98.300889
1523.000000	98.304020
1522.000000	98.310585
1521.000000	98.326130
1520.000000	98.343586
1519.000000	98.357272
1518.000000	98.367420
1517.000000	98.372782
1516.000000	98.371833
1515.000000	98.366279
1514.000000	98.360676
1513.000000	98.357715
1512.000000	98.359196
1511.000000	98.364540
1510.000000	98.368884
1509.000000	98.367573
1508.000000	98.366926
1507.000000	98.387262
1506.000000	98.409008
1505.000000	98.400526
1504.000000	98.380853
1503.000000	98.364763
1502.000000	98.352132
1501.000000	98.343724
1500.000000	98.338002
1499.000000	98.333085
1498.000000	98.324447
1497.000000	98.310629
1496.000000	98.295173
1495.000000	98.282257
1494.000000	98.270928
1493.000000	98.258199
1492.000000	98.245195
1491.000000	98.236540
1490.000000	98.229928
1489.000000	98.215313
1488.000000	98.189864
1487.000000	98.160876
1486.000000	98.132667
1485.000000	98.102388
1484.000000	98.068400
1483.000000	98.033117
1482.000000	97.997939
1481.000000	97.960559
1480.000000	97.919409
1479.000000	97.876763
1478.000000	97.835496
1477.000000	97.796445
1476.000000	97.758690
1475.000000	97.719530
1474.000000	97.673942
1473.000000	97.620328
1472.000000	97.565974
1471.000000	97.517589
1470.000000	97.473521
1469.000000	97.429624
1468.000000	97.385297
1467.000000	97.342786
1466.000000	97.302337
1465.000000	97.262515
1464.000000	97.224654
1463.000000	97.191870
1462.000000	97.164166
1461.000000	97.137951
1460.000000	97.110099
1459.000000	97.078892
1458.000000	97.043919
1457.000000	97.006594
1456.000000	96.970172
1455.000000	96.938028
1454.000000	96.908099
1453.000000	96.876761
1452.000000	96.846182
1451.000000	96.819972
1450.000000	96.798395
1449.000000	96.780546
1448.000000	96.766613
1447.000000	96.753780
1446.000000	96.736733
1445.000000	96.716185
1444.000000	96.697222
1443.000000	96.682762
1442.000000	96.672269
1441.000000	96.663905
1440.000000	96.656341
1439.000000	96.649142
1438.000000	96.645141
1437.000000	96.649745
1436.000000	96.658779
1435.000000	96.657150
1434.000000	96.637985
1433.000000	96.607773
1432.000000	96.578891
1431.000000	96.560829
1430.000000	96.550723
1429.000000	96.537523
1428.000000	96.516091
1427.000000	96.489868
1426.000000	96.463444
1425.000000	96.440621
1424.000000	96.422951
1423.000000	96.404375
1422.000000	96.376453
1421.000000	96.340771
1420.000000	96.312169
1419.000000	96.302049
1418.000000	96.296631
1417.000000	96.278583
1416.000000	96.251965
1415.000000	96.226020
1414.000000	96.202868
1413.000000	96.182279
1412.000000	96.166924
1411.000000	96.158708
1410.000000	96.153625
1409.000000	96.148436
1408.000000	96.147148
1407.000000	96.154565
1406.000000	96.168467
1405.000000	96.184298
1404.000000	96.201444
1403.000000	96.218498
1402.000000	96.231343
1401.000000	96.240995
1400.000000	96.256567
1399.000000	96.282415
1398.000000	96.307870
1397.000000	96.324277
1396.000000	96.341442
1395.000000	96.373464
1394.000000	96.415578
1393.000000	96.452543
1392.000000	96.481546
1391.000000	96.508176
1390.000000	96.536436
1389.000000	96.571177
1388.000000	96.618705
1387.000000	96.675471
1386.000000	96.724868
1385.000000	96.758529
1384.000000	96.785144
1383.000000	96.814422
1382.000000	96.846955
1381.000000	96.880188
1380.000000	96.916313
1379.000000	96.957463
1378.000000	96.998697
1377.000000	97.034412
1376.000000	97.068009
1375.000000	97.108365
1374.000000	97.156994
1373.000000	97.205772
1372.000000	97.249414
1371.000000	97.290600
1370.000000	97.333436
1369.000000	97.380182
1368.000000	97.430842
1367.000000	97.481796
1366.000000	97.528653
1365.000000	97.572479
1364.000000	97.619616
1363.000000	97.672834
1362.000000	97.724653
1361.000000	97.766102
1360.000000	97.798271
1359.000000	97.827068
1358.000000	97.854721
1357.000000	97.881046
1356.000000	97.906694
1355.000000	97.931392
1354.000000	97.951835
1353.000000	97.965086
1352.000000	97.972026
1351.000000	97.975413
1350.000000	97.976965
1349.000000	97.977851
1348.000000	97.980146
1347.000000	97.985786
1346.000000	97.994283
1345.000000	98.002384
1344.000000	98.005884
1343.000000	98.002306
1342.000000	97.993716
1341.000000	97.987310
1340.000000	97.990995
1339.000000	98.005152
1338.000000	98.021467
1337.000000	98.033652
1336.000000	98.043478
1335.000000	98.055051
1334.000000	98.069901
1333.000000	98.088119
1332.000000	98.109711
1331.000000	98.133213
1330.000000	98.155630
1329.000000	98.175648
1328.000000	98.195162
1327.000000	98.216415
1326.000000	98.238733
1325.000000	98.258735
1324.000000	98.273076
1323.000000	98.280553
1322.000000	98.283036
1321.000000	98.284870
1320.000000	98.289972
1319.000000	98.298684
1318.000000	98.308275
1317.000000	98.316848
1316.000000	98.324939
1315.000000	98.333474
1314.000000	98.342977
1313.000000	98.355082
1312.000000	98.371845
1311.000000	98.392509
1310.000000	98.413127
1309.000000	98.430291
1308.000000	98.443811
1307.000000	98.455682
1306.000000	98.467901
1305.000000	98.481139
1304.000000	98.494471
1303.000000	98.506315
1302.000000	98.516867
1301.000000	98.529148
1300.000000	98.545640
1299.000000	98.564312
1298.000000	98.580106
1297.000000	98.590053
1296.000000	98.594646
1295.000000	98.594654
1294.000000	98.589840
1293.000000	98.581321
1292.000000	98.572442
1291.000000	98.566262
1290.000000	98.563746
1289.000000	98.564852
1288.000000	98.568874
1287.000000	98.572654
1286.000000	98.571058
1285.000000	98.561468
1284.000000	98.546916
1283.000000	98.533733
1282.000000	98.526646
1281.000000	98.526003
1280.000000	98.528736
1279.000000	98.531497
1278.000000	98.533573
1277.000000	98.537241
1276.000000	98.544731
1275.000000	98.555229
1274.000000	98.565658
1273.000000	98.573859
1272.000000	98.579852
1271.000000	98.584582
1270.000000	98.589118
1269.000000	98.594606
1268.000000	98.600967
1267.000000	98.605556
1266.000000	98.605191
1265.000000	98.599845
1264.000000	98.592621
1263.000000	98.585902
1262.000000	98.579364
1261.000000	98.572128
1260.000000	98.564562
1259.000000	98.557059
1258.000000	98.548692
1257.000000	98.538320
1256.000000	98.526095
1255.000000	98.513149
1254.000000	98.500501
1253.000000	98.488322
1252.000000	98.475428
1251.000000	98.459916
1250.000000	98.441432
1249.000000	98.422384
1248.000000	98.405350
1247.000000	98.389532
1246.000000	98.371901
1245.000000	98.352076
1244.000000	98.333682
1243.000000	98.319767
1242.000000	98.309066
1241.000000	98.298378
1240.000000	98.286836
1239.000000	98.276123
1238.000000	98.267717
1237.000000	98.261910
1236.000000	98.258769
1235.000000	98.258558
1234.000000	98.261643
1233.000000	98.268550
1232.000000	98.279684
1231.000000	98.294586
1230.000000	98.312873
1229.000000	98.336422
1228.000000	98.367757
1227.000000	98.404936
1226.000000	98.440548
1225.000000	98.468701
1224.000000	98.492010
1223.000000	98.518769
1222.000000	98.553670
1221.000000	98.593370
1220.000000	98.630967
1219.000000	98.662822
1218.000000	98.690346
1217.000000	98.715987
1216.000000	98.738726
1215.000000	98.754393
1214.000000	98.760294
1213.000000	98.758841
1212.000000	98.755536
1211.000000	98.753808
1210.000000	98.752808
1209.000000	98.749584
1208.000000	98.742187
1207.000000	98.730558
1206.000000	98.716069
1205.000000	98.701184
1204.000000	98.689055
1203.000000	98.682711
1202.000000	98.684136
1201.000000	98.693399
1200.000000	98.708013
1199.000000	98.724066
1198.000000	98.739150
1197.000000	98.754215
1196.000000	98.771657
1195.000000	98.791892
1194.000000	98.813298
1193.000000	98.834821
1192.000000	98.856711
1191.000000	98.878770
1190.000000	98.899802
1189.000000	98.919120
1188.000000	98.936855
1187.000000	98.952426
1186.000000	98.964305
1185.000000	98.972150
1184.000000	98.977986
1183.000000	98.984775
1182.000000	98.994404
1181.000000	99.006639
1180.000000	99.019016
1179.000000	99.027949
1178.000000	99.031279
1177.000000	99.029873
1176.000000	99.025963
1175.000000	99.020748
1174.000000	99.014646
1173.000000	99.009066
1172.000000	99.006243
1171.000000	99.007332
1170.000000	99.011745
1169.000000	99.017896
1168.000000	99.023225
1167.000000	99.024346
1166.000000	99.019742
1165.000000	99.012567
1164.000000	99.008492
1163.000000	99.009883
1162.000000	99.013688
1161.000000	99.015927
1160.000000	99.016650
1159.000000	99.019332
1158.000000	99.026683
1157.000000	99.038157
1156.000000	99.051009
1155.000000	99.062728
1154.000000	99.072854
1153.000000	99.083219
1152.000000	99.096115
1151.000000	99.111990
1150.000000	99.129036
1149.000000	99.144924
1148.000000	99.158459
1147.000000	99.170013
1146.000000	99.181431
1145.000000	99.195205
1144.000000	99.212340
1143.000000	99.230521
1142.000000	99.245357
1141.000000	99.254045
1140.000000	99.257648
1139.000000	99.259947
1138.000000	99.264255
1137.000000	99.270904
1136.000000	99.277123
1135.000000	99.279704
1134.000000	99.278527
1133.000000	99.277010
1132.000000	99.278562
1131.000000	99.282975
1130.000000	99.286693
1129.000000	99.285958
1128.000000	99.278909
1127.000000	99.265905
1126.000000	99.249687
1125.000000	99.235325
1124.000000	99.228292
1123.000000	99.231063
1122.000000	99.240843
1121.000000	99.250899
1120.000000	99.255198
1119.000000	99.252879
1118.000000	99.248390
1117.000000	99.246324
1116.000000	99.246427
1115.000000	99.245052
1114.000000	99.241014
1113.000000	99.237633
1112.000000	99.238433
1111.000000	99.243447
1110.000000	99.250993
1109.000000	99.260261
1108.000000	99.269695
1107.000000	99.274765
1106.000000	99.271139
1105.000000	99.259882
1104.000000	99.246911
1103.000000	99.237514
1102.000000	99.233027
1101.000000	99.232597
1100.000000	99.235204
1099.000000	99.238825
1098.000000	99.240256
1097.000000	99.236577
1096.000000	99.227346
1095.000000	99.215142
1094.000000	99.203985
1093.000000	99.195775
1092.000000	99.187398
1091.000000	99.172777
1090.000000	99.149218
1089.000000	99.121019
1088.000000	99.095230
1087.000000	99.074878
1086.000000	99.058062
1085.000000	99.042507
1084.000000	99.028481
1083.000000	99.017381
1082.000000	99.010288
1081.000000	99.008137
1080.000000	99.010878
1079.000000	99.015447
1078.000000	99.017367
1077.000000	99.016423
1076.000000	99.018631
1075.000000	99.030408
1074.000000	99.051261
1073.000000	99.074213
1072.000000	99.093098
1071.000000	99.107539
1070.000000	99.120834
1069.000000	99.134612
1068.000000	99.146849
1067.000000	99.154458
1066.000000	99.156406
1065.000000	99.153542
1064.000000	99.146653
1063.000000	99.136645
1062.000000	99.126335
1061.000000	99.120010
1060.000000	99.120014
1059.000000	99.124777
1058.000000	99.130817
1057.000000	99.135556
1056.000000	99.137705
1055.000000	99.136961
1054.000000	99.135418
1053.000000	99.137969
1052.000000	99.148595
1051.000000	99.165699
1050.000000	99.182875
1049.000000	99.194637
1048.000000	99.200074
1047.000000	99.201332
1046.000000	99.200716
1045.000000	99.199697
1044.000000	99.198897
1043.000000	99.198106
1042.000000	99.196847
1041.000000	99.195288
1040.000000	99.193825
1039.000000	99.191456
1038.000000	99.185569
1037.000000	99.174037
1036.000000	99.157628
1035.000000	99.140083
1034.000000	99.125987
1033.000000	99.118700
1032.000000	99.120030
1031.000000	99.130545
1030.000000	99.148692
1029.000000	99.169691
1028.000000	99.187084
1027.000000	99.197521
1026.000000	99.203935
1025.000000	99.212459
1024.000000	99.226506
1023.000000	99.245014
1022.000000	99.265772
1021.000000	99.287631
1020.000000	99.308921
1019.000000	99.326547
1018.000000	99.338561
1017.000000	99.346023
1016.000000	99.350993
1015.000000	99.354602
1014.000000	99.358459
1013.000000	99.365831
1012.000000	99.378966
1011.000000	99.396262
1010.000000	99.414109
1009.000000	99.431135
1008.000000	99.449039
1007.000000	99.469547
1006.000000	99.491968
1005.000000	99.513419
1004.000000	99.530483
1003.000000	99.541303
1002.000000	99.547101
1001.000000	99.551578
1000.000000	99.558588
999.000000	99.570571
998.000000	99.588175
997.000000	99.609534
996.000000	99.630214
995.000000	99.646437
994.000000	99.658935
993.000000	99.671223
992.000000	99.683795
991.000000	99.692862
990.000000	99.695671
989.000000	99.693928
988.000000	99.690815
987.000000	99.688367
986.000000	99.689401
985.000000	99.697685
984.000000	99.712477
983.000000	99.725889
982.000000	99.729873
981.000000	99.724283
980.000000	99.715066
979.000000	99.706624
978.000000	99.699864
977.000000	99.695675
976.000000	99.695509
975.000000	99.698805
974.000000	99.703810
973.000000	99.711136
972.000000	99.722932
971.000000	99.738426
970.000000	99.753435
969.000000	99.764775
968.000000	99.772307
967.000000	99.776681
966.000000	99.778243
965.000000	99.778665
964.000000	99.780538
963.000000	99.784194
962.000000	99.787341
961.000000	99.788762
960.000000	99.790336
959.000000	99.794452
958.000000	99.801315
957.000000	99.809602
956.000000	99.818129
955.000000	99.825958
954.000000	99.832127
953.000000	99.836041
952.000000	99.837459
951.000000	99.836387
950.000000	99.834146
949.000000	99.833770
948.000000	99.837300
947.000000	99.842824
946.000000	99.846375
945.000000	99.846925
944.000000	99.847309
943.000000	99.850097
942.000000	99.854652
941.000000	99.858792
940.000000	99.861158
939.000000	99.861277
938.000000	99.859685
937.000000	99.859284
936.000000	99.864613
935.000000	99.877530
934.000000	99.893913
933.000000	99.905700
932.000000	99.906791
931.000000	99.897644
930.000000	99.885383
929.000000	99.879025
928.000000	99.882464
927.000000	99.891377
926.000000	99.898247
925.000000	99.900477
924.000000	99.902183
923.000000	99.907975
922.000000	99.917496
921.000000	99.927450
920.000000	99.936406
919.000000	99.944983
918.000000	99.952477
917.000000	99.956593
916.000000	99.957172
915.000000	99.958029
914.000000	99.963628
913.000000	99.974453
912.000000	99.986834
911.000000	99.997108
910.000000	100.004987
909.000000	100.012578
908.000000	100.020809
907.000000	100.027974
906.000000	100.032179
905.000000	100.034719
904.000000	100.039958
903.000000	100.050794
902.000000	100.064243
901.000000	100.072704
900.000000	100.070825
899.000000	100.061434
898.000000	100.053614
897.000000	100.054599
896.000000	100.064621
895.000000	100.079121
894.000000	100.093567
893.000000	100.104867
892.000000	100.110840
891.000000	100.111539
890.000000	100.110149
889.000000	100.109528
888.000000	100.108285
887.000000	100.101877
886.000000	100.086070
885.000000	100.055176
884.000000	99.997682
883.000000	99.899310
882.000000	99.750840
881.000000	99.550607
880.000000	99.300245
879.000000	99.006240
878.000000	98.688749
877.000000	98.382241
876.000000	98.122197
875.000000	97.932565
874.000000	97.829096
873.000000	97.827654
872.000000	97.940210
871.000000	98.156530
870.000000	98.435937
869.000000	98.724922
868.000000	98.981820
867.000000	99.186672
866.000000	99.335617
865.000000	99.434563
864.000000	99.497637
863.000000	99.545097
862.000000	99.595495
861.000000	99.655989
860.000000	99.719834
859.000000	99.774000
858.000000	99.810828
857.000000	99.832363
856.000000	99.844324
855.000000	99.849275
854.000000	99.847715
853.000000	99.842968
852.000000	99.840342
851.000000	99.841251
850.000000	99.842041
849.000000	99.840443
848.000000	99.840953
847.000000	99.851551
846.000000	99.875362
845.000000	99.907082
844.000000	99.937442
843.000000	99.960346
842.000000	99.976379
841.000000	99.990473
840.000000	100.006783
839.000000	100.025556
838.000000	100.043709
837.000000	100.057155
836.000000	100.062658
835.000000	100.059713
834.000000	100.052716
833.000000	100.050531
832.000000	100.060788
831.000000	100.082359
830.000000	100.103794
829.000000	100.111080
828.000000	100.099094
827.000000	100.076003
826.000000	100.055867
825.000000	100.046571
824.000000	100.045295
823.000000	100.045348
822.000000	100.044653
821.000000	100.046088
820.000000	100.052199
819.000000	100.062466
818.000000	100.074100
817.000000	100.082325
816.000000	100.081308
815.000000	100.069493
814.000000	100.054273
813.000000	100.046517
812.000000	100.048654
811.000000	100.051983
810.000000	100.048202
809.000000	100.040118
808.000000	100.037370
807.000000	100.044470
806.000000	100.057334
805.000000	100.069616
804.000000	100.077886
803.000000	100.081312
802.000000	100.081160
801.000000	100.081464
800.000000	100.086474
799.000000	100.095921
798.000000	100.104617
797.000000	100.107555
796.000000	100.103832
795.000000	100.095880
794.000000	100.087333
793.000000	100.081844
792.000000	100.081142
791.000000	100.082853
790.000000	100.081874
789.000000	100.075276
788.000000	100.065188
787.000000	100.056621
786.000000	100.053847
785.000000	100.058666
784.000000	100.069579
783.000000	100.081070
782.000000	100.085493
781.000000	100.078532
780.000000	100.063749
779.000000	100.050992
778.000000	100.049220
777.000000	100.059490
776.000000	100.073805
775.000000	100.081176
774.000000	100.076309
773.000000	100.063401
772.000000	100.051498
771.000000	100.046647
770.000000	100.049037
769.000000	100.056428
768.000000	100.067315
767.000000	100.079482
766.000000	100.088143
765.000000	100.088697
764.000000	100.081585
763.000000	100.072579
762.000000	100.067257
761.000000	100.066190
760.000000	100.066425
759.000000	100.066963
758.000000	100.071088
757.000000	100.082102
756.000000	100.097382
755.000000	100.108154
754.000000	100.106692
753.000000	100.094420
752.000000	100.082135
751.000000	100.081036
750.000000	100.092293
749.000000	100.104946
748.000000	100.105051
747.000000	100.088191
746.000000	100.063409
745.000000	100.044540
744.000000	100.037960
743.000000	100.040076
742.000000	100.045597
741.000000	100.054370
740.000000	100.067728
739.000000	100.080643
738.000000	100.082792
737.000000	100.069005
736.000000	100.046024
735.000000	100.026629
734.000000	100.017787
733.000000	100.016262
732.000000	100.014802
731.000000	100.010145
730.000000	100.004084
729.000000	99.998560
728.000000	99.992576
727.000000	99.984080
726.000000	99.972678
725.000000	99.958701
724.000000	99.940798
723.000000	99.917687
722.000000	99.892686
721.000000	99.873051
720.000000	99.861232
719.000000	99.847977
718.000000	99.818380
717.000000	99.764812
716.000000	99.691941
715.000000	99.612255
714.000000	99.541636
713.000000	99.497390
712.000000	99.492137
711.000000	99.524104
710.000000	99.576481
709.000000	99.630553
708.000000	99.677814
707.000000	99.717497
706.000000	99.747446
705.000000	99.764688
704.000000	99.772961
703.000000	99.781430
702.000000	99.793590
701.000000	99.803188
700.000000	99.803563
699.000000	99.795659
698.000000	99.784051
697.000000	99.770398
696.000000	99.756131
695.000000	99.747262
694.000000	99.749710
693.000000	99.761454
692.000000	99.775177
691.000000	99.788227
690.000000	99.803612
689.000000	99.820907
688.000000	99.832873
687.000000	99.834587
686.000000	99.830281
685.000000	99.826637
684.000000	99.824050
683.000000	99.819099
682.000000	99.812650
681.000000	99.810001
680.000000	99.812866
679.000000	99.815184
678.000000	99.809233
677.000000	99.794569
676.000000	99.780142
675.000000	99.776903
674.000000	99.786100
673.000000	99.797907
672.000000	99.803952
671.000000	99.808176
670.000000	99.819925
669.000000	99.838005
668.000000	99.840052
667.000000	99.801643
666.000000	99.745266
665.000000	99.706565
664.000000	99.690486
663.000000	99.687493
662.000000	99.689161
661.000000	99.693497
660.000000	99.699876
659.000000	99.703119
658.000000	99.697383
657.000000	99.682897
656.000000	99.665452
655.000000	99.652357
654.000000	99.649899
653.000000	99.661485
652.000000	99.684775
651.000000	99.710834
650.000000	99.729966
649.000000	99.739738
648.000000	99.743751
647.000000	99.743509
646.000000	99.737112
645.000000	99.726898
644.000000	99.722941
643.000000	99.735070
642.000000	99.762241
641.000000	99.791645
640.000000	99.808407
639.000000	99.804490
638.000000	99.780948
637.000000	99.746226
636.000000	99.713813
635.000000	99.698795
634.000000	99.710014
633.000000	99.742217
632.000000	99.778176
631.000000	99.800856
630.000000	99.805016
629.000000	99.797472
628.000000	99.786819
627.000000	99.775842
626.000000	99.764321
625.000000	99.754539
624.000000	99.749512
623.000000	99.748109
622.000000	99.746294
621.000000	99.743194
620.000000	99.742853
619.000000	99.749032
618.000000	99.760279
617.000000	99.770348
616.000000	99.771532
615.000000	99.758700
614.000000	99.734467
613.000000	99.711152
612.000000	99.703370
611.000000	99.714536
610.000000	99.733162
609.000000	99.745824
608.000000	99.751292
607.000000	99.758372
606.000000	99.771509
605.000000	99.785289
604.000000	99.793810
603.000000	99.798468
602.000000	99.802435
601.000000	99.801382
600.000000	99.785377
599.000000	99.751988
598.000000	99.713834
597.000000	99.690684
596.000000	99.695343
595.000000	99.725063
594.000000	99.762354
593.000000	99.784998
592.000000	99.781585
591.000000	99.761778
590.000000	99.748048
589.000000	99.753105
588.000000	99.768577
587.000000	99.778297
586.000000	99.778529
585.000000	99.780751
584.000000	99.794952
583.000000	99.817675
582.000000	99.839806
581.000000	99.857751
580.000000	99.870719
579.000000	99.874721
578.000000	99.868579
577.000000	99.861649
576.000000	99.864312
575.000000	99.870358
574.000000	99.861005
573.000000	99.831348
572.000000	99.800555
571.000000	99.791890
570.000000	99.809054
569.000000	99.834717
568.000000	99.848116
567.000000	99.838893
566.000000	99.812446
565.000000	99.789221
564.000000	99.791333
563.000000	99.820039
562.000000	99.848017
561.000000	99.844719
560.000000	99.808306
559.000000	99.763811
558.000000	99.733834
557.000000	99.721405
556.000000	99.719100
555.000000	99.721130
554.000000	99.721386
553.000000	99.711570
552.000000	99.690441
551.000000	99.671152
550.000000	99.673333
549.000000	99.706524
548.000000	99.762598
547.000000	99.818895
546.000000	99.849194
545.000000	99.841650
544.000000	99.809098
543.000000	99.778167
542.000000	99.767088
541.000000	99.774061
540.000000	99.783081
539.000000	99.777045
538.000000	99.749266
537.000000	99.709689
536.000000	99.680012
535.000000	99.676361
534.000000	99.694802
533.000000	99.716407
532.000000	99.722766
531.000000	99.703437
530.000000	99.656833
529.000000	99.596461
528.000000	99.552182
527.000000	99.552135
526.000000	99.592892
525.000000	99.637577
524.000000	99.659773
523.000000	99.669504
522.000000	99.687899
521.000000	99.719583
520.000000	99.755273
519.000000	99.785825
518.000000	99.803982
517.000000	99.801680
516.000000	99.779164
515.000000	99.751185
514.000000	99.733358
513.000000	99.728425
512.000000	99.732503
511.000000	99.748410
510.000000	99.783304
509.000000	99.834724
508.000000	99.884796
507.000000	99.910865
506.000000	99.902511
505.000000	99.867355
504.000000	99.821059
503.000000	99.778947
502.000000	99.754586
501.000000	99.756390
500.000000	99.784179
499.000000	99.829589
498.000000	99.875970
497.000000	99.902955
496.000000	99.900723
495.000000	99.879036
494.000000	99.857063
493.000000	99.846069
492.000000	99.846571
491.000000	99.860845
490.000000	99.896805
489.000000	99.953693
488.000000	100.010096
487.000000	100.036772
486.000000	100.024453
485.000000	99.994449
484.000000	99.973530
483.000000	99.961437
482.000000	99.939564
481.000000	99.908811
480.000000	99.897264
479.000000	99.924029
478.000000	99.968058
477.000000	99.990111
476.000000	99.982978
475.000000	99.981096
474.000000	100.015914
473.000000	100.071630
472.000000	100.094426
471.000000	100.055270
470.000000	99.980622
469.000000	99.914088
468.000000	99.879231
467.000000	99.874791
466.000000	99.890863
465.000000	99.930646
464.000000	100.005491
463.000000	100.101349
462.000000	100.165153
461.000000	100.149217
460.000000	100.064645
459.000000	99.957988
458.000000	99.886190
457.000000	99.854986
456.000000	99.817734
455.000000	99.863771
454.000000	99.885051
453.000000	99.904026
452.000000	99.955341
451.000000	100.059681
450.000000	100.174227
