PE IR       SUBTECH     SPECTRUM    ASCII       PEDS        4.00        
   -1
Trigon_dark-C001_1.ASC
23/09/08
14:54:18.00
23/09/08
15:20:53.00
uco
Sample 001 By uco Date Friday, September 08 2023
450.000000
#HDR
-1
-1
#GR
cm-1
%T
1.0
0.0
4000.000000
-1.000000
3551
8
99.839861
95.051575
#DATA
4000.000000	99.698262
3999.000000	99.695415
3998.000000	99.694387
3997.000000	99.694684
3996.000000	99.694712
3995.000000	99.692929
3994.000000	99.688985
3993.000000	99.684061
3992.000000	99.679676
3991.000000	99.676269
3990.000000	99.673328
3989.000000	99.670796
3988.000000	99.669534
3987.000000	99.670171
3986.000000	99.672136
3985.000000	99.674300
3984.000000	99.676271
3983.000000	99.678663
3982.000000	99.681959
3981.000000	99.685471
3980.000000	99.687694
3979.000000	99.687648
3978.000000	99.685677
3977.000000	99.683070
3976.000000	99.681011
3975.000000	99.679630
3974.000000	99.678065
3973.000000	99.675404
3972.000000	99.671771
3971.000000	99.668413
3970.000000	99.666622
3969.000000	99.666790
3968.000000	99.668102
3967.000000	99.669099
3966.000000	99.668592
3965.000000	99.666230
3964.000000	99.662651
3963.000000	99.659281
3962.000000	99.657771
3961.000000	99.659243
3960.000000	99.663836
3959.000000	99.670226
3958.000000	99.675451
3957.000000	99.676134
3956.000000	99.670587
3955.000000	99.660281
3954.000000	99.649010
3953.000000	99.640336
3952.000000	99.635737
3951.000000	99.634805
3950.000000	99.636974
3949.000000	99.642241
3948.000000	99.650031
3947.000000	99.658205
3946.000000	99.663742
3945.000000	99.664704
3944.000000	99.661617
3943.000000	99.657250
3942.000000	99.655146
3941.000000	99.657060
3940.000000	99.662029
3939.000000	99.667626
3938.000000	99.671421
3937.000000	99.672461
3936.000000	99.671588
3935.000000	99.670679
3934.000000	99.671412
3933.000000	99.673890
3932.000000	99.676590
3931.000000	99.677169
3930.000000	99.674451
3929.000000	99.668979
3928.000000	99.661296
3927.000000	99.652020
3926.000000	99.642433
3925.000000	99.634480
3924.000000	99.629706
3923.000000	99.628203
3922.000000	99.629078
3921.000000	99.631757
3920.000000	99.635998
3919.000000	99.641178
3918.000000	99.645789
3917.000000	99.648551
3916.000000	99.649886
3915.000000	99.650830
3914.000000	99.651300
3913.000000	99.650161
3912.000000	99.647232
3911.000000	99.643998
3910.000000	99.642042
3909.000000	99.641398
3908.000000	99.640717
3907.000000	99.639441
3906.000000	99.639395
3905.000000	99.643612
3904.000000	99.652279
3903.000000	99.660232
3902.000000	99.661187
3901.000000	99.654568
3900.000000	99.645151
3899.000000	99.638360
3898.000000	99.636347
3897.000000	99.637752
3896.000000	99.640965
3895.000000	99.645627
3894.000000	99.651676
3893.000000	99.658973
3892.000000	99.666914
3891.000000	99.673907
3890.000000	99.678083
3889.000000	99.678769
3888.000000	99.676348
3887.000000	99.670954
3886.000000	99.663326
3885.000000	99.656218
3884.000000	99.652068
3883.000000	99.651398
3882.000000	99.653176
3881.000000	99.656537
3880.000000	99.660844
3879.000000	99.663684
3878.000000	99.661559
3877.000000	99.653345
3876.000000	99.640920
3875.000000	99.629252
3874.000000	99.624384
3873.000000	99.627611
3872.000000	99.633945
3871.000000	99.637390
3870.000000	99.637209
3869.000000	99.638092
3868.000000	99.643167
3867.000000	99.651062
3866.000000	99.658170
3865.000000	99.661140
3864.000000	99.659662
3863.000000	99.656479
3862.000000	99.653933
3861.000000	99.652154
3860.000000	99.649705
3859.000000	99.646562
3858.000000	99.644130
3857.000000	99.643364
3856.000000	99.643070
3855.000000	99.641162
3854.000000	99.642338
3853.000000	99.651051
3852.000000	99.658289
3851.000000	99.658464
3850.000000	99.656057
3849.000000	99.654599
3848.000000	99.654225
3847.000000	99.653423
3846.000000	99.650865
3845.000000	99.646330
3844.000000	99.641168
3843.000000	99.637404
3842.000000	99.636832
3841.000000	99.641037
3840.000000	99.650990
3839.000000	99.665326
3838.000000	99.678427
3837.000000	99.684112
3836.000000	99.682491
3835.000000	99.678913
3834.000000	99.677688
3833.000000	99.677837
3832.000000	99.673981
3831.000000	99.662254
3830.000000	99.644052
3829.000000	99.624704
3828.000000	99.609858
3827.000000	99.603611
3826.000000	99.606891
3825.000000	99.617245
3824.000000	99.631159
3823.000000	99.645203
3822.000000	99.658103
3821.000000	99.669613
3820.000000	99.676985
3819.000000	99.677592
3818.000000	99.671337
3817.000000	99.659843
3816.000000	99.645372
3815.000000	99.632208
3814.000000	99.623475
3813.000000	99.619714
3812.000000	99.620455
3811.000000	99.624882
3810.000000	99.631998
3809.000000	99.640441
3808.000000	99.649326
3807.000000	99.658071
3806.000000	99.665399
3805.000000	99.669690
3804.000000	99.670611
3803.000000	99.668578
3802.000000	99.664345
3801.000000	99.658323
3800.000000	99.650785
3799.000000	99.641185
3798.000000	99.630219
3797.000000	99.619977
3796.000000	99.612703
3795.000000	99.608546
3794.000000	99.606003
3793.000000	99.604090
3792.000000	99.602660
3791.000000	99.601268
3790.000000	99.599144
3789.000000	99.595930
3788.000000	99.591769
3787.000000	99.587607
3786.000000	99.585150
3785.000000	99.585872
3784.000000	99.589350
3783.000000	99.593235
3782.000000	99.594891
3781.000000	99.593899
3780.000000	99.592873
3779.000000	99.594907
3778.000000	99.599763
3777.000000	99.604042
3776.000000	99.605096
3775.000000	99.603158
3774.000000	99.600944
3773.000000	99.601581
3772.000000	99.606925
3771.000000	99.616839
3770.000000	99.629274
3769.000000	99.641376
3768.000000	99.650198
3767.000000	99.653819
3766.000000	99.651834
3765.000000	99.645742
3764.000000	99.638660
3763.000000	99.633154
3762.000000	99.629118
3761.000000	99.624906
3760.000000	99.619842
3759.000000	99.615700
3758.000000	99.614919
3757.000000	99.617917
3756.000000	99.623335
3755.000000	99.629925
3754.000000	99.639218
3753.000000	99.656203
3752.000000	99.684040
3751.000000	99.714285
3750.000000	99.729495
3749.000000	99.724489
3748.000000	99.709651
3747.000000	99.695081
3746.000000	99.683383
3745.000000	99.672985
3744.000000	99.663613
3743.000000	99.654331
3742.000000	99.646066
3741.000000	99.643699
3740.000000	99.649604
3739.000000	99.661554
3738.000000	99.673627
3737.000000	99.679507
3736.000000	99.677381
3735.000000	99.671163
3734.000000	99.666763
3733.000000	99.664126
3732.000000	99.658557
3731.000000	99.649149
3730.000000	99.640270
3729.000000	99.636398
3728.000000	99.636923
3727.000000	99.635975
3726.000000	99.627641
3725.000000	99.612261
3724.000000	99.596803
3723.000000	99.588424
3722.000000	99.589174
3721.000000	99.595188
3720.000000	99.600970
3719.000000	99.604743
3718.000000	99.608550
3717.000000	99.614496
3716.000000	99.622242
3715.000000	99.629231
3714.000000	99.633043
3713.000000	99.633402
3712.000000	99.632162
3711.000000	99.631027
3710.000000	99.629929
3709.000000	99.628685
3708.000000	99.626574
3707.000000	99.623259
3706.000000	99.620233
3705.000000	99.618695
3704.000000	99.618266
3703.000000	99.617710
3702.000000	99.615845
3701.000000	99.612034
3700.000000	99.605636
3699.000000	99.596876
3698.000000	99.587989
3697.000000	99.582162
3696.000000	99.581805
3695.000000	99.587144
3694.000000	99.596300
3693.000000	99.606321
3692.000000	99.614494
3691.000000	99.619095
3690.000000	99.619568
3689.000000	99.616707
3688.000000	99.612429
3687.000000	99.607724
3686.000000	99.602469
3685.000000	99.597840
3684.000000	99.596067
3683.000000	99.597842
3682.000000	99.600638
3681.000000	99.601195
3680.000000	99.598957
3679.000000	99.595627
3678.000000	99.592518
3677.000000	99.589509
3676.000000	99.588068
3675.000000	99.591636
3674.000000	99.599895
3673.000000	99.607773
3672.000000	99.613623
3671.000000	99.617816
3670.000000	99.619837
3669.000000	99.619591
3668.000000	99.617525
3667.000000	99.613749
3666.000000	99.609179
3665.000000	99.604731
3664.000000	99.601078
3663.000000	99.598251
3662.000000	99.595580
3661.000000	99.592580
3660.000000	99.590165
3659.000000	99.590210
3658.000000	99.593528
3657.000000	99.598686
3656.000000	99.603225
3655.000000	99.605600
3654.000000	99.605959
3653.000000	99.604092
3652.000000	99.599214
3651.000000	99.594297
3650.000000	99.596165
3649.000000	99.603117
3648.000000	99.605390
3647.000000	99.603176
3646.000000	99.602742
3645.000000	99.605566
3644.000000	99.608784
3643.000000	99.609159
3642.000000	99.605560
3641.000000	99.599964
3640.000000	99.595145
3639.000000	99.591812
3638.000000	99.589512
3637.000000	99.588511
3636.000000	99.590560
3635.000000	99.597714
3634.000000	99.610742
3633.000000	99.628496
3632.000000	99.648335
3631.000000	99.665945
3630.000000	99.676137
3629.000000	99.675914
3628.000000	99.666282
3627.000000	99.651176
3626.000000	99.634807
3625.000000	99.621664
3624.000000	99.614463
3623.000000	99.613332
3622.000000	99.616189
3621.000000	99.619951
3620.000000	99.622762
3619.000000	99.625670
3618.000000	99.630195
3617.000000	99.636003
3616.000000	99.642220
3615.000000	99.648147
3614.000000	99.653034
3613.000000	99.657040
3612.000000	99.661656
3611.000000	99.666793
3610.000000	99.669064
3609.000000	99.663454
3608.000000	99.648737
3607.000000	99.630240
3606.000000	99.614175
3605.000000	99.602546
3604.000000	99.594504
3603.000000	99.590348
3602.000000	99.591716
3601.000000	99.598061
3600.000000	99.605273
3599.000000	99.609080
3598.000000	99.608171
3597.000000	99.603611
3596.000000	99.597838
3595.000000	99.593981
3594.000000	99.595182
3593.000000	99.601904
3592.000000	99.611240
3591.000000	99.618677
3590.000000	99.620586
3589.000000	99.616354
3588.000000	99.610233
3587.000000	99.608046
3586.000000	99.611912
3585.000000	99.618768
3584.000000	99.624210
3583.000000	99.625924
3582.000000	99.624139
3581.000000	99.620622
3580.000000	99.618057
3579.000000	99.617913
3578.000000	99.618598
3577.000000	99.616142
3576.000000	99.608258
3575.000000	99.597622
3574.000000	99.589956
3573.000000	99.588845
3572.000000	99.592505
3571.000000	99.596120
3570.000000	99.595918
3569.000000	99.591869
3568.000000	99.586973
3567.000000	99.583462
3566.000000	99.581092
3565.000000	99.580126
3564.000000	99.581081
3563.000000	99.584027
3562.000000	99.589042
3561.000000	99.595869
3560.000000	99.603019
3559.000000	99.608533
3558.000000	99.611214
3557.000000	99.610880
3556.000000	99.607158
3555.000000	99.599205
3554.000000	99.587453
3553.000000	99.575768
3552.000000	99.569907
3551.000000	99.572519
3550.000000	99.580672
3549.000000	99.589173
3548.000000	99.595340
3547.000000	99.600194
3546.000000	99.605664
3545.000000	99.611408
3544.000000	99.615262
3543.000000	99.615594
3542.000000	99.612573
3541.000000	99.607619
3540.000000	99.602298
3539.000000	99.598061
3538.000000	99.596141
3537.000000	99.597163
3536.000000	99.600648
3535.000000	99.605262
3534.000000	99.610064
3533.000000	99.614686
3532.000000	99.618589
3531.000000	99.620548
3530.000000	99.619747
3529.000000	99.617255
3528.000000	99.615504
3527.000000	99.615785
3526.000000	99.616817
3525.000000	99.616030
3524.000000	99.612054
3523.000000	99.606093
3522.000000	99.601298
3521.000000	99.600968
3520.000000	99.606891
3519.000000	99.618276
3518.000000	99.631493
3517.000000	99.641347
3516.000000	99.644600
3515.000000	99.642163
3514.000000	99.638088
3513.000000	99.635902
3512.000000	99.636308
3511.000000	99.638188
3510.000000	99.641210
3509.000000	99.646158
3508.000000	99.652584
3507.000000	99.657676
3506.000000	99.658553
3505.000000	99.655644
3504.000000	99.652831
3503.000000	99.653601
3502.000000	99.657192
3501.000000	99.659232
3500.000000	99.656064
3499.000000	99.648064
3498.000000	99.639491
3497.000000	99.635478
3496.000000	99.638606
3495.000000	99.647393
3494.000000	99.657570
3493.000000	99.664913
3492.000000	99.667468
3491.000000	99.665986
3490.000000	99.662882
3489.000000	99.660431
3488.000000	99.659627
3487.000000	99.660274
3486.000000	99.661646
3485.000000	99.662832
3484.000000	99.663051
3483.000000	99.662164
3482.000000	99.661128
3481.000000	99.661515
3480.000000	99.664279
3479.000000	99.669118
3478.000000	99.674832
3477.000000	99.679906
3476.000000	99.682652
3475.000000	99.681853
3474.000000	99.678155
3473.000000	99.674582
3472.000000	99.674746
3471.000000	99.679768
3470.000000	99.686973
3469.000000	99.691933
3468.000000	99.691950
3467.000000	99.687858
3466.000000	99.682596
3465.000000	99.678619
3464.000000	99.677072
3463.000000	99.678580
3462.000000	99.683481
3461.000000	99.690545
3460.000000	99.696590
3459.000000	99.698699
3458.000000	99.696871
3457.000000	99.693772
3456.000000	99.691640
3455.000000	99.690159
3454.000000	99.688341
3453.000000	99.687224
3452.000000	99.689264
3451.000000	99.694586
3450.000000	99.699544
3449.000000	99.700079
3448.000000	99.695978
3447.000000	99.691129
3446.000000	99.689690
3445.000000	99.692514
3444.000000	99.697195
3443.000000	99.700394
3442.000000	99.700154
3441.000000	99.697307
3440.000000	99.694654
3439.000000	99.694230
3438.000000	99.695589
3437.000000	99.697161
3436.000000	99.698443
3435.000000	99.699580
3434.000000	99.699827
3433.000000	99.698032
3432.000000	99.695021
3431.000000	99.693321
3430.000000	99.694087
3429.000000	99.695913
3428.000000	99.697393
3427.000000	99.699265
3426.000000	99.702453
3425.000000	99.705242
3424.000000	99.704078
3423.000000	99.697161
3422.000000	99.686234
3421.000000	99.674984
3420.000000	99.666405
3419.000000	99.661364
3418.000000	99.658664
3417.000000	99.656244
3416.000000	99.653299
3415.000000	99.651693
3414.000000	99.654503
3413.000000	99.662476
3412.000000	99.672325
3411.000000	99.679108
3410.000000	99.680015
3409.000000	99.675586
3408.000000	99.668099
3407.000000	99.660143
3406.000000	99.654537
3405.000000	99.653747
3404.000000	99.657782
3403.000000	99.662851
3402.000000	99.663717
3401.000000	99.658065
3400.000000	99.648471
3399.000000	99.639761
3398.000000	99.634819
3397.000000	99.633197
3396.000000	99.633233
3395.000000	99.634382
3394.000000	99.637076
3393.000000	99.641282
3392.000000	99.646281
3391.000000	99.651633
3390.000000	99.657028
3389.000000	99.660977
3388.000000	99.660946
3387.000000	99.655692
3386.000000	99.646980
3385.000000	99.638167
3384.000000	99.631422
3383.000000	99.627067
3382.000000	99.624944
3381.000000	99.624761
3380.000000	99.625046
3379.000000	99.623209
3378.000000	99.617706
3377.000000	99.609487
3376.000000	99.600618
3375.000000	99.592036
3374.000000	99.583503
3373.000000	99.575595
3372.000000	99.570643
3371.000000	99.570952
3370.000000	99.576046
3369.000000	99.582010
3368.000000	99.583796
3367.000000	99.578647
3366.000000	99.567891
3365.000000	99.555970
3364.000000	99.547864
3363.000000	99.546709
3362.000000	99.552383
3361.000000	99.561208
3360.000000	99.567247
3359.000000	99.565392
3358.000000	99.554639
3357.000000	99.539024
3356.000000	99.525054
3355.000000	99.517475
3354.000000	99.516611
3353.000000	99.519135
3352.000000	99.521059
3351.000000	99.520325
3350.000000	99.517353
3349.000000	99.513821
3348.000000	99.510888
3347.000000	99.508185
3346.000000	99.504227
3345.000000	99.497812
3344.000000	99.489300
3343.000000	99.480427
3342.000000	99.472855
3341.000000	99.467018
3340.000000	99.462466
3339.000000	99.458840
3338.000000	99.455840
3337.000000	99.452348
3336.000000	99.446611
3335.000000	99.438013
3334.000000	99.428202
3333.000000	99.419575
3332.000000	99.412722
3331.000000	99.406070
3330.000000	99.398170
3329.000000	99.389777
3328.000000	99.383324
3327.000000	99.380513
3326.000000	99.380635
3325.000000	99.381084
3324.000000	99.379489
3323.000000	99.375476
3322.000000	99.370443
3321.000000	99.365572
3320.000000	99.360436
3319.000000	99.354120
3318.000000	99.347530
3317.000000	99.343440
3316.000000	99.343523
3315.000000	99.345825
3314.000000	99.346066
3313.000000	99.341517
3312.000000	99.333204
3311.000000	99.324633
3310.000000	99.318859
3309.000000	99.316435
3308.000000	99.315429
3307.000000	99.313380
3306.000000	99.309811
3305.000000	99.306839
3304.000000	99.306624
3303.000000	99.308182
3302.000000	99.307689
3301.000000	99.302517
3300.000000	99.294206
3299.000000	99.286335
3298.000000	99.280080
3297.000000	99.273152
3296.000000	99.263663
3295.000000	99.253991
3294.000000	99.249481
3293.000000	99.253108
3292.000000	99.262111
3291.000000	99.270272
3290.000000	99.273316
3289.000000	99.271712
3288.000000	99.268679
3287.000000	99.266581
3286.000000	99.265575
3285.000000	99.264657
3284.000000	99.262886
3283.000000	99.259776
3282.000000	99.255443
3281.000000	99.250862
3280.000000	99.247437
3279.000000	99.246028
3278.000000	99.246593
3277.000000	99.248682
3276.000000	99.251857
3275.000000	99.255427
3274.000000	99.258277
3273.000000	99.259443
3272.000000	99.258822
3271.000000	99.257193
3270.000000	99.255684
3269.000000	99.255198
3268.000000	99.256006
3267.000000	99.257711
3266.000000	99.259753
3265.000000	99.261859
3264.000000	99.263722
3263.000000	99.264504
3262.000000	99.263306
3261.000000	99.260421
3260.000000	99.257435
3259.000000	99.255766
3258.000000	99.255576
3257.000000	99.256446
3256.000000	99.258463
3255.000000	99.261917
3254.000000	99.266256
3253.000000	99.270120
3252.000000	99.272399
3251.000000	99.272598
3250.000000	99.270484
3249.000000	99.266234
3248.000000	99.261069
3247.000000	99.257026
3246.000000	99.255817
3245.000000	99.258286
3244.000000	99.264847
3243.000000	99.275249
3242.000000	99.287260
3241.000000	99.296519
3240.000000	99.299101
3239.000000	99.294698
3238.000000	99.286720
3237.000000	99.279170
3236.000000	99.273577
3235.000000	99.268834
3234.000000	99.263414
3233.000000	99.257357
3232.000000	99.252481
3231.000000	99.250748
3230.000000	99.252350
3229.000000	99.255354
3228.000000	99.257249
3227.000000	99.257109
3226.000000	99.256108
3225.000000	99.255959
3224.000000	99.257161
3223.000000	99.258903
3222.000000	99.260475
3221.000000	99.262040
3220.000000	99.263542
3219.000000	99.263507
3218.000000	99.260162
3217.000000	99.254270
3216.000000	99.249694
3215.000000	99.249773
3214.000000	99.253129
3213.000000	99.254789
3212.000000	99.251890
3211.000000	99.247165
3210.000000	99.245796
3209.000000	99.249897
3208.000000	99.257118
3207.000000	99.263946
3206.000000	99.268856
3205.000000	99.272294
3204.000000	99.275026
3203.000000	99.277013
3202.000000	99.277129
3201.000000	99.273810
3200.000000	99.266652
3199.000000	99.257722
3198.000000	99.250502
3197.000000	99.246973
3196.000000	99.245894
3195.000000	99.244198
3194.000000	99.239686
3193.000000	99.232383
3192.000000	99.224123
3191.000000	99.217336
3190.000000	99.213899
3189.000000	99.214463
3188.000000	99.218438
3187.000000	99.224417
3186.000000	99.230497
3185.000000	99.235012
3184.000000	99.237798
3183.000000	99.240559
3182.000000	99.245076
3181.000000	99.250801
3180.000000	99.255076
3179.000000	99.255742
3178.000000	99.252870
3177.000000	99.247826
3176.000000	99.241926
3175.000000	99.236958
3174.000000	99.235649
3173.000000	99.239746
3172.000000	99.247448
3171.000000	99.254061
3170.000000	99.255828
3169.000000	99.252465
3168.000000	99.246136
3167.000000	99.239113
3166.000000	99.233245
3165.000000	99.230590
3164.000000	99.232857
3163.000000	99.239715
3162.000000	99.248154
3161.000000	99.254109
3160.000000	99.254905
3159.000000	99.250776
3158.000000	99.244716
3157.000000	99.240680
3156.000000	99.240935
3155.000000	99.244417
3154.000000	99.248033
3153.000000	99.249843
3152.000000	99.250621
3151.000000	99.252077
3150.000000	99.254450
3149.000000	99.256545
3148.000000	99.257486
3147.000000	99.257248
3146.000000	99.255700
3145.000000	99.252411
3144.000000	99.247784
3143.000000	99.243528
3142.000000	99.241403
3141.000000	99.241700
3140.000000	99.243162
3139.000000	99.243907
3138.000000	99.242396
3137.000000	99.238290
3136.000000	99.233049
3135.000000	99.229348
3134.000000	99.229272
3133.000000	99.232967
3132.000000	99.238986
3131.000000	99.245342
3130.000000	99.249924
3129.000000	99.250876
3128.000000	99.247787
3127.000000	99.242577
3126.000000	99.238502
3125.000000	99.237916
3124.000000	99.240714
3123.000000	99.244349
3122.000000	99.245194
3121.000000	99.240867
3120.000000	99.232246
3119.000000	99.223119
3118.000000	99.217165
3117.000000	99.215120
3116.000000	99.214900
3115.000000	99.214355
3114.000000	99.213419
3113.000000	99.213657
3112.000000	99.216142
3111.000000	99.219885
3110.000000	99.222345
3109.000000	99.221551
3108.000000	99.217735
3107.000000	99.212641
3106.000000	99.207788
3105.000000	99.204129
3104.000000	99.202810
3103.000000	99.204766
3102.000000	99.209042
3101.000000	99.212726
3100.000000	99.213327
3099.000000	99.210602
3098.000000	99.205647
3097.000000	99.199246
3096.000000	99.191990
3095.000000	99.185037
3094.000000	99.179616
3093.000000	99.175980
3092.000000	99.173731
3091.000000	99.172683
3090.000000	99.172511
3089.000000	99.171922
3088.000000	99.169406
3087.000000	99.164947
3086.000000	99.160214
3085.000000	99.157029
3084.000000	99.156160
3083.000000	99.157530
3082.000000	99.160529
3081.000000	99.163815
3080.000000	99.165531
3079.000000	99.164397
3078.000000	99.160621
3077.000000	99.155704
3076.000000	99.151576
3075.000000	99.149561
3074.000000	99.149641
3073.000000	99.150591
3072.000000	99.151106
3071.000000	99.150704
3070.000000	99.149496
3069.000000	99.147757
3068.000000	99.146158
3067.000000	99.145655
3066.000000	99.146076
3065.000000	99.145217
3064.000000	99.140818
3063.000000	99.133635
3062.000000	99.127404
3061.000000	99.125399
3060.000000	99.127758
3059.000000	99.132346
3058.000000	99.136959
3057.000000	99.140098
3056.000000	99.140907
3055.000000	99.139782
3054.000000	99.138779
3053.000000	99.139917
3052.000000	99.142790
3051.000000	99.144542
3050.000000	99.142574
3049.000000	99.137313
3048.000000	99.132281
3047.000000	99.131474
3046.000000	99.136049
3045.000000	99.142852
3044.000000	99.146545
3043.000000	99.144214
3042.000000	99.138215
3041.000000	99.134069
3040.000000	99.135232
3039.000000	99.140172
3038.000000	99.144154
3037.000000	99.143233
3036.000000	99.136735
3035.000000	99.127074
3034.000000	99.117876
3033.000000	99.111777
3032.000000	99.109241
3031.000000	99.109041
3030.000000	99.109653
3029.000000	99.109873
3028.000000	99.108495
3027.000000	99.104311
3026.000000	99.097199
3025.000000	99.088986
3024.000000	99.082629
3023.000000	99.080193
3022.000000	99.081555
3021.000000	99.084742
3020.000000	99.087037
3019.000000	99.085995
3018.000000	99.080261
3017.000000	99.070319
3016.000000	99.058269
3015.000000	99.046300
3014.000000	99.035004
3013.000000	99.023489
3012.000000	99.011189
3011.000000	98.999121
3010.000000	98.988919
3009.000000	98.981144
3008.000000	98.975313
3007.000000	98.971382
3006.000000	98.970002
3005.000000	98.970716
3004.000000	98.970688
3003.000000	98.966531
3002.000000	98.957714
3001.000000	98.947794
3000.000000	98.941864
2999.000000	98.942835
2998.000000	98.949445
2997.000000	98.957301
2996.000000	98.961743
2995.000000	98.960556
2994.000000	98.954646
2993.000000	98.946284
2992.000000	98.936910
2991.000000	98.926669
2990.000000	98.915585
2989.000000	98.904167
2988.000000	98.892680
2987.000000	98.880594
2986.000000	98.867180
2985.000000	98.852183
2984.000000	98.835418
2983.000000	98.816332
2982.000000	98.794766
2981.000000	98.771946
2980.000000	98.749899
2979.000000	98.729560
2978.000000	98.709756
2977.000000	98.688158
2976.000000	98.662718
2975.000000	98.632274
2974.000000	98.596516
2973.000000	98.555974
2972.000000	98.511755
2971.000000	98.464540
2970.000000	98.413969
2969.000000	98.359376
2968.000000	98.301329
2967.000000	98.242090
2966.000000	98.184251
2965.000000	98.129145
2964.000000	98.076431
2963.000000	98.024951
2962.000000	97.973698
2961.000000	97.922489
2960.000000	97.872464
2959.000000	97.826015
2958.000000	97.785838
2957.000000	97.753643
2956.000000	97.729980
2955.000000	97.715088
2954.000000	97.709095
2953.000000	97.710936
2952.000000	97.717422
2951.000000	97.724239
2950.000000	97.727424
2949.000000	97.723732
2948.000000	97.710153
2947.000000	97.684560
2946.000000	97.647031
2945.000000	97.599342
2944.000000	97.542783
2943.000000	97.476831
2942.000000	97.400578
2941.000000	97.314440
2940.000000	97.219643
2939.000000	97.116373
2938.000000	97.003094
2937.000000	96.878043
2936.000000	96.741134
2935.000000	96.595189
2934.000000	96.445624
2933.000000	96.297868
2932.000000	96.153709
2931.000000	96.010240
2930.000000	95.863805
2929.000000	95.715060
2928.000000	95.569704
2927.000000	95.434699
2926.000000	95.315077
2925.000000	95.214267
2924.000000	95.135154
2923.000000	95.080206
2922.000000	95.051575
2921.000000	95.051762
2920.000000	95.083444
2919.000000	95.147376
2918.000000	95.241836
2917.000000	95.364617
2916.000000	95.514841
2915.000000	95.691268
2914.000000	95.888353
2913.000000	96.095130
2912.000000	96.297975
2911.000000	96.485241
2910.000000	96.649988
2909.000000	96.790507
2908.000000	96.909574
2907.000000	97.012336
2906.000000	97.103533
2905.000000	97.185321
2904.000000	97.257828
2903.000000	97.321574
2902.000000	97.379338
2901.000000	97.434854
2900.000000	97.490860
2899.000000	97.547164
2898.000000	97.601618
2897.000000	97.652535
2896.000000	97.700044
2895.000000	97.745396
2894.000000	97.789564
2893.000000	97.832949
2892.000000	97.876066
2891.000000	97.919656
2890.000000	97.963748
2889.000000	98.006942
2888.000000	98.046927
2887.000000	98.081748
2886.000000	98.110867
2885.000000	98.135512
2884.000000	98.157941
2883.000000	98.179484
2882.000000	98.198441
2881.000000	98.210274
2880.000000	98.210956
2879.000000	98.200879
2878.000000	98.185295
2877.000000	98.170383
2876.000000	98.158235
2875.000000	98.145706
2874.000000	98.128515
2873.000000	98.106543
2872.000000	98.084519
2871.000000	98.067035
2870.000000	98.053455
2869.000000	98.038495
2868.000000	98.017254
2867.000000	97.987945
2866.000000	97.949679
2865.000000	97.899697
2864.000000	97.834537
2863.000000	97.753221
2862.000000	97.657489
2861.000000	97.549144
2860.000000	97.428943
2859.000000	97.298676
2858.000000	97.162924
2857.000000	97.027956
2856.000000	96.899601
2855.000000	96.782745
2854.000000	96.683022
2853.000000	96.608077
2852.000000	96.567612
2851.000000	96.572770
2850.000000	96.633531
2849.000000	96.754062
2848.000000	96.927936
2847.000000	97.137733
2846.000000	97.360413
2845.000000	97.575520
2844.000000	97.770046
2843.000000	97.938654
2842.000000	98.081083
2841.000000	98.199688
2840.000000	98.298619
2839.000000	98.382451
2838.000000	98.454223
2837.000000	98.514839
2836.000000	98.564972
2835.000000	98.606956
2834.000000	98.643969
2833.000000	98.677492
2832.000000	98.706848
2831.000000	98.731638
2830.000000	98.753506
2829.000000	98.774941
2828.000000	98.796944
2827.000000	98.818560
2826.000000	98.838362
2825.000000	98.855646
2824.000000	98.870499
2823.000000	98.883503
2822.000000	98.895572
2821.000000	98.907567
2820.000000	98.919752
2819.000000	98.931689
2818.000000	98.942662
2817.000000	98.952111
2816.000000	98.959949
2815.000000	98.966913
2814.000000	98.974581
2813.000000	98.984406
2812.000000	98.996208
2811.000000	99.007749
2810.000000	99.016223
2809.000000	99.020477
2808.000000	99.021801
2807.000000	99.022673
2806.000000	99.024946
2805.000000	99.029176
2804.000000	99.035060
2803.000000	99.041941
2802.000000	99.048865
2801.000000	99.054875
2800.000000	99.059738
2799.000000	99.064284
2798.000000	99.069568
2797.000000	99.075622
2796.000000	99.081267
2795.000000	99.085277
2794.000000	99.087571
2793.000000	99.089087
2792.000000	99.090570
2791.000000	99.091786
2790.000000	99.092203
2789.000000	99.092407
2788.000000	99.094258
2787.000000	99.099070
2786.000000	99.105818
2785.000000	99.111835
2784.000000	99.115398
2783.000000	99.116991
2782.000000	99.117860
2781.000000	99.118404
2780.000000	99.118906
2779.000000	99.121060
2778.000000	99.127088
2777.000000	99.136892
2776.000000	99.147005
2775.000000	99.153178
2774.000000	99.153947
2773.000000	99.151656
2772.000000	99.150438
2771.000000	99.153145
2770.000000	99.159352
2769.000000	99.165581
2768.000000	99.167811
2767.000000	99.164587
2766.000000	99.158221
2765.000000	99.152975
2764.000000	99.151965
2763.000000	99.155372
2762.000000	99.160831
2761.000000	99.165145
2760.000000	99.166164
2759.000000	99.163973
2758.000000	99.160802
2757.000000	99.159565
2756.000000	99.161950
2755.000000	99.167246
2754.000000	99.172702
2753.000000	99.175313
2752.000000	99.174060
2751.000000	99.170769
2750.000000	99.168474
2749.000000	99.168678
2748.000000	99.170384
2747.000000	99.171960
2746.000000	99.173393
2745.000000	99.176167
2744.000000	99.181129
2743.000000	99.187056
2742.000000	99.191456
2741.000000	99.192495
2740.000000	99.190179
2739.000000	99.186060
2738.000000	99.182021
2737.000000	99.179113
2736.000000	99.177318
2735.000000	99.176315
2734.000000	99.176323
2733.000000	99.178028
2732.000000	99.181726
2731.000000	99.186708
2730.000000	99.191401
2729.000000	99.194069
2728.000000	99.193663
2727.000000	99.190556
2726.000000	99.186569
2725.000000	99.183886
2724.000000	99.183527
2723.000000	99.184820
2722.000000	99.186433
2721.000000	99.187765
2720.000000	99.189302
2719.000000	99.191709
2718.000000	99.194773
2717.000000	99.197212
2716.000000	99.197604
2715.000000	99.195737
2714.000000	99.193222
2713.000000	99.192503
2712.000000	99.194798
2711.000000	99.198877
2710.000000	99.202046
2709.000000	99.202520
2708.000000	99.200881
2707.000000	99.199436
2706.000000	99.200366
2705.000000	99.204270
2704.000000	99.209822
2703.000000	99.214499
2702.000000	99.216178
2701.000000	99.214806
2700.000000	99.212600
2699.000000	99.211981
2698.000000	99.213043
2697.000000	99.213432
2696.000000	99.211039
2695.000000	99.206548
2694.000000	99.202810
2693.000000	99.201839
2692.000000	99.202932
2691.000000	99.203824
2690.000000	99.203242
2689.000000	99.201971
2688.000000	99.201685
2687.000000	99.203197
2686.000000	99.205856
2685.000000	99.208217
2684.000000	99.209109
2683.000000	99.208346
2682.000000	99.206814
2681.000000	99.205794
2680.000000	99.205817
2679.000000	99.206117
2678.000000	99.205580
2677.000000	99.204430
2676.000000	99.204631
2675.000000	99.208105
2674.000000	99.214577
2673.000000	99.221489
2672.000000	99.226080
2671.000000	99.227288
2670.000000	99.225783
2669.000000	99.222805
2668.000000	99.219359
2667.000000	99.216117
2666.000000	99.213397
2665.000000	99.211175
2664.000000	99.209385
2663.000000	99.208210
2662.000000	99.207832
2661.000000	99.207956
2660.000000	99.207946
2659.000000	99.207465
2658.000000	99.206647
2657.000000	99.205488
2656.000000	99.203558
2655.000000	99.200783
2654.000000	99.198277
2653.000000	99.197705
2652.000000	99.199592
2651.000000	99.202778
2650.000000	99.205894
2649.000000	99.208943
2648.000000	99.212896
2647.000000	99.218047
2646.000000	99.223602
2645.000000	99.228952
2644.000000	99.234328
2643.000000	99.239696
2642.000000	99.243879
2641.000000	99.245742
2640.000000	99.245879
2639.000000	99.246169
2638.000000	99.247816
2637.000000	99.250700
2636.000000	99.254396
2635.000000	99.258450
2634.000000	99.261424
2633.000000	99.261285
2632.000000	99.257862
2631.000000	99.254129
2630.000000	99.253717
2629.000000	99.257291
2628.000000	99.262118
2627.000000	99.264979
2626.000000	99.264903
2625.000000	99.263418
2624.000000	99.263009
2623.000000	99.265254
2622.000000	99.269694
2621.000000	99.274351
2620.000000	99.277611
2619.000000	99.279336
2618.000000	99.279998
2617.000000	99.279711
2616.000000	99.279019
2615.000000	99.279580
2614.000000	99.282314
2613.000000	99.285086
2612.000000	99.284182
2611.000000	99.278837
2610.000000	99.272873
2609.000000	99.271087
2608.000000	99.274862
2607.000000	99.281681
2606.000000	99.287704
2605.000000	99.290013
2604.000000	99.287797
2603.000000	99.282939
2602.000000	99.278973
2601.000000	99.278240
2600.000000	99.280390
2599.000000	99.284282
2598.000000	99.290212
2597.000000	99.298547
2596.000000	99.306803
2595.000000	99.310693
2594.000000	99.308744
2593.000000	99.304161
2592.000000	99.300920
2591.000000	99.299465
2590.000000	99.297820
2589.000000	99.295911
2588.000000	99.296482
2587.000000	99.301172
2586.000000	99.307439
2585.000000	99.310650
2584.000000	99.308856
2583.000000	99.304639
2582.000000	99.302307
2581.000000	99.304068
2580.000000	99.308903
2579.000000	99.314096
2578.000000	99.316931
2577.000000	99.315324
2576.000000	99.308625
2575.000000	99.299131
2574.000000	99.292357
2573.000000	99.293982
2572.000000	99.305143
2571.000000	99.320666
2570.000000	99.332446
2569.000000	99.334936
2568.000000	99.327998
2567.000000	99.315808
2566.000000	99.304110
2565.000000	99.297928
2564.000000	99.299766
2563.000000	99.308399
2562.000000	99.319435
2561.000000	99.328041
2560.000000	99.331989
2559.000000	99.332569
2558.000000	99.332852
2557.000000	99.335079
2556.000000	99.339111
2555.000000	99.342968
2554.000000	99.344918
2553.000000	99.345362
2552.000000	99.346657
2551.000000	99.350969
2550.000000	99.358108
2549.000000	99.365177
2548.000000	99.368208
2547.000000	99.364510
2546.000000	99.354345
2545.000000	99.340712
2544.000000	99.327329
2543.000000	99.316705
2542.000000	99.310094
2541.000000	99.308248
2540.000000	99.310628
2539.000000	99.314069
2538.000000	99.314504
2537.000000	99.311560
2536.000000	99.310156
2535.000000	99.315533
2534.000000	99.327014
2533.000000	99.338246
2532.000000	99.343344
2531.000000	99.341473
2530.000000	99.335460
2529.000000	99.328503
2528.000000	99.323439
2527.000000	99.323323
2526.000000	99.329816
2525.000000	99.340307
2524.000000	99.348382
2523.000000	99.348968
2522.000000	99.343595
2521.000000	99.339565
2520.000000	99.342939
2519.000000	99.352211
2518.000000	99.359561
2517.000000	99.358397
2516.000000	99.349124
2515.000000	99.337936
2514.000000	99.331691
2513.000000	99.334243
2512.000000	99.344957
2511.000000	99.358298
2510.000000	99.366148
2509.000000	99.363726
2508.000000	99.353926
2507.000000	99.344218
2506.000000	99.339239
2505.000000	99.338179
2504.000000	99.338583
2503.000000	99.339625
2502.000000	99.340684
2501.000000	99.339772
2500.000000	99.335830
2499.000000	99.331228
2498.000000	99.329821
2497.000000	99.332830
2496.000000	99.337971
2495.000000	99.342182
2494.000000	99.344330
2493.000000	99.345613
2492.000000	99.348027
2491.000000	99.352093
2490.000000	99.355913
2489.000000	99.357322
2488.000000	99.357044
2487.000000	99.358306
2486.000000	99.363025
2485.000000	99.369988
2484.000000	99.377187
2483.000000	99.383824
2482.000000	99.389131
2481.000000	99.391985
2480.000000	99.393580
2479.000000	99.397932
2478.000000	99.406605
2477.000000	99.414664
2476.000000	99.415385
2475.000000	99.408813
2474.000000	99.402381
2473.000000	99.402645
2472.000000	99.409162
2471.000000	99.416803
2470.000000	99.421321
2469.000000	99.421408
2468.000000	99.417439
2467.000000	99.410485
2466.000000	99.402084
2465.000000	99.393955
2464.000000	99.387772
2463.000000	99.384768
2462.000000	99.384745
2461.000000	99.385723
2460.000000	99.385692
2459.000000	99.384292
2458.000000	99.381567
2457.000000	99.376085
2456.000000	99.366873
2455.000000	99.357172
2454.000000	99.352987
2453.000000	99.356325
2452.000000	99.362095
2451.000000	99.363707
2450.000000	99.360606
2449.000000	99.358082
2448.000000	99.360684
2447.000000	99.367907
2446.000000	99.376070
2445.000000	99.382236
2444.000000	99.385629
2443.000000	99.386671
2442.000000	99.386048
2441.000000	99.384913
2440.000000	99.385259
2439.000000	99.388927
2438.000000	99.395309
2437.000000	99.400489
2436.000000	99.400325
2435.000000	99.395165
2434.000000	99.390438
2433.000000	99.391515
2432.000000	99.398244
2431.000000	99.405115
2430.000000	99.406306
2429.000000	99.400134
2428.000000	99.389446
2427.000000	99.378772
2426.000000	99.370952
2425.000000	99.365742
2424.000000	99.361443
2423.000000	99.357973
2422.000000	99.357896
2421.000000	99.363674
2420.000000	99.374086
2419.000000	99.384104
2418.000000	99.388886
2417.000000	99.388064
2416.000000	99.385869
2415.000000	99.386791
2414.000000	99.391091
2413.000000	99.395142
2412.000000	99.396258
2411.000000	99.395951
2410.000000	99.397458
2409.000000	99.401428
2408.000000	99.406095
2407.000000	99.410975
2406.000000	99.417334
2405.000000	99.424337
2404.000000	99.427962
2403.000000	99.425954
2402.000000	99.421859
2401.000000	99.421489
2400.000000	99.426337
2399.000000	99.432620
2398.000000	99.436019
2397.000000	99.434719
2396.000000	99.428367
2395.000000	99.417367
2394.000000	99.404447
2393.000000	99.394396
2392.000000	99.390183
2391.000000	99.390293
2390.000000	99.391121
2389.000000	99.391081
2388.000000	99.390994
2387.000000	99.391538
2386.000000	99.392009
2385.000000	99.391460
2384.000000	99.389516
2383.000000	99.385827
2382.000000	99.380097
2381.000000	99.373134
2380.000000	99.367283
2379.000000	99.365179
2378.000000	99.367985
2377.000000	99.374726
2376.000000	99.382580
2375.000000	99.387995
2374.000000	99.388783
2373.000000	99.386024
2372.000000	99.383223
2371.000000	99.382283
2370.000000	99.380740
2369.000000	99.374597
2368.000000	99.364422
2367.000000	99.356529
2366.000000	99.357017
2365.000000	99.365547
2364.000000	99.375271
2363.000000	99.377680
2362.000000	99.367199
2361.000000	99.344933
2360.000000	99.320596
2359.000000	99.307955
2358.000000	99.313739
2357.000000	99.331412
2356.000000	99.348011
2355.000000	99.355760
2354.000000	99.354707
2353.000000	99.349094
2352.000000	99.343548
2351.000000	99.340830
2350.000000	99.340693
2349.000000	99.341068
2348.000000	99.339740
2347.000000	99.336181
2346.000000	99.333378
2345.000000	99.335836
2344.000000	99.343182
2343.000000	99.349496
2342.000000	99.351084
2341.000000	99.349510
2340.000000	99.346596
2339.000000	99.341040
2338.000000	99.332075
2337.000000	99.323778
2336.000000	99.322319
2335.000000	99.328441
2334.000000	99.335792
2333.000000	99.337951
2332.000000	99.335720
2331.000000	99.334786
2330.000000	99.338466
2329.000000	99.344285
2328.000000	99.347273
2327.000000	99.343374
2326.000000	99.331236
2325.000000	99.313367
2324.000000	99.296814
2323.000000	99.289777
2322.000000	99.295784
2321.000000	99.310857
2320.000000	99.327688
2319.000000	99.341505
2318.000000	99.352127
2317.000000	99.361487
2316.000000	99.371088
2315.000000	99.380421
2314.000000	99.387071
2313.000000	99.388250
2312.000000	99.383968
2311.000000	99.378348
2310.000000	99.377211
2309.000000	99.383571
2308.000000	99.395579
2307.000000	99.408187
2306.000000	99.416402
2305.000000	99.417268
2304.000000	99.410699
2303.000000	99.399576
2302.000000	99.388841
2301.000000	99.382920
2300.000000	99.383149
2299.000000	99.387308
2298.000000	99.391832
2297.000000	99.394132
2296.000000	99.393579
2295.000000	99.391065
2294.000000	99.388366
2293.000000	99.387368
2292.000000	99.389247
2291.000000	99.393947
2290.000000	99.400527
2289.000000	99.407926
2288.000000	99.415309
2287.000000	99.421847
2286.000000	99.426571
2285.000000	99.428550
2284.000000	99.427105
2283.000000	99.422173
2282.000000	99.415220
2281.000000	99.409863
2280.000000	99.410007
2279.000000	99.415878
2278.000000	99.422357
2277.000000	99.423378
2276.000000	99.419184
2275.000000	99.417796
2274.000000	99.427143
2273.000000	99.445440
2272.000000	99.461070
2271.000000	99.463173
2270.000000	99.451926
2269.000000	99.437646
2268.000000	99.430469
2267.000000	99.431761
2266.000000	99.435476
2265.000000	99.435974
2264.000000	99.433050
2263.000000	99.430084
2262.000000	99.429655
2261.000000	99.432080
2260.000000	99.436387
2259.000000	99.440638
2258.000000	99.441603
2257.000000	99.436525
2256.000000	99.426297
2255.000000	99.415696
2254.000000	99.409377
2253.000000	99.408797
2252.000000	99.413926
2251.000000	99.425935
2250.000000	99.445044
2249.000000	99.465614
2248.000000	99.476956
2247.000000	99.471149
2246.000000	99.450603
2245.000000	99.427194
2244.000000	99.414444
2243.000000	99.419423
2242.000000	99.439263
2241.000000	99.463581
2240.000000	99.481868
2239.000000	99.491408
2238.000000	99.498171
2237.000000	99.509006
2236.000000	99.523458
2235.000000	99.534130
2234.000000	99.534308
2233.000000	99.524031
2232.000000	99.509734
2231.000000	99.498987
2230.000000	99.494241
2229.000000	99.490057
2228.000000	99.477670
2227.000000	99.454901
2226.000000	99.430718
2225.000000	99.417511
2224.000000	99.419429
2223.000000	99.431251
2222.000000	99.446336
2221.000000	99.459976
2220.000000	99.466027
2219.000000	99.459008
2218.000000	99.442970
2217.000000	99.432086
2216.000000	99.437217
2215.000000	99.455737
2214.000000	99.478259
2213.000000	99.499104
2212.000000	99.514023
2211.000000	99.513587
2210.000000	99.489079
2209.000000	99.445303
2208.000000	99.400297
2207.000000	99.371709
2206.000000	99.367973
2205.000000	99.389149
2204.000000	99.426241
2203.000000	99.460417
2202.000000	99.473795
2201.000000	99.465917
2200.000000	99.453383
2199.000000	99.449479
2198.000000	99.451073
2197.000000	99.448858
2196.000000	99.442647
2195.000000	99.439202
2194.000000	99.440649
2193.000000	99.443028
2192.000000	99.444453
2191.000000	99.448662
2190.000000	99.461151
2189.000000	99.485232
2188.000000	99.519429
2187.000000	99.554941
2186.000000	99.578524
2185.000000	99.584135
2184.000000	99.582505
2183.000000	99.593398
2182.000000	99.624953
2181.000000	99.662019
2180.000000	99.676848
2179.000000	99.652633
2178.000000	99.598256
2177.000000	99.542098
2176.000000	99.509254
2175.000000	99.502266
2174.000000	99.505795
2173.000000	99.508079
2172.000000	99.510016
2171.000000	99.513694
2170.000000	99.513117
2169.000000	99.501064
2168.000000	99.478488
2167.000000	99.451979
2166.000000	99.427931
2165.000000	99.413996
2164.000000	99.417687
2163.000000	99.435763
2162.000000	99.454555
2161.000000	99.473607
2160.000000	99.521396
2159.000000	99.624623
2158.000000	99.755475
2157.000000	99.839861
2156.000000	99.832295
2155.000000	99.755794
2154.000000	99.666949
2153.000000	99.606358
2152.000000	99.580356
2151.000000	99.573660
2150.000000	99.572308
2149.000000	99.573868
2148.000000	99.579063
2147.000000	99.580001
2146.000000	99.563653
2145.000000	99.527986
2144.000000	99.489030
2143.000000	99.468003
2142.000000	99.474831
2141.000000	99.503974
2140.000000	99.539778
2139.000000	99.564167
2138.000000	99.566116
2137.000000	99.549588
2136.000000	99.530021
2135.000000	99.518658
2134.000000	99.513433
2133.000000	99.507441
2132.000000	99.499907
2131.000000	99.494754
2130.000000	99.494244
2129.000000	99.499782
2128.000000	99.513925
2127.000000	99.534608
2126.000000	99.549684
2125.000000	99.545009
2124.000000	99.519790
2123.000000	99.489255
2122.000000	99.471129
2121.000000	99.471941
2120.000000	99.485225
2119.000000	99.498592
2118.000000	99.502181
2117.000000	99.494289
2116.000000	99.481268
2115.000000	99.470628
2114.000000	99.464701
2113.000000	99.462123
2112.000000	99.463041
2111.000000	99.468614
2110.000000	99.476438
2109.000000	99.481709
2108.000000	99.483827
2107.000000	99.487660
2106.000000	99.496605
2105.000000	99.507435
2104.000000	99.513096
2103.000000	99.508022
2102.000000	99.491352
2101.000000	99.469245
2100.000000	99.454090
2099.000000	99.455729
2098.000000	99.471114
2097.000000	99.485956
2096.000000	99.489351
2095.000000	99.483728
2094.000000	99.478553
2093.000000	99.479039
2092.000000	99.484060
2091.000000	99.490763
2090.000000	99.495905
2089.000000	99.495284
2088.000000	99.487555
2087.000000	99.478585
2086.000000	99.477613
2085.000000	99.487560
2084.000000	99.501395
2083.000000	99.509697
2082.000000	99.510081
2081.000000	99.506884
2080.000000	99.503104
2079.000000	99.496176
2078.000000	99.483304
2077.000000	99.468474
2076.000000	99.460736
2075.000000	99.465958
2074.000000	99.483090
2073.000000	99.507265
2072.000000	99.531574
2071.000000	99.546381
2070.000000	99.544346
2069.000000	99.530334
2068.000000	99.520790
2067.000000	99.526665
2066.000000	99.540612
2065.000000	99.546755
2064.000000	99.541107
2063.000000	99.534241
2062.000000	99.534807
2061.000000	99.540596
2060.000000	99.545886
2059.000000	99.549242
2058.000000	99.551248
2057.000000	99.551068
2056.000000	99.548593
2055.000000	99.544787
2054.000000	99.537461
2053.000000	99.522740
2052.000000	99.504446
2051.000000	99.496429
2050.000000	99.509333
2049.000000	99.534970
2048.000000	99.550759
2047.000000	99.545638
2046.000000	99.535448
2045.000000	99.546647
2044.000000	99.587371
2043.000000	99.638748
2042.000000	99.674109
2041.000000	99.684664
2040.000000	99.685360
2039.000000	99.694236
2038.000000	99.711684
2037.000000	99.724135
2036.000000	99.722431
2035.000000	99.709820
2034.000000	99.692305
2033.000000	99.670087
2032.000000	99.641367
2031.000000	99.608807
2030.000000	99.581056
2029.000000	99.571008
2028.000000	99.588949
2027.000000	99.631382
2026.000000	99.677699
2025.000000	99.702229
2024.000000	99.692336
2023.000000	99.654649
2022.000000	99.605972
2021.000000	99.562636
2020.000000	99.533698
2019.000000	99.518525
2018.000000	99.512478
2017.000000	99.514123
2016.000000	99.520980
2015.000000	99.519173
2014.000000	99.491761
2013.000000	99.444862
2012.000000	99.413978
2011.000000	99.430688
2010.000000	99.488563
2009.000000	99.550791
2008.000000	99.586222
2007.000000	99.590095
2006.000000	99.575464
2005.000000	99.561691
2004.000000	99.568448
2003.000000	99.602799
2002.000000	99.648806
2001.000000	99.678410
2000.000000	99.675562
1999.000000	99.644583
1998.000000	99.599488
1997.000000	99.557596
1996.000000	99.538003
1995.000000	99.549359
1994.000000	99.577217
1993.000000	99.593524
1992.000000	99.586412
1991.000000	99.573370
1990.000000	99.575107
1989.000000	99.591748
1988.000000	99.612424
1987.000000	99.631708
1986.000000	99.645896
1985.000000	99.643587
1984.000000	99.615186
1983.000000	99.570132
1982.000000	99.533485
1981.000000	99.522922
1980.000000	99.532530
1979.000000	99.539655
1978.000000	99.527834
1977.000000	99.503416
1976.000000	99.489185
1975.000000	99.501954
1974.000000	99.540827
1973.000000	99.594778
1972.000000	99.651749
1971.000000	99.697932
1970.000000	99.716446
1969.000000	99.698514
1968.000000	99.659857
1967.000000	99.635559
1966.000000	99.647007
1965.000000	99.679566
1964.000000	99.701696
1963.000000	99.698327
1962.000000	99.679811
1961.000000	99.664762
1960.000000	99.660012
1959.000000	99.659281
1958.000000	99.657340
1957.000000	99.657570
1956.000000	99.664742
1955.000000	99.676489
1954.000000	99.685719
1953.000000	99.687473
1952.000000	99.678413
1951.000000	99.653587
1950.000000	99.612657
1949.000000	99.570678
1948.000000	99.551625
1947.000000	99.563652
1946.000000	99.587630
1945.000000	99.597510
1944.000000	99.587615
1943.000000	99.574281
1942.000000	99.574522
1941.000000	99.590783
1940.000000	99.615153
1939.000000	99.637710
1938.000000	99.649335
1937.000000	99.645787
1936.000000	99.632616
1935.000000	99.619924
1934.000000	99.611239
1933.000000	99.602342
1932.000000	99.590768
1931.000000	99.580179
1930.000000	99.573426
1929.000000	99.569593
1928.000000	99.569525
1927.000000	99.576956
1926.000000	99.592278
1925.000000	99.609228
1924.000000	99.620393
1923.000000	99.622670
1922.000000	99.618447
1921.000000	99.614594
1920.000000	99.618225
1919.000000	99.629053
1918.000000	99.634276
1917.000000	99.620651
1916.000000	99.596102
1915.000000	99.581489
1914.000000	99.586297
1913.000000	99.601723
1912.000000	99.613366
1911.000000	99.615993
1910.000000	99.612337
1909.000000	99.605316
1908.000000	99.599098
1907.000000	99.601510
1906.000000	99.617748
1905.000000	99.641846
1904.000000	99.659539
1903.000000	99.659969
1902.000000	99.643370
1901.000000	99.620078
1900.000000	99.601900
1899.000000	99.593202
1898.000000	99.591495
1897.000000	99.593968
1896.000000	99.601065
1895.000000	99.611957
1894.000000	99.620442
1893.000000	99.621420
1892.000000	99.618270
1891.000000	99.618344
1890.000000	99.622988
1889.000000	99.626095
1888.000000	99.624857
1887.000000	99.622089
1886.000000	99.618552
1885.000000	99.612662
1884.000000	99.605999
1883.000000	99.603500
1882.000000	99.606859
1881.000000	99.612495
1880.000000	99.615606
1879.000000	99.613420
1878.000000	99.606398
1877.000000	99.598936
1876.000000	99.598060
1875.000000	99.607416
1874.000000	99.622540
1873.000000	99.635240
1872.000000	99.642577
1871.000000	99.647446
1870.000000	99.651203
1869.000000	99.649680
1868.000000	99.642012
1867.000000	99.636128
1866.000000	99.634425
1865.000000	99.632066
1864.000000	99.627670
1863.000000	99.624442
1862.000000	99.623581
1861.000000	99.622859
1860.000000	99.622543
1859.000000	99.626194
1858.000000	99.633293
1857.000000	99.637612
1856.000000	99.635460
1855.000000	99.629316
1854.000000	99.623110
1853.000000	99.618730
1852.000000	99.616987
1851.000000	99.617124
1850.000000	99.617271
1849.000000	99.617259
1848.000000	99.620549
1847.000000	99.630309
1846.000000	99.644012
1845.000000	99.655073
1844.000000	99.659688
1843.000000	99.659519
1842.000000	99.655036
1841.000000	99.646243
1840.000000	99.637603
1839.000000	99.634441
1838.000000	99.635890
1837.000000	99.635387
1836.000000	99.631698
1835.000000	99.631422
1834.000000	99.638277
1833.000000	99.648032
1832.000000	99.655205
1831.000000	99.660190
1830.000000	99.665335
1829.000000	99.666722
1828.000000	99.661654
1827.000000	99.654080
1826.000000	99.648884
1825.000000	99.645414
1824.000000	99.639738
1823.000000	99.632868
1822.000000	99.627907
1821.000000	99.624595
1820.000000	99.621610
1819.000000	99.622090
1818.000000	99.630717
1817.000000	99.644908
1816.000000	99.656507
1815.000000	99.660332
1814.000000	99.655372
1813.000000	99.642211
1812.000000	99.624938
1811.000000	99.614789
1810.000000	99.619781
1809.000000	99.632889
1808.000000	99.642978
1807.000000	99.648100
1806.000000	99.650660
1805.000000	99.649060
1804.000000	99.641333
1803.000000	99.632530
1802.000000	99.631615
1801.000000	99.639852
1800.000000	99.648114
1799.000000	99.650561
1798.000000	99.648145
1797.000000	99.643679
1796.000000	99.640561
1795.000000	99.641314
1794.000000	99.645340
1793.000000	99.648809
1792.000000	99.648073
1791.000000	99.647052
1790.000000	99.649483
1789.000000	99.650674
1788.000000	99.646795
1787.000000	99.640424
1786.000000	99.637156
1785.000000	99.639772
1784.000000	99.646333
1783.000000	99.652450
1782.000000	99.655179
1781.000000	99.654936
1780.000000	99.652944
1779.000000	99.651221
1778.000000	99.651049
1777.000000	99.654454
1776.000000	99.665132
1775.000000	99.684251
1774.000000	99.708310
1773.000000	99.728454
1772.000000	99.730327
1771.000000	99.713266
1770.000000	99.693163
1769.000000	99.677588
1768.000000	99.665632
1767.000000	99.656537
1766.000000	99.649627
1765.000000	99.642518
1764.000000	99.633502
1763.000000	99.622375
1762.000000	99.608033
1761.000000	99.588182
1760.000000	99.562342
1759.000000	99.534135
1758.000000	99.505715
1757.000000	99.475587
1756.000000	99.440880
1755.000000	99.401397
1754.000000	99.358911
1753.000000	99.313280
1752.000000	99.262580
1751.000000	99.205248
1750.000000	99.142533
1749.000000	99.077717
1748.000000	99.014686
1747.000000	98.957001
1746.000000	98.905813
1745.000000	98.861128
1744.000000	98.826398
1743.000000	98.808667
1742.000000	98.809258
1741.000000	98.819465
1740.000000	98.829795
1739.000000	98.840818
1738.000000	98.859173
1737.000000	98.888874
1736.000000	98.936167
1735.000000	99.014096
1734.000000	99.112251
1733.000000	99.183698
1732.000000	99.218940
1731.000000	99.243253
1730.000000	99.271712
1729.000000	99.304662
1728.000000	99.335323
1727.000000	99.357491
1726.000000	99.372175
1725.000000	99.384860
1724.000000	99.397468
1723.000000	99.406364
1722.000000	99.406971
1721.000000	99.398513
1720.000000	99.384910
1719.000000	99.377102
1718.000000	99.386973
1717.000000	99.394044
1716.000000	99.373880
1715.000000	99.339839
1714.000000	99.308231
1713.000000	99.284433
1712.000000	99.268147
1711.000000	99.256524
1710.000000	99.248323
1709.000000	99.244807
1708.000000	99.246197
1707.000000	99.252149
1706.000000	99.262938
1705.000000	99.275155
1704.000000	99.286486
1703.000000	99.297993
1702.000000	99.310123
1701.000000	99.323743
1700.000000	99.341108
1699.000000	99.356754
1698.000000	99.357941
1697.000000	99.340094
1696.000000	99.312621
1695.000000	99.300683
1694.000000	99.304905
1693.000000	99.303797
1692.000000	99.292230
1691.000000	99.278045
1690.000000	99.269599
1689.000000	99.268498
1688.000000	99.269617
1687.000000	99.266505
1686.000000	99.252673
1685.000000	99.221978
1684.000000	99.179576
1683.000000	99.153480
1682.000000	99.147671
1681.000000	99.141381
1680.000000	99.131678
1679.000000	99.124116
1678.000000	99.116854
1677.000000	99.102596
1676.000000	99.080056
1675.000000	99.057870
1674.000000	99.041766
1673.000000	99.025820
1672.000000	99.004534
1671.000000	98.980044
1670.000000	98.953596
1669.000000	98.924335
1668.000000	98.896828
1667.000000	98.873287
1666.000000	98.852058
1665.000000	98.830680
1664.000000	98.807117
1663.000000	98.780269
1662.000000	98.748348
1661.000000	98.713614
1660.000000	98.681292
1659.000000	98.654511
1658.000000	98.633908
1657.000000	98.617661
1656.000000	98.603602
1655.000000	98.589171
1654.000000	98.571527
1653.000000	98.540841
1652.000000	98.521979
1651.000000	98.521753
1650.000000	98.523178
1649.000000	98.523607
1648.000000	98.526849
1647.000000	98.530851
1646.000000	98.528956
1645.000000	98.527244
1644.000000	98.526805
1643.000000	98.527530
1642.000000	98.530405
1641.000000	98.533763
1640.000000	98.535008
1639.000000	98.533562
1638.000000	98.530550
1637.000000	98.527801
1636.000000	98.527170
1635.000000	98.529366
1634.000000	98.535914
1633.000000	98.537890
1632.000000	98.534825
1631.000000	98.533019
1630.000000	98.535790
1629.000000	98.543511
1628.000000	98.556954
1627.000000	98.575790
1626.000000	98.598266
1625.000000	98.624554
1624.000000	98.656337
1623.000000	98.690994
1622.000000	98.721429
1621.000000	98.747782
1620.000000	98.773953
1619.000000	98.802842
1618.000000	98.837807
1617.000000	98.879688
1616.000000	98.922336
1615.000000	98.957463
1614.000000	98.982236
1613.000000	99.002207
1612.000000	99.025023
1611.000000	99.052451
1610.000000	99.079580
1609.000000	99.105704
1608.000000	99.136267
1607.000000	99.171023
1606.000000	99.201785
1605.000000	99.225022
1604.000000	99.244811
1603.000000	99.264991
1602.000000	99.285129
1601.000000	99.304186
1600.000000	99.321935
1599.000000	99.336354
1598.000000	99.346661
1597.000000	99.356622
1596.000000	99.369738
1595.000000	99.382085
1594.000000	99.385836
1593.000000	99.381401
1592.000000	99.376140
1591.000000	99.371520
1590.000000	99.361327
1589.000000	99.343590
1588.000000	99.323428
1587.000000	99.302273
1586.000000	99.274474
1585.000000	99.236974
1584.000000	99.193182
1583.000000	99.144432
1582.000000	99.089034
1581.000000	99.030223
1580.000000	98.976278
1579.000000	98.931137
1578.000000	98.894640
1577.000000	98.870061
1576.000000	98.861254
1575.000000	98.861388
1574.000000	98.860274
1573.000000	98.857001
1572.000000	98.856409
1571.000000	98.863785
1570.000000	98.877729
1569.000000	98.889927
1568.000000	98.896986
1567.000000	98.897407
1566.000000	98.890663
1565.000000	98.880908
1564.000000	98.873155
1563.000000	98.865286
1562.000000	98.850699
1561.000000	98.826506
1560.000000	98.807571
1559.000000	98.805469
1558.000000	98.768948
1557.000000	98.731797
1556.000000	98.697264
1555.000000	98.656688
1554.000000	98.613311
1553.000000	98.571447
1552.000000	98.527813
1551.000000	98.480017
1550.000000	98.432727
1549.000000	98.392997
1548.000000	98.358059
1547.000000	98.314632
1546.000000	98.253306
1545.000000	98.178049
1544.000000	98.103853
1543.000000	98.044045
1542.000000	98.001245
1541.000000	97.962619
1540.000000	97.909910
1539.000000	97.872243
1538.000000	97.883177
1537.000000	97.917633
1536.000000	97.958128
1535.000000	98.006553
1534.000000	98.069596
1533.000000	98.138939
1532.000000	98.198107
1531.000000	98.246420
1530.000000	98.286475
1529.000000	98.318394
1528.000000	98.344616
1527.000000	98.370887
1526.000000	98.399844
1525.000000	98.426603
1524.000000	98.447757
1523.000000	98.467407
1522.000000	98.484600
1521.000000	98.484508
1520.000000	98.471458
1519.000000	98.460676
1518.000000	98.453551
1517.000000	98.447781
1516.000000	98.446921
1515.000000	98.457865
1514.000000	98.476260
1513.000000	98.492610
1512.000000	98.503344
1511.000000	98.512264
1510.000000	98.523563
1509.000000	98.539657
1508.000000	98.565261
1507.000000	98.593000
1506.000000	98.612815
1505.000000	98.638518
1504.000000	98.651555
1503.000000	98.652572
1502.000000	98.650925
1501.000000	98.649419
1500.000000	98.648284
1499.000000	98.652157
1498.000000	98.667770
1497.000000	98.687517
1496.000000	98.695627
1495.000000	98.694267
1494.000000	98.691264
1493.000000	98.684814
1492.000000	98.672431
1491.000000	98.659856
1490.000000	98.654088
1489.000000	98.646121
1488.000000	98.630623
1487.000000	98.619551
1486.000000	98.617184
1485.000000	98.617249
1484.000000	98.613649
1483.000000	98.602427
1482.000000	98.583290
1481.000000	98.558133
1480.000000	98.531107
1479.000000	98.503734
1478.000000	98.471249
1477.000000	98.429420
1476.000000	98.383953
1475.000000	98.345853
1474.000000	98.308235
1473.000000	98.241635
1472.000000	98.135540
1471.000000	98.030284
1470.000000	97.949049
1469.000000	97.881673
1468.000000	97.820951
1467.000000	97.771325
1466.000000	97.740580
1465.000000	97.732086
1464.000000	97.740857
1463.000000	97.756203
1462.000000	97.767458
1461.000000	97.768940
1460.000000	97.762799
1459.000000	97.757084
1458.000000	97.758620
1457.000000	97.756416
1456.000000	97.744075
1455.000000	97.734567
1454.000000	97.730939
1453.000000	97.733040
1452.000000	97.740308
1451.000000	97.751164
1450.000000	97.762974
1449.000000	97.772258
1448.000000	97.775324
1447.000000	97.771142
1446.000000	97.761878
1445.000000	97.750080
1444.000000	97.738713
1443.000000	97.731876
1442.000000	97.730754
1441.000000	97.733136
1440.000000	97.736741
1439.000000	97.740122
1438.000000	97.742335
1437.000000	97.742171
1436.000000	97.741323
1435.000000	97.744463
1434.000000	97.753817
1433.000000	97.766970
1432.000000	97.781517
1431.000000	97.796476
1430.000000	97.813575
1429.000000	97.833962
1428.000000	97.854066
1427.000000	97.868170
1426.000000	97.873788
1425.000000	97.875580
1424.000000	97.879487
1423.000000	97.885950
1422.000000	97.890893
1421.000000	97.886522
1420.000000	97.865565
1419.000000	97.832258
1418.000000	97.807913
1417.000000	97.803790
1416.000000	97.810371
1415.000000	97.819273
1414.000000	97.829509
1413.000000	97.841644
1412.000000	97.853575
1411.000000	97.862040
1410.000000	97.867344
1409.000000	97.870777
1408.000000	97.870653
1407.000000	97.866622
1406.000000	97.864136
1405.000000	97.871323
1404.000000	97.887689
1403.000000	97.903347
1402.000000	97.910799
1401.000000	97.909947
1400.000000	97.905334
1399.000000	97.900010
1398.000000	97.894541
1397.000000	97.889226
1396.000000	97.884619
1395.000000	97.880727
1394.000000	97.878999
1393.000000	97.881802
1392.000000	97.886771
1391.000000	97.891950
1390.000000	97.897268
1389.000000	97.901798
1388.000000	97.903621
1387.000000	97.901391
1386.000000	97.896054
1385.000000	97.889585
1384.000000	97.882562
1383.000000	97.876154
1382.000000	97.871875
1381.000000	97.869134
1380.000000	97.867697
1379.000000	97.870357
1378.000000	97.880283
1377.000000	97.897308
1376.000000	97.918917
1375.000000	97.942929
1374.000000	97.968153
1373.000000	97.994875
1372.000000	98.022524
1371.000000	98.048056
1370.000000	98.069382
1369.000000	98.089343
1368.000000	98.110905
1367.000000	98.132105
1366.000000	98.148350
1365.000000	98.158185
1364.000000	98.166839
1363.000000	98.182940
1362.000000	98.209754
1361.000000	98.243511
1360.000000	98.276853
1359.000000	98.302636
1358.000000	98.318104
1357.000000	98.326907
1356.000000	98.335320
1355.000000	98.346102
1354.000000	98.357431
1353.000000	98.367180
1352.000000	98.376087
1351.000000	98.385492
1350.000000	98.393305
1349.000000	98.398104
1348.000000	98.401367
1347.000000	98.404857
1346.000000	98.408074
1345.000000	98.410255
1344.000000	98.411002
1343.000000	98.408407
1342.000000	98.399978
1341.000000	98.388183
1340.000000	98.381563
1339.000000	98.386224
1338.000000	98.399687
1337.000000	98.415488
1336.000000	98.429676
1335.000000	98.441766
1334.000000	98.451850
1333.000000	98.459950
1332.000000	98.467488
1331.000000	98.476520
1330.000000	98.487691
1329.000000	98.501109
1328.000000	98.517690
1327.000000	98.537251
1326.000000	98.556306
1325.000000	98.571211
1324.000000	98.580818
1323.000000	98.586331
1322.000000	98.589719
1321.000000	98.592367
1320.000000	98.593767
1319.000000	98.591751
1318.000000	98.586036
1317.000000	98.580573
1316.000000	98.580045
1315.000000	98.584871
1314.000000	98.591444
1313.000000	98.596523
1312.000000	98.599857
1311.000000	98.602536
1310.000000	98.605233
1309.000000	98.609013
1308.000000	98.615532
1307.000000	98.624785
1306.000000	98.633804
1305.000000	98.640491
1304.000000	98.645668
1303.000000	98.650567
1302.000000	98.653842
1301.000000	98.653389
1300.000000	98.650229
1299.000000	98.648369
1298.000000	98.650508
1297.000000	98.655424
1296.000000	98.660223
1295.000000	98.663462
1294.000000	98.665457
1293.000000	98.666433
1292.000000	98.665789
1291.000000	98.663146
1290.000000	98.658919
1289.000000	98.653470
1288.000000	98.646578
1287.000000	98.638574
1286.000000	98.631506
1285.000000	98.627585
1284.000000	98.626195
1283.000000	98.623846
1282.000000	98.617857
1281.000000	98.609616
1280.000000	98.603174
1279.000000	98.600642
1278.000000	98.600972
1277.000000	98.603160
1276.000000	98.608514
1275.000000	98.618010
1274.000000	98.628846
1273.000000	98.635522
1272.000000	98.634177
1271.000000	98.625366
1270.000000	98.613367
1269.000000	98.603572
1268.000000	98.599523
1267.000000	98.600259
1266.000000	98.600546
1265.000000	98.594922
1264.000000	98.582491
1263.000000	98.567417
1262.000000	98.554736
1261.000000	98.546571
1260.000000	98.542606
1259.000000	98.541820
1258.000000	98.542886
1257.000000	98.543955
1256.000000	98.543823
1255.000000	98.542854
1254.000000	98.541432
1253.000000	98.537917
1252.000000	98.529946
1251.000000	98.517894
1250.000000	98.505478
1249.000000	98.496108
1248.000000	98.489634
1247.000000	98.483377
1246.000000	98.475615
1245.000000	98.466587
1244.000000	98.456998
1243.000000	98.447419
1242.000000	98.439200
1241.000000	98.434208
1240.000000	98.432745
1239.000000	98.432301
1238.000000	98.429232
1237.000000	98.421919
1236.000000	98.412095
1235.000000	98.403236
1234.000000	98.397979
1233.000000	98.396975
1232.000000	98.399972
1231.000000	98.407102
1230.000000	98.418459
1229.000000	98.432716
1228.000000	98.447079
1227.000000	98.459363
1226.000000	98.469636
1225.000000	98.479559
1224.000000	98.490899
1223.000000	98.505183
1222.000000	98.524010
1221.000000	98.547911
1220.000000	98.574553
1219.000000	98.599251
1218.000000	98.618400
1217.000000	98.631972
1216.000000	98.642219
1215.000000	98.650875
1214.000000	98.658209
1213.000000	98.664131
1212.000000	98.668968
1211.000000	98.673195
1210.000000	98.676865
1209.000000	98.679124
1208.000000	98.678566
1207.000000	98.674319
1206.000000	98.666808
1205.000000	98.657426
1204.000000	98.648052
1203.000000	98.641278
1202.000000	98.639849
1201.000000	98.644105
1200.000000	98.650177
1199.000000	98.652763
1198.000000	98.650784
1197.000000	98.648755
1196.000000	98.651260
1195.000000	98.657173
1194.000000	98.661074
1193.000000	98.659944
1192.000000	98.656586
1191.000000	98.656444
1190.000000	98.662502
1189.000000	98.673729
1188.000000	98.686689
1187.000000	98.697429
1186.000000	98.703083
1185.000000	98.703433
1184.000000	98.700863
1183.000000	98.697936
1182.000000	98.695032
1181.000000	98.691031
1180.000000	98.686146
1179.000000	98.682380
1178.000000	98.680716
1177.000000	98.679419
1176.000000	98.676172
1175.000000	98.670979
1174.000000	98.666026
1173.000000	98.663613
1172.000000	98.665062
1171.000000	98.670760
1170.000000	98.679427
1169.000000	98.687605
1168.000000	98.691903
1167.000000	98.692633
1166.000000	98.694416
1165.000000	98.701998
1164.000000	98.715783
1163.000000	98.731752
1162.000000	98.745215
1161.000000	98.754366
1160.000000	98.761003
1159.000000	98.768669
1158.000000	98.780053
1157.000000	98.795319
1156.000000	98.812469
1155.000000	98.829012
1154.000000	98.843152
1153.000000	98.853856
1152.000000	98.860933
1151.000000	98.865749
1150.000000	98.871186
1149.000000	98.879878
1148.000000	98.892309
1147.000000	98.906711
1146.000000	98.920267
1145.000000	98.930570
1144.000000	98.937245
1143.000000	98.943199
1142.000000	98.953424
1141.000000	98.971419
1140.000000	98.996787
1139.000000	99.026504
1138.000000	99.057387
1137.000000	99.086537
1136.000000	99.111137
1135.000000	99.130357
1134.000000	99.147068
1133.000000	99.165017
1132.000000	99.183964
1131.000000	99.199718
1130.000000	99.209498
1129.000000	99.215321
1128.000000	99.221068
1127.000000	99.228306
1126.000000	99.236182
1125.000000	99.243592
1124.000000	99.249829
1123.000000	99.253815
1122.000000	99.254416
1121.000000	99.251387
1120.000000	99.245277
1119.000000	99.236905
1118.000000	99.227290
1117.000000	99.217702
1116.000000	99.209286
1115.000000	99.202940
1114.000000	99.199518
1113.000000	99.199583
1112.000000	99.202736
1111.000000	99.207565
1110.000000	99.212482
1109.000000	99.216385
1108.000000	99.218435
1107.000000	99.218383
1106.000000	99.216904
1105.000000	99.215154
1104.000000	99.214147
1103.000000	99.214818
1102.000000	99.217647
1101.000000	99.221486
1100.000000	99.222758
1099.000000	99.219915
1098.000000	99.215223
1097.000000	99.212355
1096.000000	99.211644
1095.000000	99.209845
1094.000000	99.204740
1093.000000	99.197893
1092.000000	99.192100
1091.000000	99.187923
1090.000000	99.183764
1089.000000	99.178397
1088.000000	99.172370
1087.000000	99.167064
1086.000000	99.162769
1085.000000	99.157791
1084.000000	99.150145
1083.000000	99.140603
1082.000000	99.132904
1081.000000	99.129637
1080.000000	99.128909
1079.000000	99.127080
1078.000000	99.124240
1077.000000	99.124454
1076.000000	99.130296
1075.000000	99.139695
1074.000000	99.149111
1073.000000	99.157887
1072.000000	99.167908
1071.000000	99.179975
1070.000000	99.191763
1069.000000	99.198998
1068.000000	99.198400
1067.000000	99.190718
1066.000000	99.181755
1065.000000	99.179111
1064.000000	99.186402
1063.000000	99.200534
1062.000000	99.214223
1061.000000	99.220977
1060.000000	99.218474
1059.000000	99.209512
1058.000000	99.200362
1057.000000	99.196500
1056.000000	99.198640
1055.000000	99.203422
1054.000000	99.207632
1053.000000	99.210108
1052.000000	99.209581
1051.000000	99.204059
1050.000000	99.194901
1049.000000	99.188919
1048.000000	99.192411
1047.000000	99.203296
1046.000000	99.212192
1045.000000	99.212166
1044.000000	99.205391
1043.000000	99.199731
1042.000000	99.200358
1041.000000	99.205529
1040.000000	99.209653
1039.000000	99.208700
1038.000000	99.202823
1037.000000	99.195148
1036.000000	99.188862
1035.000000	99.184906
1034.000000	99.181310
1033.000000	99.174786
1032.000000	99.163971
1031.000000	99.151779
1030.000000	99.143853
1029.000000	99.144122
1028.000000	99.151664
1027.000000	99.161649
1026.000000	99.168688
1025.000000	99.169482
1024.000000	99.163720
1023.000000	99.153683
1022.000000	99.142708
1021.000000	99.133209
1020.000000	99.126256
1019.000000	99.122745
1018.000000	99.123332
1017.000000	99.126344
1016.000000	99.127786
1015.000000	99.125518
1014.000000	99.123163
1013.000000	99.127626
1012.000000	99.142315
1011.000000	99.163864
1010.000000	99.185096
1009.000000	99.199869
1008.000000	99.205660
1007.000000	99.204351
1006.000000	99.202165
1005.000000	99.206652
1004.000000	99.220928
1003.000000	99.240299
1002.000000	99.255861
1001.000000	99.262257
1000.000000	99.262015
999.000000	99.262564
998.000000	99.269331
997.000000	99.281834
996.000000	99.295643
995.000000	99.306956
994.000000	99.314736
993.000000	99.319632
992.000000	99.322898
991.000000	99.326591
990.000000	99.332521
989.000000	99.339708
988.000000	99.344609
987.000000	99.345463
986.000000	99.344786
985.000000	99.345592
984.000000	99.346648
983.000000	99.344474
982.000000	99.338859
981.000000	99.333204
980.000000	99.329786
979.000000	99.328145
978.000000	99.328478
977.000000	99.332715
976.000000	99.340604
975.000000	99.347573
974.000000	99.349134
973.000000	99.346050
972.000000	99.343366
971.000000	99.345462
970.000000	99.352930
969.000000	99.363028
968.000000	99.372055
967.000000	99.378521
966.000000	99.385163
965.000000	99.396391
964.000000	99.412612
963.000000	99.428453
962.000000	99.437703
961.000000	99.438841
960.000000	99.434919
959.000000	99.430111
958.000000	99.428193
957.000000	99.432391
956.000000	99.443830
955.000000	99.459940
954.000000	99.475832
953.000000	99.487509
952.000000	99.493938
951.000000	99.497338
950.000000	99.501803
949.000000	99.509755
948.000000	99.518637
947.000000	99.522825
946.000000	99.519820
945.000000	99.512387
944.000000	99.503878
943.000000	99.494765
942.000000	99.486056
941.000000	99.482675
940.000000	99.488927
939.000000	99.502152
938.000000	99.514779
937.000000	99.522512
936.000000	99.526782
935.000000	99.529709
934.000000	99.531301
933.000000	99.532654
932.000000	99.537682
931.000000	99.548996
930.000000	99.564156
929.000000	99.577821
928.000000	99.586403
927.000000	99.589877
926.000000	99.590913
925.000000	99.593466
924.000000	99.600165
923.000000	99.609204
922.000000	99.614860
921.000000	99.612455
920.000000	99.602056
919.000000	99.587371
918.000000	99.572935
917.000000	99.563187
916.000000	99.561665
915.000000	99.568253
914.000000	99.578016
913.000000	99.585199
912.000000	99.588386
911.000000	99.590206
910.000000	99.592922
909.000000	99.596365
908.000000	99.600379
907.000000	99.606916
906.000000	99.618199
905.000000	99.633290
904.000000	99.647283
903.000000	99.654535
902.000000	99.653632
901.000000	99.649718
900.000000	99.650949
899.000000	99.661196
898.000000	99.676222
897.000000	99.688203
896.000000	99.692956
895.000000	99.692135
894.000000	99.689928
893.000000	99.690067
892.000000	99.695126
891.000000	99.704991
890.000000	99.714720
889.000000	99.716902
888.000000	99.708221
887.000000	99.691992
886.000000	99.673039
885.000000	99.651797
884.000000	99.625436
883.000000	99.592506
882.000000	99.552524
881.000000	99.502153
880.000000	99.435752
879.000000	99.351219
878.000000	99.252707
877.000000	99.146086
876.000000	99.034397
875.000000	98.920112
874.000000	98.812366
873.000000	98.730382
872.000000	98.698496
871.000000	98.731961
870.000000	98.822693
869.000000	98.940765
868.000000	99.053773
867.000000	99.147440
866.000000	99.227413
865.000000	99.302831
864.000000	99.371770
863.000000	99.423517
862.000000	99.451585
861.000000	99.461522
860.000000	99.465774
859.000000	99.473084
858.000000	99.483712
857.000000	99.493677
856.000000	99.502542
855.000000	99.514837
854.000000	99.532829
853.000000	99.550366
852.000000	99.557699
851.000000	99.552895
850.000000	99.544741
849.000000	99.543338
848.000000	99.551144
847.000000	99.564658
846.000000	99.580771
845.000000	99.597281
844.000000	99.609931
843.000000	99.614404
842.000000	99.611671
841.000000	99.607708
840.000000	99.607196
839.000000	99.610044
838.000000	99.614124
837.000000	99.618265
836.000000	99.621460
835.000000	99.621984
834.000000	99.619518
833.000000	99.616941
832.000000	99.617753
831.000000	99.621762
830.000000	99.624626
829.000000	99.622443
828.000000	99.616890
827.000000	99.614808
826.000000	99.621366
825.000000	99.633650
824.000000	99.643300
823.000000	99.646730
822.000000	99.649800
821.000000	99.659237
820.000000	99.671656
819.000000	99.675321
818.000000	99.663521
817.000000	99.643359
816.000000	99.630120
815.000000	99.634162
814.000000	99.653178
813.000000	99.675170
812.000000	99.687621
811.000000	99.685160
810.000000	99.671385
809.000000	99.654384
808.000000	99.639890
807.000000	99.628525
806.000000	99.619318
805.000000	99.615023
804.000000	99.622048
803.000000	99.643233
802.000000	99.671100
801.000000	99.690933
800.000000	99.692892
799.000000	99.680326
798.000000	99.664426
797.000000	99.652409
796.000000	99.644421
795.000000	99.640945
794.000000	99.646716
793.000000	99.663301
792.000000	99.682031
791.000000	99.690294
790.000000	99.684775
789.000000	99.674251
788.000000	99.668599
787.000000	99.668629
786.000000	99.667831
785.000000	99.661512
784.000000	99.651824
783.000000	99.644612
782.000000	99.643469
781.000000	99.647178
780.000000	99.652390
779.000000	99.658214
778.000000	99.667285
777.000000	99.681869
776.000000	99.699692
775.000000	99.714319
774.000000	99.719577
773.000000	99.713907
772.000000	99.701808
771.000000	99.691207
770.000000	99.687051
769.000000	99.686026
768.000000	99.679886
767.000000	99.666362
766.000000	99.654171
765.000000	99.653496
764.000000	99.662991
763.000000	99.670829
762.000000	99.668747
761.000000	99.660769
760.000000	99.656531
759.000000	99.659328
758.000000	99.663012
757.000000	99.658884
756.000000	99.644315
755.000000	99.626351
754.000000	99.617428
753.000000	99.624868
752.000000	99.642474
751.000000	99.654373
750.000000	99.649249
749.000000	99.630164
748.000000	99.609597
747.000000	99.596632
746.000000	99.590350
745.000000	99.584145
744.000000	99.574593
743.000000	99.565882
742.000000	99.565951
741.000000	99.578006
740.000000	99.596297
739.000000	99.611332
738.000000	99.618085
737.000000	99.616698
736.000000	99.607026
735.000000	99.587792
734.000000	99.562187
733.000000	99.538589
732.000000	99.522008
731.000000	99.508277
730.000000	99.490319
729.000000	99.467358
728.000000	99.443999
727.000000	99.423641
726.000000	99.407743
725.000000	99.398593
724.000000	99.396801
723.000000	99.397555
722.000000	99.394956
721.000000	99.389670
720.000000	99.387405
719.000000	99.390288
718.000000	99.394773
717.000000	99.397013
716.000000	99.394463
715.000000	99.383371
714.000000	99.362730
713.000000	99.341859
712.000000	99.335963
711.000000	99.350087
710.000000	99.373553
709.000000	99.393167
708.000000	99.404933
707.000000	99.409906
706.000000	99.407563
705.000000	99.400483
704.000000	99.399108
703.000000	99.412662
702.000000	99.437427
701.000000	99.461005
700.000000	99.475522
699.000000	99.479315
698.000000	99.470609
697.000000	99.450016
696.000000	99.428331
695.000000	99.420691
694.000000	99.429957
693.000000	99.444574
692.000000	99.455867
691.000000	99.467694
690.000000	99.484569
689.000000	99.498962
688.000000	99.498862
687.000000	99.484999
686.000000	99.470904
685.000000	99.468195
684.000000	99.478239
683.000000	99.495041
682.000000	99.511347
681.000000	99.522302
680.000000	99.526384
679.000000	99.522070
678.000000	99.505087
677.000000	99.476409
676.000000	99.450356
675.000000	99.446018
674.000000	99.465628
673.000000	99.489638
672.000000	99.499154
671.000000	99.494585
670.000000	99.484947
669.000000	99.468228
668.000000	99.441552
667.000000	99.420968
666.000000	99.412354
665.000000	99.415832
664.000000	99.427229
663.000000	99.439390
662.000000	99.448870
661.000000	99.456174
660.000000	99.461862
659.000000	99.465681
658.000000	99.468678
657.000000	99.473297
656.000000	99.479410
655.000000	99.483500
654.000000	99.480578
653.000000	99.467681
652.000000	99.448448
651.000000	99.435496
650.000000	99.442242
649.000000	99.467320
648.000000	99.491041
647.000000	99.492094
646.000000	99.467874
645.000000	99.435830
644.000000	99.417059
643.000000	99.420855
642.000000	99.440162
641.000000	99.458864
640.000000	99.465285
639.000000	99.461449
638.000000	99.458217
637.000000	99.461234
636.000000	99.465192
635.000000	99.464035
634.000000	99.460861
633.000000	99.461340
632.000000	99.462494
631.000000	99.456381
630.000000	99.442907
629.000000	99.430918
628.000000	99.425881
627.000000	99.423628
626.000000	99.418759
625.000000	99.413751
624.000000	99.415753
623.000000	99.425892
622.000000	99.436548
621.000000	99.439432
620.000000	99.433294
619.000000	99.423829
618.000000	99.417185
617.000000	99.414394
616.000000	99.412749
615.000000	99.411013
614.000000	99.409783
613.000000	99.407614
612.000000	99.400454
611.000000	99.386875
610.000000	99.370827
609.000000	99.358022
608.000000	99.352280
607.000000	99.355469
606.000000	99.367981
605.000000	99.386583
604.000000	99.405774
603.000000	99.423281
602.000000	99.442450
601.000000	99.466734
600.000000	99.494304
599.000000	99.518474
598.000000	99.533457
597.000000	99.537010
596.000000	99.529433
595.000000	99.513889
594.000000	99.495978
593.000000	99.479373
592.000000	99.462156
591.000000	99.441404
590.000000	99.420487
589.000000	99.408515
588.000000	99.411881
587.000000	99.428795
586.000000	99.450429
585.000000	99.465116
584.000000	99.465650
583.000000	99.454496
582.000000	99.442416
581.000000	99.439230
580.000000	99.446679
579.000000	99.458649
578.000000	99.467085
577.000000	99.465383
576.000000	99.450980
575.000000	99.432221
574.000000	99.424838
573.000000	99.432730
572.000000	99.439566
571.000000	99.428487
570.000000	99.406867
569.000000	99.401111
568.000000	99.422838
567.000000	99.455064
566.000000	99.476637
565.000000	99.486845
564.000000	99.497640
563.000000	99.510836
562.000000	99.515896
561.000000	99.505351
560.000000	99.483933
559.000000	99.461962
558.000000	99.446047
557.000000	99.436365
556.000000	99.430176
555.000000	99.425847
554.000000	99.421423
553.000000	99.413889
552.000000	99.406756
551.000000	99.416503
550.000000	99.459445
549.000000	99.527844
548.000000	99.588672
547.000000	99.614016
546.000000	99.606943
545.000000	99.588705
544.000000	99.567351
543.000000	99.536720
542.000000	99.501639
541.000000	99.482298
540.000000	99.489130
539.000000	99.509693
538.000000	99.525523
537.000000	99.528214
536.000000	99.516132
535.000000	99.488960
534.000000	99.456591
533.000000	99.437308
532.000000	99.439666
531.000000	99.452762
530.000000	99.460443
529.000000	99.457761
528.000000	99.447460
527.000000	99.427916
526.000000	99.399689
525.000000	99.380125
524.000000	99.390200
523.000000	99.429709
522.000000	99.475895
521.000000	99.500893
520.000000	99.489991
519.000000	99.452884
518.000000	99.422965
517.000000	99.433938
516.000000	99.485832
515.000000	99.541820
514.000000	99.561159
513.000000	99.529392
512.000000	99.462009
511.000000	99.391348
510.000000	99.351833
509.000000	99.364463
508.000000	99.424197
507.000000	99.490808
506.000000	99.511217
505.000000	99.470555
504.000000	99.404859
503.000000	99.365812
502.000000	99.376972
501.000000	99.418809
500.000000	99.460875
499.000000	99.491629
498.000000	99.512587
497.000000	99.524740
496.000000	99.528334
495.000000	99.527737
494.000000	99.525924
493.000000	99.519938
492.000000	99.510300
491.000000	99.505646
490.000000	99.510529
489.000000	99.510149
488.000000	99.482908
487.000000	99.430662
486.000000	99.389930
485.000000	99.403203
484.000000	99.472454
483.000000	99.549833
482.000000	99.583243
481.000000	99.562365
480.000000	99.513024
479.000000	99.462582
478.000000	99.428309
477.000000	99.422851
476.000000	99.448770
475.000000	99.490452
474.000000	99.527394
473.000000	99.552996
472.000000	99.574510
471.000000	99.585993
470.000000	99.565898
469.000000	99.511459
468.000000	99.464571
467.000000	99.486573
466.000000	99.588678
465.000000	99.703394
464.000000	99.751909
463.000000	99.720120
462.000000	99.665064
461.000000	99.647860
460.000000	99.666539
459.000000	99.677162
458.000000	99.661299
457.000000	99.651937
456.000000	99.678601
455.000000	99.719928
454.000000	99.738065
453.000000	99.718935
452.000000	99.683631
451.000000	99.669943
450.000000	99.693369
