PE IR       SUBTECH     SPECTRUM    ASCII       PEDS        4.00        
   -1
Trigon_dark-F002_1.ASC
23/09/08
15:02:09.00
23/09/08
15:20:53.00
uco
Sample 002 By uco Date Friday, September 08 2023
450.000000
#HDR
-1
-1
#GR
cm-1
%T
1.0
0.0
4000.000000
-1.000000
3551
8
99.581761
94.883571
#DATA
4000.000000	99.487662
3999.000000	99.487184
3998.000000	99.488525
3997.000000	99.492143
3996.000000	99.496686
3995.000000	99.499514
3994.000000	99.498277
3993.000000	99.492614
3992.000000	99.484398
3991.000000	99.476363
3990.000000	99.470484
3989.000000	99.467355
3988.000000	99.466517
3987.000000	99.467044
3986.000000	99.468029
3985.000000	99.469039
3984.000000	99.470254
3983.000000	99.471953
3982.000000	99.473664
3981.000000	99.474046
3980.000000	99.471902
3979.000000	99.467425
3978.000000	99.462260
3977.000000	99.458505
3976.000000	99.457728
3975.000000	99.460315
3974.000000	99.465196
3973.000000	99.469945
3972.000000	99.471907
3971.000000	99.469924
3970.000000	99.465149
3969.000000	99.460354
3968.000000	99.457886
3967.000000	99.458143
3966.000000	99.459515
3965.000000	99.459508
3964.000000	99.456476
3963.000000	99.450954
3962.000000	99.445569
3961.000000	99.443078
3960.000000	99.444219
3959.000000	99.447232
3958.000000	99.449229
3957.000000	99.448373
3956.000000	99.444889
3955.000000	99.440555
3954.000000	99.437234
3953.000000	99.435651
3952.000000	99.435509
3951.000000	99.436263
3950.000000	99.438002
3949.000000	99.441312
3948.000000	99.446170
3947.000000	99.451222
3946.000000	99.454291
3945.000000	99.454093
3944.000000	99.451606
3943.000000	99.449379
3942.000000	99.449413
3941.000000	99.451015
3940.000000	99.451754
3939.000000	99.450325
3938.000000	99.447376
3937.000000	99.444755
3936.000000	99.443802
3935.000000	99.444844
3934.000000	99.447738
3933.000000	99.451562
3932.000000	99.454603
3931.000000	99.454920
3930.000000	99.452337
3929.000000	99.448563
3928.000000	99.444272
3927.000000	99.438741
3926.000000	99.431749
3925.000000	99.425250
3924.000000	99.422264
3923.000000	99.424322
3922.000000	99.430934
3921.000000	99.440923
3920.000000	99.452155
3919.000000	99.460877
3918.000000	99.463118
3917.000000	99.458319
3916.000000	99.450566
3915.000000	99.444230
3914.000000	99.440156
3913.000000	99.436594
3912.000000	99.432590
3911.000000	99.429626
3910.000000	99.429719
3909.000000	99.433253
3908.000000	99.438488
3907.000000	99.443948
3906.000000	99.450932
3905.000000	99.462847
3904.000000	99.479818
3903.000000	99.494430
3902.000000	99.497033
3901.000000	99.486071
3900.000000	99.469039
3899.000000	99.454809
3898.000000	99.446531
3897.000000	99.441952
3896.000000	99.438886
3895.000000	99.437246
3894.000000	99.436812
3893.000000	99.437413
3892.000000	99.440448
3891.000000	99.448053
3890.000000	99.458486
3889.000000	99.465949
3888.000000	99.465775
3887.000000	99.458753
3886.000000	99.451535
3885.000000	99.450545
3884.000000	99.453501
3883.000000	99.452867
3882.000000	99.444870
3881.000000	99.434237
3880.000000	99.429932
3879.000000	99.434047
3878.000000	99.439103
3877.000000	99.437799
3876.000000	99.429524
3875.000000	99.421145
3874.000000	99.421572
3873.000000	99.431516
3872.000000	99.442453
3871.000000	99.446778
3870.000000	99.445538
3869.000000	99.444509
3868.000000	99.444625
3867.000000	99.443364
3866.000000	99.441459
3865.000000	99.441909
3864.000000	99.444819
3863.000000	99.446777
3862.000000	99.445523
3861.000000	99.442780
3860.000000	99.440515
3859.000000	99.439904
3858.000000	99.440968
3857.000000	99.442877
3856.000000	99.443572
3855.000000	99.440929
3854.000000	99.439094
3853.000000	99.443073
3852.000000	99.446488
3851.000000	99.444480
3850.000000	99.440040
3849.000000	99.436134
3848.000000	99.433022
3847.000000	99.429341
3846.000000	99.424013
3845.000000	99.417589
3844.000000	99.412850
3843.000000	99.413186
3842.000000	99.419246
3841.000000	99.429261
3840.000000	99.441577
3839.000000	99.455807
3838.000000	99.469623
3837.000000	99.478434
3836.000000	99.480119
3835.000000	99.476392
3834.000000	99.469962
3833.000000	99.462057
3832.000000	99.452169
3831.000000	99.440095
3830.000000	99.426730
3829.000000	99.413526
3828.000000	99.402239
3827.000000	99.396252
3826.000000	99.398451
3825.000000	99.407380
3824.000000	99.417432
3823.000000	99.422875
3822.000000	99.424097
3821.000000	99.427188
3820.000000	99.432871
3819.000000	99.433511
3818.000000	99.423261
3817.000000	99.405392
3816.000000	99.389420
3815.000000	99.382670
3814.000000	99.383055
3813.000000	99.385353
3812.000000	99.388827
3811.000000	99.395300
3810.000000	99.404561
3809.000000	99.413270
3808.000000	99.419110
3807.000000	99.423565
3806.000000	99.428738
3805.000000	99.433034
3804.000000	99.432873
3803.000000	99.427365
3802.000000	99.420079
3801.000000	99.414965
3800.000000	99.411165
3799.000000	99.403533
3798.000000	99.390562
3797.000000	99.376735
3796.000000	99.368152
3795.000000	99.365209
3794.000000	99.363173
3793.000000	99.359066
3792.000000	99.354750
3791.000000	99.353651
3790.000000	99.357047
3789.000000	99.362773
3788.000000	99.366654
3787.000000	99.365609
3786.000000	99.360112
3785.000000	99.354080
3784.000000	99.351361
3783.000000	99.352414
3782.000000	99.354681
3781.000000	99.356594
3780.000000	99.359675
3779.000000	99.366144
3778.000000	99.374411
3777.000000	99.379650
3776.000000	99.379070
3775.000000	99.374576
3774.000000	99.370398
3773.000000	99.368810
3772.000000	99.369313
3771.000000	99.371295
3770.000000	99.375413
3769.000000	99.381986
3768.000000	99.388365
3767.000000	99.390913
3766.000000	99.388447
3765.000000	99.382866
3764.000000	99.376868
3763.000000	99.371568
3762.000000	99.366467
3761.000000	99.361607
3760.000000	99.357444
3759.000000	99.354967
3758.000000	99.356110
3757.000000	99.362753
3756.000000	99.374573
3755.000000	99.389193
3754.000000	99.406422
3753.000000	99.430410
3752.000000	99.463595
3751.000000	99.497284
3750.000000	99.516577
3749.000000	99.519361
3748.000000	99.514292
3747.000000	99.505731
3746.000000	99.492893
3745.000000	99.476204
3744.000000	99.459870
3743.000000	99.443876
3742.000000	99.427058
3741.000000	99.414741
3740.000000	99.412938
3739.000000	99.422538
3738.000000	99.437366
3737.000000	99.447968
3736.000000	99.448608
3735.000000	99.440805
3734.000000	99.431703
3733.000000	99.424433
3732.000000	99.416311
3731.000000	99.406203
3730.000000	99.396934
3729.000000	99.392241
3728.000000	99.393303
3727.000000	99.397228
3726.000000	99.398278
3725.000000	99.392433
3724.000000	99.381856
3723.000000	99.372494
3722.000000	99.368479
3721.000000	99.368801
3720.000000	99.369153
3719.000000	99.367764
3718.000000	99.367575
3717.000000	99.372473
3716.000000	99.382354
3715.000000	99.392341
3714.000000	99.397087
3713.000000	99.394433
3712.000000	99.386232
3711.000000	99.377175
3710.000000	99.371621
3709.000000	99.371089
3708.000000	99.373011
3707.000000	99.374140
3706.000000	99.373540
3705.000000	99.371560
3704.000000	99.368895
3703.000000	99.367030
3702.000000	99.367425
3701.000000	99.370037
3700.000000	99.372042
3699.000000	99.370253
3698.000000	99.364638
3697.000000	99.358311
3696.000000	99.354946
3695.000000	99.356084
3694.000000	99.361255
3693.000000	99.369131
3692.000000	99.377991
3691.000000	99.385066
3690.000000	99.386674
3689.000000	99.381112
3688.000000	99.372084
3687.000000	99.364769
3686.000000	99.359746
3685.000000	99.355574
3684.000000	99.352153
3683.000000	99.350279
3682.000000	99.349721
3681.000000	99.350634
3680.000000	99.354784
3679.000000	99.361782
3678.000000	99.366968
3677.000000	99.366039
3676.000000	99.363217
3675.000000	99.368808
3674.000000	99.383335
3673.000000	99.395602
3672.000000	99.399705
3671.000000	99.397501
3670.000000	99.392513
3669.000000	99.387133
3668.000000	99.381941
3667.000000	99.376686
3666.000000	99.372330
3665.000000	99.369293
3664.000000	99.366481
3663.000000	99.362592
3662.000000	99.357991
3661.000000	99.354406
3660.000000	99.353060
3659.000000	99.353267
3658.000000	99.353587
3657.000000	99.353928
3656.000000	99.356071
3655.000000	99.360596
3654.000000	99.366170
3653.000000	99.371484
3652.000000	99.377932
3651.000000	99.390789
3650.000000	99.411808
3649.000000	99.426813
3648.000000	99.420229
3647.000000	99.399129
3646.000000	99.378027
3645.000000	99.361983
3644.000000	99.349918
3643.000000	99.341179
3642.000000	99.336476
3641.000000	99.336256
3640.000000	99.339033
3639.000000	99.342035
3638.000000	99.343741
3637.000000	99.343886
3636.000000	99.343100
3635.000000	99.343682
3634.000000	99.349529
3633.000000	99.362629
3632.000000	99.379713
3631.000000	99.392996
3630.000000	99.395499
3629.000000	99.387925
3628.000000	99.377830
3627.000000	99.370122
3626.000000	99.364388
3625.000000	99.360895
3624.000000	99.360080
3623.000000	99.361015
3622.000000	99.362179
3621.000000	99.363259
3620.000000	99.365687
3619.000000	99.370988
3618.000000	99.378107
3617.000000	99.384202
3616.000000	99.387590
3615.000000	99.388225
3614.000000	99.387098
3613.000000	99.386154
3612.000000	99.387266
3611.000000	99.389629
3610.000000	99.390223
3609.000000	99.385834
3608.000000	99.375728
3607.000000	99.362963
3606.000000	99.351002
3605.000000	99.340948
3604.000000	99.332310
3603.000000	99.325625
3602.000000	99.322879
3601.000000	99.324741
3600.000000	99.328219
3599.000000	99.328557
3598.000000	99.323809
3597.000000	99.315793
3596.000000	99.308530
3595.000000	99.305577
3594.000000	99.309287
3593.000000	99.319437
3592.000000	99.333065
3591.000000	99.344783
3590.000000	99.348879
3589.000000	99.342703
3588.000000	99.330217
3587.000000	99.319083
3586.000000	99.313418
3585.000000	99.311211
3584.000000	99.309013
3583.000000	99.305599
3582.000000	99.301570
3581.000000	99.297770
3580.000000	99.295112
3579.000000	99.293645
3578.000000	99.292482
3577.000000	99.290637
3576.000000	99.288543
3575.000000	99.287821
3574.000000	99.289410
3573.000000	99.292568
3572.000000	99.295283
3571.000000	99.295135
3570.000000	99.289711
3569.000000	99.278535
3568.000000	99.265003
3567.000000	99.254285
3566.000000	99.248678
3565.000000	99.247427
3564.000000	99.248838
3563.000000	99.252018
3562.000000	99.256460
3561.000000	99.260736
3560.000000	99.262600
3559.000000	99.261108
3558.000000	99.257292
3557.000000	99.252903
3556.000000	99.248585
3555.000000	99.243807
3554.000000	99.238345
3553.000000	99.233821
3552.000000	99.232846
3551.000000	99.236224
3550.000000	99.241629
3549.000000	99.245610
3548.000000	99.246577
3547.000000	99.245577
3546.000000	99.244544
3545.000000	99.244123
3544.000000	99.243600
3543.000000	99.242024
3542.000000	99.239075
3541.000000	99.235098
3540.000000	99.230603
3539.000000	99.226258
3538.000000	99.223039
3537.000000	99.222028
3536.000000	99.223822
3535.000000	99.227924
3534.000000	99.233263
3533.000000	99.238662
3532.000000	99.243184
3531.000000	99.246053
3530.000000	99.246919
3529.000000	99.246151
3528.000000	99.244573
3527.000000	99.242771
3526.000000	99.240938
3525.000000	99.239026
3524.000000	99.236797
3523.000000	99.233857
3522.000000	99.230026
3521.000000	99.225764
3520.000000	99.222124
3519.000000	99.220172
3518.000000	99.220133
3517.000000	99.220608
3516.000000	99.219579
3515.000000	99.216103
3514.000000	99.211320
3513.000000	99.207252
3512.000000	99.205218
3511.000000	99.205750
3510.000000	99.209778
3509.000000	99.218242
3508.000000	99.229901
3507.000000	99.240702
3506.000000	99.246565
3505.000000	99.246797
3504.000000	99.244119
3503.000000	99.241390
3502.000000	99.239088
3501.000000	99.236159
3500.000000	99.232163
3499.000000	99.227790
3498.000000	99.224013
3497.000000	99.221218
3496.000000	99.219355
3495.000000	99.218437
3494.000000	99.218690
3493.000000	99.220209
3492.000000	99.222616
3491.000000	99.225198
3490.000000	99.227580
3489.000000	99.230123
3488.000000	99.233490
3487.000000	99.237622
3486.000000	99.241239
3485.000000	99.242589
3484.000000	99.241031
3483.000000	99.237929
3482.000000	99.236072
3481.000000	99.237727
3480.000000	99.242913
3479.000000	99.249535
3478.000000	99.254952
3477.000000	99.257368
3476.000000	99.256075
3475.000000	99.251363
3474.000000	99.244639
3473.000000	99.238234
3472.000000	99.234394
3471.000000	99.233967
3470.000000	99.235883
3469.000000	99.237827
3468.000000	99.237471
3467.000000	99.233755
3466.000000	99.227493
3465.000000	99.220884
3464.000000	99.216298
3463.000000	99.215166
3462.000000	99.217712
3461.000000	99.223004
3460.000000	99.228992
3459.000000	99.232996
3458.000000	99.233246
3457.000000	99.230498
3456.000000	99.227649
3455.000000	99.226952
3454.000000	99.228151
3453.000000	99.229291
3452.000000	99.228830
3451.000000	99.226016
3450.000000	99.220251
3449.000000	99.211614
3448.000000	99.202122
3447.000000	99.195278
3446.000000	99.193770
3445.000000	99.197913
3444.000000	99.206099
3443.000000	99.215550
3442.000000	99.222672
3441.000000	99.224547
3440.000000	99.220923
3439.000000	99.214233
3438.000000	99.207545
3437.000000	99.202701
3436.000000	99.199980
3435.000000	99.198255
3434.000000	99.195810
3433.000000	99.191854
3432.000000	99.187784
3431.000000	99.185951
3430.000000	99.187236
3429.000000	99.190620
3428.000000	99.194754
3427.000000	99.198686
3426.000000	99.200825
3425.000000	99.198913
3424.000000	99.192007
3423.000000	99.181917
3422.000000	99.172053
3421.000000	99.165117
3420.000000	99.161871
3419.000000	99.161021
3418.000000	99.159781
3417.000000	99.155556
3416.000000	99.148482
3415.000000	99.142124
3414.000000	99.140613
3413.000000	99.144694
3412.000000	99.150954
3411.000000	99.154768
3410.000000	99.153612
3409.000000	99.148087
3408.000000	99.140816
3407.000000	99.134739
3406.000000	99.131600
3405.000000	99.131282
3404.000000	99.132363
3403.000000	99.133140
3402.000000	99.132103
3401.000000	99.127946
3400.000000	99.120489
3399.000000	99.111885
3398.000000	99.105943
3397.000000	99.105113
3396.000000	99.108254
3395.000000	99.111885
3394.000000	99.113207
3393.000000	99.111579
3392.000000	99.107912
3391.000000	99.103750
3390.000000	99.100708
3389.000000	99.099767
3388.000000	99.100718
3387.000000	99.102485
3386.000000	99.103889
3385.000000	99.103691
3384.000000	99.100470
3383.000000	99.093628
3382.000000	99.084776
3381.000000	99.076961
3380.000000	99.072085
3379.000000	99.069444
3378.000000	99.067040
3377.000000	99.063551
3376.000000	99.058681
3375.000000	99.052470
3374.000000	99.045104
3373.000000	99.037244
3372.000000	99.029867
3371.000000	99.023704
3370.000000	99.018884
3369.000000	99.014980
3368.000000	99.011101
3367.000000	99.006190
3366.000000	98.999681
3365.000000	98.992098
3364.000000	98.984913
3363.000000	98.979657
3362.000000	98.976803
3361.000000	98.975011
3360.000000	98.971469
3359.000000	98.963530
3358.000000	98.950648
3357.000000	98.934965
3356.000000	98.919956
3355.000000	98.908322
3354.000000	98.900730
3353.000000	98.896175
3352.000000	98.893425
3351.000000	98.892320
3350.000000	98.893354
3349.000000	98.895624
3348.000000	98.895548
3347.000000	98.888890
3346.000000	98.874822
3345.000000	98.857401
3344.000000	98.842429
3343.000000	98.832839
3342.000000	98.827471
3341.000000	98.823653
3340.000000	98.819827
3339.000000	98.815598
3338.000000	98.810211
3337.000000	98.802007
3336.000000	98.789754
3335.000000	98.774389
3334.000000	98.758836
3333.000000	98.745542
3332.000000	98.734444
3331.000000	98.724178
3330.000000	98.715313
3329.000000	98.711114
3328.000000	98.713953
3327.000000	98.721398
3326.000000	98.727097
3325.000000	98.725774
3324.000000	98.717060
3323.000000	98.704792
3322.000000	98.693672
3321.000000	98.686345
3320.000000	98.682294
3319.000000	98.678811
3318.000000	98.673595
3317.000000	98.666779
3316.000000	98.660186
3315.000000	98.654748
3314.000000	98.649421
3313.000000	98.642733
3312.000000	98.634532
3311.000000	98.626125
3310.000000	98.619546
3309.000000	98.616716
3308.000000	98.618116
3307.000000	98.621555
3306.000000	98.623236
3305.000000	98.620909
3304.000000	98.615430
3303.000000	98.608715
3302.000000	98.601055
3301.000000	98.591620
3300.000000	98.581241
3299.000000	98.573009
3298.000000	98.569558
3297.000000	98.570315
3296.000000	98.571994
3295.000000	98.571646
3294.000000	98.569104
3293.000000	98.566785
3292.000000	98.567240
3291.000000	98.570569
3290.000000	98.574077
3289.000000	98.574578
3288.000000	98.571085
3287.000000	98.565220
3286.000000	98.559320
3285.000000	98.554671
3284.000000	98.551634
3283.000000	98.550731
3282.000000	98.552611
3281.000000	98.556666
3280.000000	98.560468
3279.000000	98.561646
3278.000000	98.560420
3277.000000	98.559429
3276.000000	98.560603
3275.000000	98.562907
3274.000000	98.564034
3273.000000	98.563653
3272.000000	98.563792
3271.000000	98.566060
3270.000000	98.569700
3269.000000	98.572926
3268.000000	98.575288
3267.000000	98.578125
3266.000000	98.582986
3265.000000	98.589786
3264.000000	98.596277
3263.000000	98.599509
3262.000000	98.598316
3261.000000	98.594645
3260.000000	98.591992
3259.000000	98.592598
3258.000000	98.596526
3257.000000	98.602832
3256.000000	98.610184
3255.000000	98.616427
3254.000000	98.619588
3253.000000	98.620378
3252.000000	98.622205
3251.000000	98.627159
3250.000000	98.633035
3249.000000	98.635967
3248.000000	98.635412
3247.000000	98.634690
3246.000000	98.636882
3245.000000	98.641852
3244.000000	98.647651
3243.000000	98.652844
3242.000000	98.656468
3241.000000	98.657492
3240.000000	98.656008
3239.000000	98.654337
3238.000000	98.655135
3237.000000	98.658286
3236.000000	98.660553
3235.000000	98.658567
3234.000000	98.651694
3233.000000	98.642191
3232.000000	98.633714
3231.000000	98.629718
3230.000000	98.632180
3229.000000	98.640449
3228.000000	98.650996
3227.000000	98.659204
3226.000000	98.662408
3225.000000	98.661506
3224.000000	98.659675
3223.000000	98.659589
3222.000000	98.661891
3221.000000	98.665666
3220.000000	98.669095
3219.000000	98.669731
3218.000000	98.665799
3217.000000	98.658877
3216.000000	98.654576
3215.000000	98.658274
3214.000000	98.669029
3213.000000	98.679305
3212.000000	98.681934
3211.000000	98.676925
3210.000000	98.670597
3209.000000	98.668986
3208.000000	98.673172
3207.000000	98.680091
3206.000000	98.686002
3205.000000	98.688638
3204.000000	98.687466
3203.000000	98.683342
3202.000000	98.677888
3201.000000	98.672885
3200.000000	98.669995
3199.000000	98.670694
3198.000000	98.675572
3197.000000	98.683324
3196.000000	98.690882
3195.000000	98.695342
3194.000000	98.696011
3193.000000	98.694594
3192.000000	98.693334
3191.000000	98.692845
3190.000000	98.691866
3189.000000	98.689074
3188.000000	98.684989
3187.000000	98.681809
3186.000000	98.681468
3185.000000	98.684407
3184.000000	98.690156
3183.000000	98.698182
3182.000000	98.707527
3181.000000	98.716342
3180.000000	98.722785
3179.000000	98.726248
3178.000000	98.727070
3177.000000	98.725396
3176.000000	98.721382
3175.000000	98.716751
3174.000000	98.714883
3173.000000	98.718358
3172.000000	98.726368
3171.000000	98.734949
3170.000000	98.739991
3169.000000	98.740027
3168.000000	98.736764
3167.000000	98.733402
3166.000000	98.732470
3165.000000	98.734684
3164.000000	98.739213
3163.000000	98.744554
3162.000000	98.749097
3161.000000	98.751454
3160.000000	98.751044
3159.000000	98.748700
3158.000000	98.746429
3157.000000	98.746159
3156.000000	98.748487
3155.000000	98.752520
3154.000000	98.756793
3153.000000	98.760225
3152.000000	98.762378
3151.000000	98.763205
3150.000000	98.763029
3149.000000	98.762681
3148.000000	98.763147
3147.000000	98.764782
3146.000000	98.767000
3145.000000	98.768866
3144.000000	98.769769
3143.000000	98.769634
3142.000000	98.769066
3141.000000	98.769431
3140.000000	98.772010
3139.000000	98.776334
3138.000000	98.779860
3137.000000	98.780293
3136.000000	98.778231
3135.000000	98.776815
3134.000000	98.778547
3133.000000	98.782975
3132.000000	98.787589
3131.000000	98.790235
3130.000000	98.790455
3129.000000	98.789349
3128.000000	98.788638
3127.000000	98.789150
3126.000000	98.789808
3125.000000	98.788828
3124.000000	98.786133
3123.000000	98.783625
3122.000000	98.782615
3121.000000	98.782003
3120.000000	98.780016
3119.000000	98.776919
3118.000000	98.774783
3117.000000	98.774833
3116.000000	98.776197
3115.000000	98.777421
3114.000000	98.778102
3113.000000	98.778407
3112.000000	98.777777
3111.000000	98.775113
3110.000000	98.770546
3109.000000	98.766413
3108.000000	98.765656
3107.000000	98.768761
3106.000000	98.772850
3105.000000	98.774369
3104.000000	98.772208
3103.000000	98.767786
3102.000000	98.762729
3101.000000	98.757616
3100.000000	98.752484
3099.000000	98.747354
3098.000000	98.742264
3097.000000	98.737923
3096.000000	98.736148
3095.000000	98.738192
3094.000000	98.742440
3093.000000	98.745217
3092.000000	98.744427
3091.000000	98.741065
3090.000000	98.736747
3089.000000	98.731393
3088.000000	98.724550
3087.000000	98.717553
3086.000000	98.712637
3085.000000	98.710610
3084.000000	98.710768
3083.000000	98.712593
3082.000000	98.715822
3081.000000	98.719141
3080.000000	98.720549
3079.000000	98.719350
3078.000000	98.716470
3077.000000	98.712576
3076.000000	98.707454
3075.000000	98.701670
3074.000000	98.697435
3073.000000	98.696490
3072.000000	98.697745
3071.000000	98.698109
3070.000000	98.695722
3069.000000	98.691828
3068.000000	98.689294
3067.000000	98.689604
3066.000000	98.691347
3065.000000	98.691683
3064.000000	98.689390
3063.000000	98.686373
3062.000000	98.686024
3061.000000	98.690137
3060.000000	98.697581
3059.000000	98.705684
3058.000000	98.712242
3057.000000	98.716138
3056.000000	98.717143
3055.000000	98.716073
3054.000000	98.715034
3053.000000	98.716327
3052.000000	98.720578
3051.000000	98.726158
3050.000000	98.730650
3049.000000	98.732900
3048.000000	98.733561
3047.000000	98.733991
3046.000000	98.734828
3045.000000	98.735580
3044.000000	98.735397
3043.000000	98.734265
3042.000000	98.733270
3041.000000	98.733591
3040.000000	98.735171
3039.000000	98.736720
3038.000000	98.736997
3037.000000	98.735898
3036.000000	98.734416
3035.000000	98.734049
3034.000000	98.736101
3033.000000	98.740699
3032.000000	98.745911
3031.000000	98.748531
3030.000000	98.746721
3029.000000	98.741748
3028.000000	98.736598
3027.000000	98.733052
3026.000000	98.730924
3025.000000	98.729962
3024.000000	98.731072
3023.000000	98.734909
3022.000000	98.740156
3021.000000	98.744439
3020.000000	98.746480
3019.000000	98.746262
3018.000000	98.743374
3017.000000	98.736638
3016.000000	98.725712
3015.000000	98.712090
3014.000000	98.697912
3013.000000	98.684490
3012.000000	98.672423
3011.000000	98.662449
3010.000000	98.655295
3009.000000	98.650789
3008.000000	98.647681
3007.000000	98.644445
3006.000000	98.640123
3005.000000	98.634584
3004.000000	98.628224
3003.000000	98.621451
3002.000000	98.614543
3001.000000	98.608239
3000.000000	98.604114
2999.000000	98.603813
2998.000000	98.607392
2997.000000	98.612694
2996.000000	98.616465
2995.000000	98.616061
2994.000000	98.610369
2993.000000	98.599844
2992.000000	98.586238
2991.000000	98.571742
2990.000000	98.557781
2989.000000	98.544403
2988.000000	98.531041
2987.000000	98.517631
2986.000000	98.504611
2985.000000	98.491984
2984.000000	98.478846
2983.000000	98.463990
2982.000000	98.446704
2981.000000	98.426817
2980.000000	98.404342
2979.000000	98.379371
2978.000000	98.352384
2977.000000	98.324362
2976.000000	98.296092
2975.000000	98.267197
2974.000000	98.235941
2973.000000	98.200314
2972.000000	98.159381
2971.000000	98.113591
2970.000000	98.064182
2969.000000	98.012550
2968.000000	97.959795
2967.000000	97.906167
2966.000000	97.850795
2965.000000	97.792669
2964.000000	97.732144
2963.000000	97.671338
2962.000000	97.613056
2961.000000	97.559571
2960.000000	97.512204
2959.000000	97.471058
2958.000000	97.435090
2957.000000	97.403201
2956.000000	97.376092
2955.000000	97.356472
2954.000000	97.346820
2953.000000	97.347002
2952.000000	97.353884
2951.000000	97.362583
2950.000000	97.367387
2949.000000	97.363015
2948.000000	97.346715
2947.000000	97.319556
2946.000000	97.284512
2945.000000	97.242731
2944.000000	97.192537
2943.000000	97.132142
2942.000000	97.062509
2941.000000	96.986477
2940.000000	96.905402
2939.000000	96.817475
2938.000000	96.719150
2937.000000	96.607875
2936.000000	96.483398
2935.000000	96.347761
2934.000000	96.205086
2933.000000	96.061098
2932.000000	95.921318
2931.000000	95.788283
2930.000000	95.660476
2929.000000	95.534574
2928.000000	95.409266
2927.000000	95.287312
2926.000000	95.174114
2925.000000	95.075124
2924.000000	94.994195
2923.000000	94.933931
2922.000000	94.896476
2921.000000	94.883571
2920.000000	94.896447
2919.000000	94.935950
2918.000000	95.003639
2917.000000	95.102253
2916.000000	95.234179
2915.000000	95.398229
2914.000000	95.586754
2913.000000	95.786208
2912.000000	95.981045
2911.000000	96.159031
2910.000000	96.314389
2909.000000	96.447651
2908.000000	96.563365
2907.000000	96.666740
2906.000000	96.761134
2905.000000	96.847071
2904.000000	96.923500
2903.000000	96.989776
2902.000000	97.047002
2901.000000	97.097678
2900.000000	97.145538
2899.000000	97.193842
2898.000000	97.243929
2897.000000	97.294902
2896.000000	97.345055
2895.000000	97.393529
2894.000000	97.440524
2893.000000	97.486333
2892.000000	97.530792
2891.000000	97.573424
2890.000000	97.613541
2889.000000	97.650320
2888.000000	97.683268
2887.000000	97.712604
2886.000000	97.739034
2885.000000	97.763516
2884.000000	97.787408
2883.000000	97.811811
2882.000000	97.835413
2881.000000	97.853421
2880.000000	97.860270
2879.000000	97.854298
2878.000000	97.839184
2877.000000	97.820626
2876.000000	97.802025
2875.000000	97.783645
2874.000000	97.764942
2873.000000	97.746626
2872.000000	97.730256
2871.000000	97.716262
2870.000000	97.702935
2869.000000	97.687875
2868.000000	97.670167
2867.000000	97.649896
2866.000000	97.624777
2865.000000	97.588619
2864.000000	97.535053
2863.000000	97.462871
2862.000000	97.375908
2861.000000	97.277514
2860.000000	97.167346
2859.000000	97.044796
2858.000000	96.913801
2857.000000	96.782466
2856.000000	96.658447
2855.000000	96.546010
2854.000000	96.447822
2853.000000	96.368352
2852.000000	96.316122
2851.000000	96.304122
2850.000000	96.346493
2849.000000	96.451576
2848.000000	96.614739
2847.000000	96.817624
2846.000000	97.035167
2845.000000	97.245516
2844.000000	97.435462
2843.000000	97.600564
2842.000000	97.742193
2841.000000	97.863864
2840.000000	97.968853
2839.000000	98.058902
2838.000000	98.134598
2837.000000	98.196939
2836.000000	98.248595
2835.000000	98.293227
2834.000000	98.333413
2833.000000	98.369400
2832.000000	98.400330
2831.000000	98.426507
2830.000000	98.449726
2829.000000	98.471676
2828.000000	98.492742
2827.000000	98.512547
2826.000000	98.530941
2825.000000	98.548007
2824.000000	98.563877
2823.000000	98.579084
2822.000000	98.594584
2821.000000	98.610724
2820.000000	98.626474
2819.000000	98.640291
2818.000000	98.651560
2817.000000	98.660842
2816.000000	98.669177
2815.000000	98.677717
2814.000000	98.687534
2813.000000	98.698739
2812.000000	98.709817
2811.000000	98.718797
2810.000000	98.725367
2809.000000	98.731310
2808.000000	98.738564
2807.000000	98.747361
2806.000000	98.756345
2805.000000	98.763888
2804.000000	98.769075
2803.000000	98.772035
2802.000000	98.773864
2801.000000	98.775985
2800.000000	98.779237
2799.000000	98.783675
2798.000000	98.789174
2797.000000	98.795632
2796.000000	98.802371
2795.000000	98.808046
2794.000000	98.811805
2793.000000	98.814189
2792.000000	98.816403
2791.000000	98.819076
2790.000000	98.822319
2789.000000	98.826572
2788.000000	98.832300
2787.000000	98.838809
2786.000000	98.844372
2785.000000	98.848036
2784.000000	98.850705
2783.000000	98.853910
2782.000000	98.858033
2781.000000	98.862372
2780.000000	98.866674
2779.000000	98.871693
2778.000000	98.877933
2777.000000	98.884331
2776.000000	98.888756
2775.000000	98.890061
2774.000000	98.889572
2773.000000	98.890268
2772.000000	98.894134
2771.000000	98.900213
2770.000000	98.905489
2769.000000	98.907727
2768.000000	98.907191
2767.000000	98.905574
2766.000000	98.904076
2765.000000	98.903125
2764.000000	98.903453
2763.000000	98.906157
2762.000000	98.911189
2761.000000	98.916379
2760.000000	98.918808
2759.000000	98.917418
2758.000000	98.914254
2757.000000	98.912967
2756.000000	98.915783
2755.000000	98.921560
2754.000000	98.926825
2753.000000	98.928871
2752.000000	98.927969
2751.000000	98.926623
2750.000000	98.926995
2749.000000	98.929268
2748.000000	98.932000
2747.000000	98.933443
2746.000000	98.932771
2745.000000	98.930942
2744.000000	98.930498
2743.000000	98.933590
2742.000000	98.939542
2741.000000	98.944831
2740.000000	98.946227
2739.000000	98.943887
2738.000000	98.940988
2737.000000	98.940484
2736.000000	98.942726
2735.000000	98.946265
2734.000000	98.950171
2733.000000	98.954878
2732.000000	98.960724
2731.000000	98.966368
2730.000000	98.969305
2729.000000	98.968193
2728.000000	98.964404
2727.000000	98.961023
2726.000000	98.960420
2725.000000	98.962779
2724.000000	98.966494
2723.000000	98.969503
2722.000000	98.970442
2721.000000	98.969246
2720.000000	98.966974
2719.000000	98.964803
2718.000000	98.963164
2717.000000	98.962023
2716.000000	98.961693
2715.000000	98.962746
2714.000000	98.965208
2713.000000	98.968531
2712.000000	98.972428
2711.000000	98.976950
2710.000000	98.981410
2709.000000	98.984075
2708.000000	98.983658
2707.000000	98.980838
2706.000000	98.977805
2705.000000	98.976460
2704.000000	98.977316
2703.000000	98.979724
2702.000000	98.982672
2701.000000	98.985521
2700.000000	98.988336
2699.000000	98.991359
2698.000000	98.994077
2697.000000	98.995285
2696.000000	98.994451
2695.000000	98.992568
2694.000000	98.991121
2693.000000	98.990551
2692.000000	98.990295
2691.000000	98.990098
2690.000000	98.990526
2689.000000	98.992043
2688.000000	98.994010
2687.000000	98.994895
2686.000000	98.993465
2685.000000	98.989989
2684.000000	98.986358
2683.000000	98.984704
2682.000000	98.985545
2681.000000	98.987473
2680.000000	98.988762
2679.000000	98.988928
2678.000000	98.988513
2677.000000	98.988131
2676.000000	98.988529
2675.000000	98.990954
2674.000000	98.996108
2673.000000	99.002415
2672.000000	99.006378
2671.000000	99.005595
2670.000000	99.001288
2669.000000	98.997372
2668.000000	98.996872
2667.000000	98.999296
2666.000000	99.001427
2665.000000	99.000588
2664.000000	98.997108
2663.000000	98.993622
2662.000000	98.992285
2661.000000	98.993047
2660.000000	98.994517
2659.000000	98.995674
2658.000000	98.996283
2657.000000	98.996351
2656.000000	98.996144
2655.000000	98.996566
2654.000000	98.998478
2653.000000	99.001398
2652.000000	99.003616
2651.000000	99.004145
2650.000000	99.004132
2649.000000	99.005833
2648.000000	99.010300
2647.000000	99.016410
2646.000000	99.022188
2645.000000	99.026783
2644.000000	99.030929
2643.000000	99.035511
2642.000000	99.040003
2641.000000	99.042576
2640.000000	99.041691
2639.000000	99.037439
2638.000000	99.031680
2637.000000	99.027546
2636.000000	99.028377
2635.000000	99.035575
2634.000000	99.046607
2633.000000	99.056180
2632.000000	99.060667
2631.000000	99.061255
2630.000000	99.061904
2629.000000	99.064638
2628.000000	99.067807
2627.000000	99.068623
2626.000000	99.066239
2625.000000	99.062282
2624.000000	99.059413
2623.000000	99.059597
2622.000000	99.063039
2621.000000	99.068465
2620.000000	99.074552
2619.000000	99.080598
2618.000000	99.085358
2617.000000	99.086421
2616.000000	99.082547
2615.000000	99.076354
2614.000000	99.072716
2613.000000	99.073945
2612.000000	99.077761
2611.000000	99.080507
2610.000000	99.081068
2609.000000	99.081176
2608.000000	99.083243
2607.000000	99.088504
2606.000000	99.096069
2605.000000	99.102900
2604.000000	99.105765
2603.000000	99.103984
2602.000000	99.099525
2601.000000	99.094186
2600.000000	99.088428
2599.000000	99.083715
2598.000000	99.083784
2597.000000	99.091201
2596.000000	99.103357
2595.000000	99.113950
2594.000000	99.118200
2593.000000	99.115462
2592.000000	99.107645
2591.000000	99.097490
2590.000000	99.088367
2589.000000	99.083359
2588.000000	99.083249
2587.000000	99.086315
2586.000000	99.090547
2585.000000	99.094963
2584.000000	99.098678
2583.000000	99.100449
2582.000000	99.100337
2581.000000	99.100558
2580.000000	99.103372
2579.000000	99.108257
2578.000000	99.112008
2577.000000	99.111544
2576.000000	99.106672
2575.000000	99.100956
2574.000000	99.099978
2573.000000	99.107234
2572.000000	99.120361
2571.000000	99.131990
2570.000000	99.135466
2569.000000	99.129750
2568.000000	99.118849
2567.000000	99.108147
2566.000000	99.102638
2565.000000	99.106763
2564.000000	99.122099
2563.000000	99.143957
2562.000000	99.162573
2561.000000	99.169710
2560.000000	99.164102
2559.000000	99.150261
2558.000000	99.133844
2557.000000	99.119594
2556.000000	99.111991
2555.000000	99.114398
2554.000000	99.126004
2553.000000	99.140821
2552.000000	99.151450
2551.000000	99.154628
2550.000000	99.153308
2549.000000	99.153024
2548.000000	99.155946
2547.000000	99.158473
2546.000000	99.155325
2545.000000	99.146090
2544.000000	99.136706
2543.000000	99.133718
2542.000000	99.137752
2541.000000	99.143204
2540.000000	99.143558
2539.000000	99.136107
2538.000000	99.122917
2537.000000	99.109559
2536.000000	99.102792
2535.000000	99.106713
2534.000000	99.119286
2533.000000	99.133313
2532.000000	99.141939
2531.000000	99.143413
2530.000000	99.140348
2529.000000	99.135814
2528.000000	99.131156
2527.000000	99.126855
2526.000000	99.123607
2525.000000	99.121873
2524.000000	99.121150
2523.000000	99.120540
2522.000000	99.119923
2521.000000	99.119988
2520.000000	99.121073
2519.000000	99.122709
2518.000000	99.124632
2517.000000	99.127427
2516.000000	99.131064
2515.000000	99.133474
2514.000000	99.132646
2513.000000	99.130471
2512.000000	99.132190
2511.000000	99.140135
2510.000000	99.149735
2509.000000	99.153963
2508.000000	99.151035
2507.000000	99.145366
2506.000000	99.141453
2505.000000	99.139958
2504.000000	99.139869
2503.000000	99.141098
2502.000000	99.142966
2501.000000	99.142507
2500.000000	99.137145
2499.000000	99.128467
2498.000000	99.121452
2497.000000	99.120025
2496.000000	99.124486
2495.000000	99.132699
2494.000000	99.142385
2493.000000	99.152119
2492.000000	99.161085
2491.000000	99.168544
2490.000000	99.173656
2489.000000	99.176074
2488.000000	99.176588
2487.000000	99.176640
2486.000000	99.177322
2485.000000	99.179556
2484.000000	99.184509
2483.000000	99.191870
2482.000000	99.197669
2481.000000	99.196422
2480.000000	99.187396
2479.000000	99.177202
2478.000000	99.173790
2477.000000	99.178115
2476.000000	99.183479
2475.000000	99.183568
2474.000000	99.179932
2473.000000	99.180661
2472.000000	99.191751
2471.000000	99.210157
2470.000000	99.225907
2469.000000	99.231524
2468.000000	99.228719
2467.000000	99.225064
2466.000000	99.225124
2465.000000	99.226772
2464.000000	99.225715
2463.000000	99.220498
2462.000000	99.212552
2461.000000	99.204301
2460.000000	99.198694
2459.000000	99.197775
2458.000000	99.199273
2457.000000	99.196980
2456.000000	99.187644
2455.000000	99.176118
2454.000000	99.170245
2453.000000	99.171527
2452.000000	99.174100
2451.000000	99.172798
2450.000000	99.168959
2449.000000	99.167321
2448.000000	99.170251
2447.000000	99.176440
2446.000000	99.183104
2445.000000	99.187647
2444.000000	99.188541
2443.000000	99.186500
2442.000000	99.184430
2441.000000	99.185250
2440.000000	99.189574
2439.000000	99.195490
2438.000000	99.199956
2437.000000	99.200671
2436.000000	99.197762
2435.000000	99.194082
2434.000000	99.193035
2433.000000	99.195767
2432.000000	99.200759
2431.000000	99.205812
2430.000000	99.209392
2429.000000	99.210402
2428.000000	99.208294
2427.000000	99.204051
2426.000000	99.200108
2425.000000	99.198651
2424.000000	99.200210
2423.000000	99.203854
2422.000000	99.208211
2421.000000	99.212266
2420.000000	99.215632
2419.000000	99.218011
2418.000000	99.218372
2417.000000	99.215627
2416.000000	99.210700
2415.000000	99.206592
2414.000000	99.205158
2413.000000	99.204951
2412.000000	99.203926
2411.000000	99.203133
2410.000000	99.205410
2409.000000	99.211072
2408.000000	99.217498
2407.000000	99.222823
2406.000000	99.227217
2405.000000	99.230377
2404.000000	99.231145
2403.000000	99.230851
2402.000000	99.233812
2401.000000	99.242097
2400.000000	99.251625
2399.000000	99.255708
2398.000000	99.251412
2397.000000	99.240887
2396.000000	99.228271
2395.000000	99.217507
2394.000000	99.211650
2393.000000	99.211104
2392.000000	99.212530
2391.000000	99.212210
2390.000000	99.211007
2389.000000	99.213719
2388.000000	99.222456
2387.000000	99.232885
2386.000000	99.238578
2385.000000	99.238019
2384.000000	99.235581
2383.000000	99.235663
2382.000000	99.237958
2381.000000	99.238986
2380.000000	99.237647
2379.000000	99.237822
2378.000000	99.244506
2377.000000	99.257540
2376.000000	99.269686
2375.000000	99.271722
2374.000000	99.259833
2373.000000	99.238815
2372.000000	99.219069
2371.000000	99.210059
2370.000000	99.214754
2369.000000	99.228911
2368.000000	99.246036
2367.000000	99.261376
2366.000000	99.271069
2365.000000	99.271225
2364.000000	99.261839
2363.000000	99.249391
2362.000000	99.241506
2361.000000	99.239890
2360.000000	99.240434
2359.000000	99.241509
2358.000000	99.245655
2357.000000	99.251977
2356.000000	99.257596
2355.000000	99.258871
2354.000000	99.252714
2353.000000	99.239023
2352.000000	99.224965
2351.000000	99.219656
2350.000000	99.223652
2349.000000	99.231591
2348.000000	99.237171
2347.000000	99.237526
2346.000000	99.235529
2345.000000	99.235840
2344.000000	99.238267
2343.000000	99.236261
2342.000000	99.230392
2341.000000	99.227024
2340.000000	99.229033
2339.000000	99.233073
2338.000000	99.234665
2337.000000	99.234081
2336.000000	99.234020
2335.000000	99.235353
2334.000000	99.234735
2333.000000	99.231432
2332.000000	99.228547
2331.000000	99.230265
2330.000000	99.232784
2329.000000	99.232044
2328.000000	99.226393
2327.000000	99.219700
2326.000000	99.214635
2325.000000	99.211936
2324.000000	99.211874
2323.000000	99.214553
2322.000000	99.220105
2321.000000	99.228243
2320.000000	99.237463
2319.000000	99.246658
2318.000000	99.254203
2317.000000	99.260422
2316.000000	99.263606
2315.000000	99.261955
2314.000000	99.253768
2313.000000	99.242784
2312.000000	99.234303
2311.000000	99.232037
2310.000000	99.234256
2309.000000	99.238812
2308.000000	99.244378
2307.000000	99.250629
2306.000000	99.256147
2305.000000	99.260389
2304.000000	99.263620
2303.000000	99.265509
2302.000000	99.263349
2301.000000	99.255645
2300.000000	99.243440
2299.000000	99.229717
2298.000000	99.215576
2297.000000	99.202360
2296.000000	99.193449
2295.000000	99.194155
2294.000000	99.206113
2293.000000	99.224830
2292.000000	99.241782
2291.000000	99.250220
2290.000000	99.249402
2289.000000	99.244448
2288.000000	99.241489
2287.000000	99.241226
2286.000000	99.238138
2285.000000	99.226419
2284.000000	99.206769
2283.000000	99.186158
2282.000000	99.172849
2281.000000	99.172234
2280.000000	99.185442
2279.000000	99.208427
2278.000000	99.233234
2277.000000	99.253169
2276.000000	99.267573
2275.000000	99.279717
2274.000000	99.289724
2273.000000	99.292464
2272.000000	99.282836
2271.000000	99.261636
2270.000000	99.236499
2269.000000	99.219236
2268.000000	99.220319
2267.000000	99.240720
2266.000000	99.267678
2265.000000	99.282691
2264.000000	99.276494
2263.000000	99.255175
2262.000000	99.231451
2261.000000	99.213933
2260.000000	99.205802
2259.000000	99.208086
2258.000000	99.219590
2257.000000	99.234857
2256.000000	99.246526
2255.000000	99.250402
2254.000000	99.247153
2253.000000	99.241179
2252.000000	99.239313
2251.000000	99.248324
2250.000000	99.269082
2249.000000	99.293231
2248.000000	99.308257
2247.000000	99.306442
2246.000000	99.288773
2245.000000	99.262165
2244.000000	99.236136
2243.000000	99.220570
2242.000000	99.221574
2241.000000	99.237144
2240.000000	99.258861
2239.000000	99.279650
2238.000000	99.298248
2237.000000	99.315022
2236.000000	99.326435
2235.000000	99.326957
2234.000000	99.316030
2233.000000	99.300732
2232.000000	99.291040
2231.000000	99.293133
2230.000000	99.306291
2229.000000	99.323591
2228.000000	99.335233
2227.000000	99.334586
2226.000000	99.323350
2225.000000	99.309804
2224.000000	99.300186
2223.000000	99.293275
2222.000000	99.285026
2221.000000	99.276108
2220.000000	99.271389
2219.000000	99.273353
2218.000000	99.279975
2217.000000	99.288725
2216.000000	99.299161
2215.000000	99.311832
2214.000000	99.327628
2213.000000	99.346745
2212.000000	99.363553
2211.000000	99.364822
2210.000000	99.341389
2209.000000	99.303349
2208.000000	99.275277
2207.000000	99.272156
2206.000000	99.286683
2205.000000	99.303401
2204.000000	99.316093
2203.000000	99.325665
2202.000000	99.331156
2201.000000	99.333882
2200.000000	99.344074
2199.000000	99.369527
2198.000000	99.400203
2197.000000	99.416060
2196.000000	99.410573
2195.000000	99.394231
2194.000000	99.374454
2193.000000	99.346251
2192.000000	99.308169
2191.000000	99.275723
2190.000000	99.269101
2189.000000	99.292977
2188.000000	99.334185
2187.000000	99.375728
2186.000000	99.407186
2185.000000	99.424925
2184.000000	99.430681
2183.000000	99.430827
2182.000000	99.431725
2181.000000	99.431857
2180.000000	99.419147
2179.000000	99.380029
2178.000000	99.316516
2177.000000	99.255587
2176.000000	99.233480
2175.000000	99.263116
2174.000000	99.321271
2173.000000	99.373005
2172.000000	99.401854
2171.000000	99.408910
2170.000000	99.394126
2169.000000	99.355786
2168.000000	99.304886
2167.000000	99.261303
2166.000000	99.232744
2165.000000	99.212706
2164.000000	99.201887
2163.000000	99.213934
2162.000000	99.250579
2161.000000	99.290731
2160.000000	99.321071
2159.000000	99.363783
2158.000000	99.443271
2157.000000	99.534261
2156.000000	99.581761
2155.000000	99.564140
2154.000000	99.507350
2153.000000	99.448347
2152.000000	99.403646
2151.000000	99.371045
2150.000000	99.348559
2149.000000	99.341185
2148.000000	99.349253
2147.000000	99.358810
2146.000000	99.351335
2145.000000	99.323966
2144.000000	99.295376
2143.000000	99.287379
2142.000000	99.303765
2141.000000	99.329637
2140.000000	99.347649
2139.000000	99.350335
2138.000000	99.339280
2137.000000	99.320522
2136.000000	99.302643
2135.000000	99.292970
2134.000000	99.292306
2133.000000	99.295662
2132.000000	99.298511
2131.000000	99.299886
2130.000000	99.300070
2129.000000	99.299404
2128.000000	99.299575
2127.000000	99.301987
2126.000000	99.303583
2125.000000	99.297859
2124.000000	99.282468
2123.000000	99.263903
2122.000000	99.253067
2121.000000	99.256869
2120.000000	99.273492
2119.000000	99.293358
2118.000000	99.304346
2117.000000	99.299164
2116.000000	99.280303
2115.000000	99.257208
2114.000000	99.238872
2113.000000	99.230705
2112.000000	99.236538
2111.000000	99.257939
2110.000000	99.288560
2109.000000	99.313035
2108.000000	99.317275
2107.000000	99.301504
2106.000000	99.281045
2105.000000	99.273198
2104.000000	99.282373
2103.000000	99.296469
2102.000000	99.298267
2101.000000	99.282442
2100.000000	99.262066
2099.000000	99.256557
2098.000000	99.272895
2097.000000	99.299291
2096.000000	99.317156
2095.000000	99.317204
2094.000000	99.304169
2093.000000	99.290417
2092.000000	99.286952
2091.000000	99.296916
2090.000000	99.313059
2089.000000	99.321975
2088.000000	99.314695
2087.000000	99.294883
2086.000000	99.275537
2085.000000	99.267479
2084.000000	99.270791
2083.000000	99.277176
2082.000000	99.280082
2081.000000	99.280525
2080.000000	99.282617
2079.000000	99.286257
2078.000000	99.288506
2077.000000	99.291639
2076.000000	99.303401
2075.000000	99.325488
2074.000000	99.346534
2073.000000	99.352477
2072.000000	99.342065
2071.000000	99.327009
2070.000000	99.319341
2069.000000	99.323710
2068.000000	99.339482
2067.000000	99.362698
2066.000000	99.384753
2065.000000	99.395216
2064.000000	99.389711
2063.000000	99.372617
2062.000000	99.352440
2061.000000	99.338734
2060.000000	99.339638
2059.000000	99.354901
2058.000000	99.373114
2057.000000	99.382520
2056.000000	99.382870
2055.000000	99.379320
2054.000000	99.367543
2053.000000	99.337802
2052.000000	99.295595
2051.000000	99.265707
2050.000000	99.269643
2049.000000	99.303777
2048.000000	99.344960
2047.000000	99.375428
2046.000000	99.393511
2045.000000	99.403560
2044.000000	99.408502
2043.000000	99.411617
2042.000000	99.415828
2041.000000	99.421012
2040.000000	99.427104
2039.000000	99.437460
2038.000000	99.454613
2037.000000	99.475593
2036.000000	99.495010
2035.000000	99.510338
2034.000000	99.520052
2033.000000	99.520217
2032.000000	99.507494
2031.000000	99.481921
2030.000000	99.445247
2029.000000	99.403304
2028.000000	99.370932
2027.000000	99.365735
2026.000000	99.391904
2025.000000	99.433087
2024.000000	99.465343
2023.000000	99.476664
2022.000000	99.470903
2021.000000	99.456556
2020.000000	99.435605
2019.000000	99.402772
2018.000000	99.355911
2017.000000	99.306388
2016.000000	99.271959
2015.000000	99.254973
2014.000000	99.238703
2013.000000	99.211650
2012.000000	99.187227
2011.000000	99.190577
2010.000000	99.229077
2009.000000	99.284129
2008.000000	99.331174
2007.000000	99.361354
2006.000000	99.381896
2005.000000	99.402731
2004.000000	99.425984
2003.000000	99.444349
2002.000000	99.448875
2001.000000	99.440508
2000.000000	99.430153
1999.000000	99.422183
1998.000000	99.406750
1997.000000	99.378341
1996.000000	99.352471
1995.000000	99.348970
1994.000000	99.363844
1993.000000	99.370372
1992.000000	99.350763
1991.000000	99.316887
1990.000000	99.291626
1989.000000	99.286225
1988.000000	99.302364
1987.000000	99.337596
1986.000000	99.379366
1985.000000	99.405266
1984.000000	99.401244
1983.000000	99.376628
1982.000000	99.354488
1981.000000	99.349249
1980.000000	99.354867
1979.000000	99.350692
1978.000000	99.320869
1977.000000	99.275225
1976.000000	99.248568
1975.000000	99.268366
1974.000000	99.325983
1973.000000	99.386271
1972.000000	99.421443
1971.000000	99.430472
1970.000000	99.429122
1969.000000	99.432869
1968.000000	99.450452
1967.000000	99.481434
1966.000000	99.512938
1965.000000	99.526763
1964.000000	99.516275
1963.000000	99.492414
1962.000000	99.473520
1961.000000	99.471230
1960.000000	99.482894
1959.000000	99.495645
1958.000000	99.497809
1957.000000	99.487068
1956.000000	99.467946
1955.000000	99.443173
1954.000000	99.413049
1953.000000	99.384059
1952.000000	99.369201
1951.000000	99.373706
1950.000000	99.386370
1949.000000	99.392906
1948.000000	99.393570
1947.000000	99.397657
1946.000000	99.403560
1945.000000	99.395951
1944.000000	99.365084
1943.000000	99.322522
1942.000000	99.293879
1941.000000	99.295728
1940.000000	99.322329
1939.000000	99.354309
1938.000000	99.374663
1937.000000	99.379711
1936.000000	99.379321
1935.000000	99.383366
1934.000000	99.389462
1933.000000	99.388138
1932.000000	99.377424
1931.000000	99.365575
1930.000000	99.359505
1929.000000	99.358959
1928.000000	99.361391
1927.000000	99.364574
1926.000000	99.365460
1925.000000	99.362919
1924.000000	99.362299
1923.000000	99.369472
1922.000000	99.379842
1921.000000	99.382686
1920.000000	99.374673
1919.000000	99.360533
1918.000000	99.344655
1917.000000	99.330614
1916.000000	99.327515
1915.000000	99.342710
1914.000000	99.368734
1913.000000	99.385676
1912.000000	99.381162
1911.000000	99.364169
1910.000000	99.352565
1909.000000	99.353426
1908.000000	99.361992
1907.000000	99.373095
1906.000000	99.384467
1905.000000	99.392030
1904.000000	99.391705
1903.000000	99.385004
1902.000000	99.377858
1901.000000	99.374905
1900.000000	99.375685
1899.000000	99.376217
1898.000000	99.374774
1897.000000	99.374652
1896.000000	99.380441
1895.000000	99.390247
1894.000000	99.394839
1893.000000	99.388671
1892.000000	99.377215
1891.000000	99.369892
1890.000000	99.370393
1889.000000	99.376355
1888.000000	99.386066
1887.000000	99.396811
1886.000000	99.400811
1885.000000	99.392591
1884.000000	99.377993
1883.000000	99.368292
1882.000000	99.365809
1881.000000	99.364782
1880.000000	99.363974
1879.000000	99.368785
1878.000000	99.381547
1877.000000	99.397122
1876.000000	99.410102
1875.000000	99.419911
1874.000000	99.426800
1873.000000	99.429532
1872.000000	99.429462
1871.000000	99.430604
1870.000000	99.433514
1869.000000	99.432663
1868.000000	99.426160
1867.000000	99.421192
1866.000000	99.419466
1865.000000	99.416028
1864.000000	99.410074
1863.000000	99.404479
1862.000000	99.398152
1861.000000	99.387540
1860.000000	99.376749
1859.000000	99.376413
1858.000000	99.388930
1857.000000	99.403587
1856.000000	99.410092
1855.000000	99.408405
1854.000000	99.403622
1853.000000	99.399160
1852.000000	99.397568
1851.000000	99.400890
1850.000000	99.408425
1849.000000	99.417070
1848.000000	99.425296
1847.000000	99.433426
1846.000000	99.438794
1845.000000	99.437251
1844.000000	99.432573
1843.000000	99.433601
1842.000000	99.437276
1841.000000	99.433818
1840.000000	99.421860
1839.000000	99.408808
1838.000000	99.401639
1837.000000	99.399309
1836.000000	99.397560
1835.000000	99.396236
1834.000000	99.397538
1833.000000	99.402253
1832.000000	99.410231
1831.000000	99.422017
1830.000000	99.434988
1829.000000	99.441209
1828.000000	99.439514
1827.000000	99.437276
1826.000000	99.439578
1825.000000	99.442559
1824.000000	99.439096
1823.000000	99.430216
1822.000000	99.422017
1821.000000	99.417980
1820.000000	99.418498
1819.000000	99.423469
1818.000000	99.430574
1817.000000	99.433388
1816.000000	99.428254
1815.000000	99.418736
1814.000000	99.408642
1813.000000	99.397791
1812.000000	99.387119
1811.000000	99.384336
1810.000000	99.394470
1809.000000	99.408922
1808.000000	99.416686
1807.000000	99.416347
1806.000000	99.410621
1805.000000	99.400249
1804.000000	99.388664
1803.000000	99.384374
1802.000000	99.391423
1801.000000	99.400077
1800.000000	99.397336
1799.000000	99.386135
1798.000000	99.376768
1797.000000	99.372153
1796.000000	99.370846
1795.000000	99.373034
1794.000000	99.378357
1793.000000	99.382417
1792.000000	99.381543
1791.000000	99.382600
1790.000000	99.391741
1789.000000	99.403116
1788.000000	99.410389
1787.000000	99.413799
1786.000000	99.415921
1785.000000	99.416101
1784.000000	99.412782
1783.000000	99.408474
1782.000000	99.408888
1781.000000	99.417987
1780.000000	99.432643
1779.000000	99.446005
1778.000000	99.453703
1777.000000	99.457713
1776.000000	99.465210
1775.000000	99.481430
1774.000000	99.503968
1773.000000	99.521985
1772.000000	99.521218
1771.000000	99.503506
1770.000000	99.484461
1769.000000	99.469447
1768.000000	99.457151
1767.000000	99.448423
1766.000000	99.442892
1765.000000	99.435751
1764.000000	99.422350
1763.000000	99.401687
1762.000000	99.376527
1761.000000	99.350361
1760.000000	99.323683
1759.000000	99.297035
1758.000000	99.269856
1757.000000	99.239639
1756.000000	99.205690
1755.000000	99.171003
1754.000000	99.137520
1753.000000	99.101541
1752.000000	99.056093
1751.000000	98.998516
1750.000000	98.934900
1749.000000	98.871795
1748.000000	98.810428
1747.000000	98.751111
1746.000000	98.694637
1745.000000	98.642118
1744.000000	98.598466
1743.000000	98.572690
1742.000000	98.568139
1741.000000	98.576782
1740.000000	98.587789
1739.000000	98.598952
1738.000000	98.615108
1737.000000	98.640965
1736.000000	98.682978
1735.000000	98.751441
1734.000000	98.836129
1733.000000	98.893986
1732.000000	98.915656
1731.000000	98.927212
1730.000000	98.946129
1729.000000	98.973199
1728.000000	99.000846
1727.000000	99.022336
1726.000000	99.037701
1725.000000	99.050419
1724.000000	99.061264
1723.000000	99.067976
1722.000000	99.068594
1721.000000	99.063128
1720.000000	99.053151
1719.000000	99.044378
1718.000000	99.044994
1717.000000	99.039474
1716.000000	99.009941
1715.000000	98.969336
1714.000000	98.930178
1713.000000	98.895469
1712.000000	98.866185
1711.000000	98.843532
1710.000000	98.829052
1709.000000	98.822570
1708.000000	98.820091
1707.000000	98.817647
1706.000000	98.813995
1705.000000	98.808469
1704.000000	98.805182
1703.000000	98.810119
1702.000000	98.823371
1701.000000	98.838178
1700.000000	98.848436
1699.000000	98.849393
1698.000000	98.835040
1697.000000	98.803014
1696.000000	98.761772
1695.000000	98.736939
1694.000000	98.728069
1693.000000	98.712044
1692.000000	98.684588
1691.000000	98.654303
1690.000000	98.629404
1689.000000	98.612092
1688.000000	98.601053
1687.000000	98.595690
1686.000000	98.591015
1685.000000	98.568828
1684.000000	98.511749
1683.000000	98.449070
1682.000000	98.408179
1681.000000	98.375831
1680.000000	98.347257
1679.000000	98.325366
1678.000000	98.306251
1677.000000	98.278757
1676.000000	98.237132
1675.000000	98.191961
1674.000000	98.156762
1673.000000	98.127882
1672.000000	98.096275
1671.000000	98.057974
1670.000000	98.007895
1669.000000	97.946637
1668.000000	97.889509
1667.000000	97.845913
1666.000000	97.812218
1665.000000	97.778941
1664.000000	97.736742
1663.000000	97.684671
1662.000000	97.631118
1661.000000	97.583732
1660.000000	97.542672
1659.000000	97.505991
1658.000000	97.473803
1657.000000	97.447252
1656.000000	97.427078
1655.000000	97.410147
1654.000000	97.386320
1653.000000	97.346687
1652.000000	97.319458
1651.000000	97.307101
1650.000000	97.295039
1649.000000	97.286192
1648.000000	97.282052
1647.000000	97.277441
1646.000000	97.266720
1645.000000	97.257055
1644.000000	97.248691
1643.000000	97.241686
1642.000000	97.237184
1641.000000	97.233279
1640.000000	97.229937
1639.000000	97.231203
1638.000000	97.239154
1637.000000	97.247968
1636.000000	97.246884
1635.000000	97.237637
1634.000000	97.234649
1633.000000	97.233057
1632.000000	97.229824
1631.000000	97.228925
1630.000000	97.232293
1629.000000	97.240781
1628.000000	97.257776
1627.000000	97.285564
1626.000000	97.322008
1625.000000	97.365081
1624.000000	97.415624
1623.000000	97.472295
1622.000000	97.527623
1621.000000	97.579054
1620.000000	97.630742
1619.000000	97.687985
1618.000000	97.753817
1617.000000	97.823607
1616.000000	97.885746
1615.000000	97.934535
1614.000000	97.974382
1613.000000	98.014352
1612.000000	98.060226
1611.000000	98.110055
1610.000000	98.157978
1609.000000	98.204907
1608.000000	98.256059
1607.000000	98.308172
1606.000000	98.352370
1605.000000	98.389180
1604.000000	98.426571
1603.000000	98.466034
1602.000000	98.500532
1601.000000	98.526610
1600.000000	98.548028
1599.000000	98.566780
1598.000000	98.581825
1597.000000	98.595026
1596.000000	98.610258
1595.000000	98.625974
1594.000000	98.635590
1593.000000	98.637679
1592.000000	98.635950
1591.000000	98.629418
1590.000000	98.613182
1589.000000	98.589702
1588.000000	98.566787
1587.000000	98.543200
1586.000000	98.508307
1585.000000	98.457381
1584.000000	98.396564
1583.000000	98.330597
1582.000000	98.259093
1581.000000	98.186141
1580.000000	98.121560
1579.000000	98.068626
1578.000000	98.020865
1577.000000	97.973001
1576.000000	97.933212
1575.000000	97.912495
1574.000000	97.904827
1573.000000	97.900862
1572.000000	97.898215
1571.000000	97.896121
1570.000000	97.891519
1569.000000	97.884209
1568.000000	97.878049
1567.000000	97.869109
1566.000000	97.852223
1565.000000	97.830999
1564.000000	97.813744
1563.000000	97.802397
1562.000000	97.791521
1561.000000	97.773995
1560.000000	97.751922
1559.000000	97.725781
1558.000000	97.663824
1557.000000	97.611496
1556.000000	97.562899
1555.000000	97.505076
1554.000000	97.441702
1553.000000	97.382152
1552.000000	97.326855
1551.000000	97.271469
1550.000000	97.216694
1549.000000	97.169626
1548.000000	97.130573
1547.000000	97.086935
1546.000000	97.026217
1545.000000	96.949601
1544.000000	96.875128
1543.000000	96.821969
1542.000000	96.792108
1541.000000	96.762913
1540.000000	96.706681
1539.000000	96.658911
1538.000000	96.661780
1537.000000	96.690850
1536.000000	96.730275
1535.000000	96.783416
1534.000000	96.856629
1533.000000	96.939851
1532.000000	97.012880
1531.000000	97.073891
1530.000000	97.127315
1529.000000	97.174466
1528.000000	97.217392
1527.000000	97.261478
1526.000000	97.308204
1525.000000	97.349887
1524.000000	97.382193
1523.000000	97.411941
1522.000000	97.441012
1521.000000	97.454085
1520.000000	97.450942
1519.000000	97.447173
1518.000000	97.449365
1517.000000	97.457739
1516.000000	97.473137
1515.000000	97.498917
1514.000000	97.530579
1513.000000	97.558845
1512.000000	97.577933
1511.000000	97.589623
1510.000000	97.599662
1509.000000	97.613456
1508.000000	97.641314
1507.000000	97.688794
1506.000000	97.743462
1505.000000	97.790562
1504.000000	97.807572
1503.000000	97.808988
1502.000000	97.813706
1501.000000	97.825533
1500.000000	97.840546
1499.000000	97.857961
1498.000000	97.881559
1497.000000	97.904868
1496.000000	97.915612
1495.000000	97.917287
1494.000000	97.917202
1493.000000	97.914123
1492.000000	97.907071
1491.000000	97.902286
1490.000000	97.904548
1489.000000	97.899731
1488.000000	97.880243
1487.000000	97.860909
1486.000000	97.848141
1485.000000	97.835345
1484.000000	97.817543
1483.000000	97.793370
1482.000000	97.761701
1481.000000	97.719971
1480.000000	97.670685
1479.000000	97.620011
1478.000000	97.568300
1477.000000	97.512067
1476.000000	97.454248
1475.000000	97.403622
1474.000000	97.353720
1473.000000	97.276587
1472.000000	97.161746
1471.000000	97.045223
1470.000000	96.947723
1469.000000	96.861812
1468.000000	96.784729
1467.000000	96.722755
1466.000000	96.680241
1465.000000	96.653730
1464.000000	96.638123
1463.000000	96.630847
1462.000000	96.626316
1461.000000	96.617889
1460.000000	96.604441
1459.000000	96.590688
1458.000000	96.580592
1457.000000	96.565094
1456.000000	96.539963
1455.000000	96.514066
1454.000000	96.489457
1453.000000	96.469224
1452.000000	96.456106
1451.000000	96.450921
1450.000000	96.450900
1449.000000	96.450785
1448.000000	96.447127
1447.000000	96.441743
1446.000000	96.436994
1445.000000	96.430774
1444.000000	96.421261
1443.000000	96.410922
1442.000000	96.403234
1441.000000	96.399897
1440.000000	96.400708
1439.000000	96.403314
1438.000000	96.404794
1437.000000	96.404062
1436.000000	96.403290
1435.000000	96.402353
1434.000000	96.400587
1433.000000	96.399313
1432.000000	96.401337
1431.000000	96.408419
1430.000000	96.421309
1429.000000	96.438503
1428.000000	96.454984
1427.000000	96.465034
1426.000000	96.466389
1425.000000	96.463172
1424.000000	96.460778
1423.000000	96.459481
1422.000000	96.457189
1421.000000	96.451809
1420.000000	96.443270
1419.000000	96.434676
1418.000000	96.429644
1417.000000	96.427518
1416.000000	96.426274
1415.000000	96.427908
1414.000000	96.435412
1413.000000	96.450190
1412.000000	96.471178
1411.000000	96.494007
1410.000000	96.514489
1409.000000	96.531008
1408.000000	96.543160
1407.000000	96.551962
1406.000000	96.561149
1405.000000	96.576599
1404.000000	96.599242
1403.000000	96.621933
1402.000000	96.637743
1401.000000	96.646372
1400.000000	96.653100
1399.000000	96.661416
1398.000000	96.669789
1397.000000	96.676649
1396.000000	96.684134
1395.000000	96.695317
1394.000000	96.711552
1393.000000	96.731552
1392.000000	96.750470
1391.000000	96.766579
1390.000000	96.781622
1389.000000	96.797468
1388.000000	96.814451
1387.000000	96.829481
1386.000000	96.838148
1385.000000	96.840264
1384.000000	96.839404
1383.000000	96.840027
1382.000000	96.844654
1381.000000	96.852448
1380.000000	96.862414
1379.000000	96.875851
1378.000000	96.894575
1377.000000	96.919193
1376.000000	96.949934
1375.000000	96.986724
1374.000000	97.027229
1373.000000	97.067541
1372.000000	97.103842
1371.000000	97.133902
1370.000000	97.159969
1369.000000	97.189808
1368.000000	97.227564
1367.000000	97.266616
1366.000000	97.297376
1365.000000	97.318866
1364.000000	97.340352
1363.000000	97.371844
1362.000000	97.412475
1361.000000	97.454780
1360.000000	97.493662
1359.000000	97.525892
1358.000000	97.548891
1357.000000	97.563229
1356.000000	97.572652
1355.000000	97.579952
1354.000000	97.584976
1353.000000	97.587441
1352.000000	97.589708
1351.000000	97.594745
1350.000000	97.601667
1349.000000	97.608425
1348.000000	97.613749
1347.000000	97.615866
1346.000000	97.612345
1345.000000	97.603639
1344.000000	97.593198
1343.000000	97.582877
1342.000000	97.570953
1341.000000	97.556891
1340.000000	97.544867
1339.000000	97.539941
1338.000000	97.543700
1337.000000	97.554422
1336.000000	97.569222
1335.000000	97.585931
1334.000000	97.603309
1333.000000	97.621502
1332.000000	97.641734
1331.000000	97.664139
1330.000000	97.686883
1329.000000	97.708827
1328.000000	97.730758
1327.000000	97.752654
1326.000000	97.772038
1325.000000	97.787517
1324.000000	97.799676
1323.000000	97.808587
1322.000000	97.813228
1321.000000	97.813860
1320.000000	97.812709
1319.000000	97.812058
1318.000000	97.813586
1317.000000	97.818919
1316.000000	97.828282
1315.000000	97.838861
1314.000000	97.846936
1313.000000	97.852105
1312.000000	97.857756
1311.000000	97.866731
1310.000000	97.878500
1309.000000	97.891095
1308.000000	97.903645
1307.000000	97.916275
1306.000000	97.928650
1305.000000	97.940640
1304.000000	97.951698
1303.000000	97.959897
1302.000000	97.963228
1301.000000	97.962671
1300.000000	97.962462
1299.000000	97.966440
1298.000000	97.974706
1297.000000	97.984112
1296.000000	97.991477
1295.000000	97.995602
1294.000000	97.997001
1293.000000	97.996177
1292.000000	97.992442
1291.000000	97.984947
1290.000000	97.974720
1289.000000	97.964686
1288.000000	97.956807
1287.000000	97.949861
1286.000000	97.941108
1285.000000	97.929567
1284.000000	97.916685
1283.000000	97.904640
1282.000000	97.895070
1281.000000	97.889061
1280.000000	97.887285
1279.000000	97.889207
1278.000000	97.893231
1277.000000	97.897928
1276.000000	97.902694
1275.000000	97.907146
1274.000000	97.910734
1273.000000	97.913187
1272.000000	97.914709
1271.000000	97.915750
1270.000000	97.917009
1269.000000	97.919108
1268.000000	97.921229
1267.000000	97.920338
1266.000000	97.913579
1265.000000	97.901337
1264.000000	97.887170
1263.000000	97.874973
1262.000000	97.866726
1261.000000	97.862578
1260.000000	97.861642
1259.000000	97.861469
1258.000000	97.858287
1257.000000	97.849144
1256.000000	97.834589
1255.000000	97.818732
1254.000000	97.805661
1253.000000	97.795438
1252.000000	97.784630
1251.000000	97.771084
1250.000000	97.756703
1249.000000	97.744283
1248.000000	97.732719
1247.000000	97.717460
1246.000000	97.696079
1245.000000	97.671187
1244.000000	97.647532
1243.000000	97.627909
1242.000000	97.612202
1241.000000	97.598745
1240.000000	97.585908
1239.000000	97.573597
1238.000000	97.563520
1237.000000	97.557128
1236.000000	97.553483
1235.000000	97.551051
1234.000000	97.551672
1233.000000	97.559737
1232.000000	97.576514
1231.000000	97.597848
1230.000000	97.619354
1229.000000	97.641680
1228.000000	97.667755
1227.000000	97.697215
1226.000000	97.726881
1225.000000	97.755801
1224.000000	97.786496
1223.000000	97.820856
1222.000000	97.857689
1221.000000	97.894530
1220.000000	97.929653
1219.000000	97.961879
1218.000000	97.990329
1217.000000	98.014346
1216.000000	98.032461
1215.000000	98.042492
1214.000000	98.044229
1213.000000	98.041374
1212.000000	98.038624
1211.000000	98.037609
1210.000000	98.037421
1209.000000	98.037650
1208.000000	98.038489
1207.000000	98.038300
1206.000000	98.034028
1205.000000	98.024875
1204.000000	98.013977
1203.000000	98.005947
1202.000000	98.003852
1201.000000	98.008226
1200.000000	98.017085
1199.000000	98.026600
1198.000000	98.033786
1197.000000	98.039490
1196.000000	98.047697
1195.000000	98.061110
1194.000000	98.078418
1193.000000	98.096101
1192.000000	98.111786
1191.000000	98.125549
1190.000000	98.139014
1189.000000	98.153630
1188.000000	98.169123
1187.000000	98.183570
1186.000000	98.195540
1185.000000	98.205814
1184.000000	98.215941
1183.000000	98.225481
1182.000000	98.231785
1181.000000	98.232525
1180.000000	98.228127
1179.000000	98.221822
1178.000000	98.217822
1177.000000	98.218616
1176.000000	98.222680
1175.000000	98.225263
1174.000000	98.222734
1173.000000	98.216526
1172.000000	98.211672
1171.000000	98.211786
1170.000000	98.216480
1169.000000	98.223188
1168.000000	98.229616
1167.000000	98.234224
1166.000000	98.236251
1165.000000	98.236381
1164.000000	98.236635
1163.000000	98.239133
1162.000000	98.245254
1161.000000	98.255987
1160.000000	98.271917
1159.000000	98.292221
1158.000000	98.314524
1157.000000	98.336313
1156.000000	98.356352
1155.000000	98.374803
1154.000000	98.392641
1153.000000	98.410912
1152.000000	98.430036
1151.000000	98.450157
1150.000000	98.472248
1149.000000	98.497476
1148.000000	98.524077
1147.000000	98.546355
1146.000000	98.559479
1145.000000	98.565768
1144.000000	98.574338
1143.000000	98.593689
1142.000000	98.624968
1141.000000	98.662328
1140.000000	98.698599
1139.000000	98.730109
1138.000000	98.757133
1137.000000	98.780891
1136.000000	98.801281
1135.000000	98.818326
1134.000000	98.834780
1133.000000	98.854181
1132.000000	98.875598
1131.000000	98.892972
1130.000000	98.901954
1129.000000	98.905547
1128.000000	98.910113
1127.000000	98.917353
1126.000000	98.923275
1125.000000	98.924336
1124.000000	98.921383
1123.000000	98.916892
1122.000000	98.911387
1121.000000	98.903933
1120.000000	98.894109
1119.000000	98.881995
1118.000000	98.867174
1117.000000	98.849628
1116.000000	98.831423
1115.000000	98.815980
1114.000000	98.804867
1113.000000	98.795949
1112.000000	98.785857
1111.000000	98.774352
1110.000000	98.765464
1109.000000	98.763501
1108.000000	98.768142
1107.000000	98.774554
1106.000000	98.777538
1105.000000	98.774530
1104.000000	98.765395
1103.000000	98.751878
1102.000000	98.737966
1101.000000	98.728489
1100.000000	98.724382
1099.000000	98.722579
1098.000000	98.718828
1097.000000	98.711890
1096.000000	98.703050
1095.000000	98.693342
1094.000000	98.683209
1093.000000	98.674058
1092.000000	98.667453
1091.000000	98.662386
1090.000000	98.655095
1089.000000	98.642733
1088.000000	98.626303
1087.000000	98.609166
1086.000000	98.593341
1085.000000	98.578166
1084.000000	98.562527
1083.000000	98.547310
1082.000000	98.535087
1081.000000	98.527710
1080.000000	98.525242
1079.000000	98.527287
1078.000000	98.534191
1077.000000	98.546010
1076.000000	98.560625
1075.000000	98.574619
1074.000000	98.586480
1073.000000	98.597670
1072.000000	98.609478
1071.000000	98.619876
1070.000000	98.624988
1069.000000	98.623454
1068.000000	98.617854
1067.000000	98.611453
1066.000000	98.604924
1065.000000	98.597135
1064.000000	98.588742
1063.000000	98.583368
1062.000000	98.583935
1061.000000	98.588196
1060.000000	98.589521
1059.000000	98.583356
1058.000000	98.572155
1057.000000	98.562880
1056.000000	98.559952
1055.000000	98.561971
1054.000000	98.564670
1053.000000	98.564836
1052.000000	98.560489
1051.000000	98.549886
1050.000000	98.533654
1049.000000	98.517947
1048.000000	98.512215
1047.000000	98.521571
1046.000000	98.541258
1045.000000	98.560094
1044.000000	98.569751
1043.000000	98.570394
1042.000000	98.567588
1041.000000	98.564433
1040.000000	98.558128
1039.000000	98.544206
1038.000000	98.522812
1037.000000	98.499488
1036.000000	98.480341
1035.000000	98.467293
1034.000000	98.457087
1033.000000	98.444045
1032.000000	98.424749
1031.000000	98.402051
1030.000000	98.384449
1029.000000	98.380124
1028.000000	98.389986
1027.000000	98.406470
1026.000000	98.419522
1025.000000	98.424306
1024.000000	98.424067
1023.000000	98.425927
1022.000000	98.434032
1021.000000	98.446674
1020.000000	98.459913
1019.000000	98.472425
1018.000000	98.485091
1017.000000	98.496504
1016.000000	98.502766
1015.000000	98.503399
1014.000000	98.504954
1013.000000	98.515441
1012.000000	98.535908
1011.000000	98.559651
1010.000000	98.578551
1009.000000	98.588311
1008.000000	98.589539
1007.000000	98.587778
1006.000000	98.592138
1005.000000	98.609191
1004.000000	98.636201
1003.000000	98.662621
1002.000000	98.679871
1001.000000	98.688601
1000.000000	98.696461
999.000000	98.711244
998.000000	98.736015
997.000000	98.767547
996.000000	98.797435
995.000000	98.817246
994.000000	98.825143
993.000000	98.827135
992.000000	98.831417
991.000000	98.842555
990.000000	98.860052
989.000000	98.879262
988.000000	98.893151
987.000000	98.896894
986.000000	98.893167
985.000000	98.890774
984.000000	98.895964
983.000000	98.906614
982.000000	98.916014
981.000000	98.919877
980.000000	98.918367
979.000000	98.913533
978.000000	98.907520
977.000000	98.902386
976.000000	98.900155
975.000000	98.902960
974.000000	98.912416
973.000000	98.927122
972.000000	98.941594
971.000000	98.951171
970.000000	98.958296
969.000000	98.969872
968.000000	98.987625
967.000000	99.005441
966.000000	99.018155
965.000000	99.028452
964.000000	99.041416
963.000000	99.056559
962.000000	99.069570
961.000000	99.079196
960.000000	99.087799
959.000000	99.097054
958.000000	99.107672
957.000000	99.121828
956.000000	99.141118
955.000000	99.162040
954.000000	99.177459
953.000000	99.183135
952.000000	99.181214
951.000000	99.177910
950.000000	99.179437
949.000000	99.188467
948.000000	99.201788
947.000000	99.212553
946.000000	99.216882
945.000000	99.216532
944.000000	99.213636
943.000000	99.206787
942.000000	99.196131
941.000000	99.188830
940.000000	99.193204
939.000000	99.208570
938.000000	99.225707
937.000000	99.237377
936.000000	99.243602
935.000000	99.247269
934.000000	99.250564
933.000000	99.256816
932.000000	99.270121
931.000000	99.290066
930.000000	99.310033
929.000000	99.323084
928.000000	99.327829
927.000000	99.327840
926.000000	99.327962
925.000000	99.332055
924.000000	99.341111
923.000000	99.351408
922.000000	99.356436
921.000000	99.352551
920.000000	99.342380
919.000000	99.332924
918.000000	99.331488
917.000000	99.342200
916.000000	99.363354
915.000000	99.387467
914.000000	99.406303
913.000000	99.416895
912.000000	99.421398
911.000000	99.422298
910.000000	99.420747
909.000000	99.418810
908.000000	99.419483
907.000000	99.423282
906.000000	99.427555
905.000000	99.429718
904.000000	99.429236
903.000000	99.426758
902.000000	99.424633
901.000000	99.427857
900.000000	99.440181
899.000000	99.458194
898.000000	99.473173
897.000000	99.480704
896.000000	99.484372
895.000000	99.488537
894.000000	99.491680
893.000000	99.490802
892.000000	99.489086
891.000000	99.494299
890.000000	99.509080
889.000000	99.524738
888.000000	99.525251
887.000000	99.497150
886.000000	99.438637
885.000000	99.361247
884.000000	99.281407
883.000000	99.208547
882.000000	99.139161
881.000000	99.060926
880.000000	98.961166
879.000000	98.833882
878.000000	98.684003
877.000000	98.527453
876.000000	98.384242
875.000000	98.268534
874.000000	98.187379
873.000000	98.148566
872.000000	98.164475
871.000000	98.240779
870.000000	98.362778
869.000000	98.500153
868.000000	98.626146
867.000000	98.731600
866.000000	98.822676
865.000000	98.909016
864.000000	98.992935
863.000000	99.066384
862.000000	99.117903
861.000000	99.144946
860.000000	99.158485
859.000000	99.173819
858.000000	99.198107
857.000000	99.227573
856.000000	99.255012
855.000000	99.276885
854.000000	99.293827
853.000000	99.307606
852.000000	99.317987
851.000000	99.321765
850.000000	99.316075
849.000000	99.303912
848.000000	99.294853
847.000000	99.298144
846.000000	99.315693
845.000000	99.342586
844.000000	99.371436
843.000000	99.394287
842.000000	99.404472
841.000000	99.402134
840.000000	99.396622
839.000000	99.398824
838.000000	99.410928
837.000000	99.426536
836.000000	99.439270
835.000000	99.447034
834.000000	99.449471
833.000000	99.447311
832.000000	99.444856
831.000000	99.447498
830.000000	99.454899
829.000000	99.461608
828.000000	99.466647
827.000000	99.476805
826.000000	99.495856
825.000000	99.514913
824.000000	99.519735
823.000000	99.506752
822.000000	99.486740
821.000000	99.472960
820.000000	99.469578
819.000000	99.471205
818.000000	99.470119
817.000000	99.463354
816.000000	99.455114
815.000000	99.453169
814.000000	99.461944
813.000000	99.478340
812.000000	99.494202
811.000000	99.502390
810.000000	99.501248
809.000000	99.494988
808.000000	99.489952
807.000000	99.489231
806.000000	99.490356
805.000000	99.489158
804.000000	99.485235
803.000000	99.481479
802.000000	99.479007
801.000000	99.475988
800.000000	99.471995
799.000000	99.469628
798.000000	99.470119
797.000000	99.471142
796.000000	99.471657
795.000000	99.475508
794.000000	99.486041
793.000000	99.498856
792.000000	99.504477
791.000000	99.498795
790.000000	99.488202
789.000000	99.483157
788.000000	99.487765
787.000000	99.496104
786.000000	99.497869
785.000000	99.487928
784.000000	99.470834
783.000000	99.456181
782.000000	99.450298
781.000000	99.453258
780.000000	99.462380
779.000000	99.475124
778.000000	99.487949
777.000000	99.496170
776.000000	99.497861
775.000000	99.496072
774.000000	99.494799
773.000000	99.494247
772.000000	99.492259
771.000000	99.488640
770.000000	99.485178
769.000000	99.482332
768.000000	99.479251
767.000000	99.477466
766.000000	99.481327
765.000000	99.492810
764.000000	99.506928
763.000000	99.513990
762.000000	99.507432
761.000000	99.489956
760.000000	99.471530
759.000000	99.460091
758.000000	99.454301
757.000000	99.447023
756.000000	99.435547
755.000000	99.425620
754.000000	99.424179
753.000000	99.431116
752.000000	99.440376
751.000000	99.446819
750.000000	99.448970
749.000000	99.446353
748.000000	99.437849
747.000000	99.423380
746.000000	99.405266
745.000000	99.387538
744.000000	99.374742
743.000000	99.370490
742.000000	99.375334
741.000000	99.386257
740.000000	99.399427
739.000000	99.412321
738.000000	99.421888
737.000000	99.422760
736.000000	99.410531
735.000000	99.387161
734.000000	99.360753
733.000000	99.338867
732.000000	99.322855
731.000000	99.308654
730.000000	99.291834
729.000000	99.271914
728.000000	99.251773
727.000000	99.233288
726.000000	99.214653
725.000000	99.192617
724.000000	99.167103
723.000000	99.142224
722.000000	99.122859
721.000000	99.111448
720.000000	99.108366
719.000000	99.113191
718.000000	99.122316
717.000000	99.125226
716.000000	99.106510
715.000000	99.055740
714.000000	98.979118
713.000000	98.902239
712.000000	98.856801
711.000000	98.858920
710.000000	98.898863
709.000000	98.952638
708.000000	99.001810
707.000000	99.040624
706.000000	99.069000
705.000000	99.086406
704.000000	99.094707
703.000000	99.101305
702.000000	99.113817
701.000000	99.133335
700.000000	99.155942
699.000000	99.176286
698.000000	99.188610
697.000000	99.188958
696.000000	99.180258
695.000000	99.172712
694.000000	99.173693
693.000000	99.180364
692.000000	99.186448
691.000000	99.190838
690.000000	99.195212
689.000000	99.196800
688.000000	99.190834
687.000000	99.179937
686.000000	99.171843
685.000000	99.169355
684.000000	99.170068
683.000000	99.173713
682.000000	99.183260
681.000000	99.198061
680.000000	99.211700
679.000000	99.217201
678.000000	99.211425
677.000000	99.197658
676.000000	99.184464
675.000000	99.179953
674.000000	99.185280
673.000000	99.193524
672.000000	99.195161
671.000000	99.184101
670.000000	99.157740
669.000000	99.115697
668.000000	99.077033
667.000000	99.077521
666.000000	99.104090
665.000000	99.135214
664.000000	99.161021
663.000000	99.174834
662.000000	99.176151
661.000000	99.170656
660.000000	99.164041
659.000000	99.158267
658.000000	99.155391
657.000000	99.161490
656.000000	99.179429
655.000000	99.201231
654.000000	99.214106
653.000000	99.212861
652.000000	99.201611
651.000000	99.188378
650.000000	99.180906
649.000000	99.183296
648.000000	99.191268
647.000000	99.192823
646.000000	99.179150
645.000000	99.154031
644.000000	99.131233
643.000000	99.123116
642.000000	99.131149
641.000000	99.147418
640.000000	99.163482
639.000000	99.176568
638.000000	99.188201
637.000000	99.198914
636.000000	99.205795
635.000000	99.206849
634.000000	99.204889
633.000000	99.202929
632.000000	99.197331
631.000000	99.180846
630.000000	99.154124
629.000000	99.130110
628.000000	99.123143
627.000000	99.135159
626.000000	99.155206
625.000000	99.171678
624.000000	99.182030
623.000000	99.187356
622.000000	99.183740
621.000000	99.166319
620.000000	99.140355
619.000000	99.120987
618.000000	99.118375
617.000000	99.127157
616.000000	99.135959
615.000000	99.142418
614.000000	99.151396
613.000000	99.163264
612.000000	99.172785
611.000000	99.178831
610.000000	99.184399
609.000000	99.185342
608.000000	99.168488
607.000000	99.126693
606.000000	99.072677
605.000000	99.029598
604.000000	99.011459
603.000000	99.016669
602.000000	99.037552
601.000000	99.069939
600.000000	99.112762
599.000000	99.160102
598.000000	99.199183
597.000000	99.218950
596.000000	99.219478
595.000000	99.211344
594.000000	99.205037
593.000000	99.202553
592.000000	99.200573
591.000000	99.198364
590.000000	99.196707
589.000000	99.192415
588.000000	99.181909
587.000000	99.170853
586.000000	99.171612
585.000000	99.186419
584.000000	99.201635
583.000000	99.203851
582.000000	99.196653
581.000000	99.194465
580.000000	99.205249
579.000000	99.224073
578.000000	99.241630
577.000000	99.249841
576.000000	99.241620
575.000000	99.217241
574.000000	99.188295
573.000000	99.165521
572.000000	99.145527
571.000000	99.118747
570.000000	99.087475
569.000000	99.067873
568.000000	99.070606
567.000000	99.087974
566.000000	99.104458
565.000000	99.112886
564.000000	99.116996
563.000000	99.123018
562.000000	99.133662
561.000000	99.146200
560.000000	99.155266
559.000000	99.159352
558.000000	99.162991
557.000000	99.168262
556.000000	99.168717
555.000000	99.158823
554.000000	99.145142
553.000000	99.139744
552.000000	99.145659
551.000000	99.158162
550.000000	99.177871
549.000000	99.210597
548.000000	99.250818
547.000000	99.279147
546.000000	99.283980
545.000000	99.277039
544.000000	99.277194
543.000000	99.288615
542.000000	99.304058
541.000000	99.320199
540.000000	99.338630
539.000000	99.354867
538.000000	99.357360
537.000000	99.337895
536.000000	99.297850
535.000000	99.244733
534.000000	99.189278
533.000000	99.139667
532.000000	99.098160
531.000000	99.064401
530.000000	99.042318
529.000000	99.040421
528.000000	99.063673
527.000000	99.103980
526.000000	99.143390
525.000000	99.172443
524.000000	99.196491
523.000000	99.219320
522.000000	99.231520
521.000000	99.220488
520.000000	99.191492
519.000000	99.175201
518.000000	99.205990
517.000000	99.283535
516.000000	99.362160
515.000000	99.391785
514.000000	99.363649
513.000000	99.313213
512.000000	99.285996
511.000000	99.301909
510.000000	99.349043
509.000000	99.403948
508.000000	99.449079
507.000000	99.469521
506.000000	99.455871
505.000000	99.418997
504.000000	99.383983
503.000000	99.367699
502.000000	99.367200
501.000000	99.373812
500.000000	99.391239
499.000000	99.424716
498.000000	99.464413
497.000000	99.492509
496.000000	99.502304
495.000000	99.498183
494.000000	99.478459
493.000000	99.438120
492.000000	99.389203
491.000000	99.355176
490.000000	99.341572
489.000000	99.326936
488.000000	99.293249
487.000000	99.249247
486.000000	99.219523
485.000000	99.220231
484.000000	99.247182
483.000000	99.280729
482.000000	99.300522
481.000000	99.303432
480.000000	99.305740
479.000000	99.323844
478.000000	99.357737
477.000000	99.394962
476.000000	99.427676
475.000000	99.455597
474.000000	99.475861
473.000000	99.477522
472.000000	99.454843
471.000000	99.414738
470.000000	99.370748
469.000000	99.339424
468.000000	99.345880
467.000000	99.406035
466.000000	99.491719
465.000000	99.546733
464.000000	99.546006
463.000000	99.514239
462.000000	99.487522
461.000000	99.472642
460.000000	99.460832
459.000000	99.466355
458.000000	99.510359
457.000000	99.559125
456.000000	99.548052
455.000000	99.475581
454.000000	99.399128
453.000000	99.368602
452.000000	99.391990
451.000000	99.449294
450.000000	99.523823
