PE IR       SUBTECH     SPECTRUM    ASCII       PEDS        4.00        
   -1
Trigon_clear-C002_1.ASC
23/09/08
15:14:37.00
23/09/08
15:20:53.00
uco
Sample 002 By uco Date Friday, September 08 2023
450.000000
#HDR
-1
-1
#GR
cm-1
%T
1.0
0.0
4000.000000
-1.000000
3551
8
98.761543
94.075003
#DATA
4000.000000	98.697986
3999.000000	98.699571
3998.000000	98.695422
3997.000000	98.693893
3996.000000	98.692760
3995.000000	98.692913
3994.000000	98.694139
3993.000000	98.695033
3992.000000	98.693947
3991.000000	98.690471
3990.000000	98.686143
3989.000000	98.683240
3988.000000	98.682452
3987.000000	98.681860
3986.000000	98.678762
3985.000000	98.672700
3984.000000	98.666246
3983.000000	98.662570
3982.000000	98.662348
3981.000000	98.663266
3980.000000	98.662396
3979.000000	98.658893
3978.000000	98.654355
3977.000000	98.651230
3976.000000	98.651236
3975.000000	98.654649
3974.000000	98.660518
3973.000000	98.667120
3972.000000	98.672591
3971.000000	98.675630
3970.000000	98.676090
3969.000000	98.675236
3968.000000	98.674770
3967.000000	98.675285
3966.000000	98.675677
3965.000000	98.674317
3964.000000	98.670930
3963.000000	98.667069
3962.000000	98.664558
3961.000000	98.663633
3960.000000	98.663156
3959.000000	98.662078
3958.000000	98.660090
3957.000000	98.657495
3956.000000	98.654708
3955.000000	98.652195
3954.000000	98.650415
3953.000000	98.649434
3952.000000	98.648901
3951.000000	98.648364
3950.000000	98.647871
3949.000000	98.647912
3948.000000	98.648594
3947.000000	98.649338
3946.000000	98.649312
3945.000000	98.648225
3944.000000	98.646649
3943.000000	98.645443
3942.000000	98.645272
3941.000000	98.645973
3940.000000	98.646994
3939.000000	98.648245
3938.000000	98.649829
3937.000000	98.651917
3936.000000	98.654566
3935.000000	98.657886
3934.000000	98.662164
3933.000000	98.666874
3932.000000	98.670142
3931.000000	98.669222
3930.000000	98.662868
3929.000000	98.652465
3928.000000	98.640100
3927.000000	98.628092
3926.000000	98.618823
3925.000000	98.613894
3924.000000	98.613248
3923.000000	98.615562
3922.000000	98.619786
3921.000000	98.625830
3920.000000	98.633403
3919.000000	98.641043
3918.000000	98.646694
3917.000000	98.649876
3916.000000	98.652621
3915.000000	98.656394
3914.000000	98.659391
3913.000000	98.657878
3912.000000	98.650496
3911.000000	98.640525
3910.000000	98.633331
3909.000000	98.631843
3908.000000	98.634923
3907.000000	98.639863
3906.000000	98.645811
3905.000000	98.653944
3904.000000	98.663819
3903.000000	98.670875
3902.000000	98.670177
3901.000000	98.662588
3900.000000	98.653518
3899.000000	98.647583
3898.000000	98.645451
3897.000000	98.644803
3896.000000	98.643883
3895.000000	98.642888
3894.000000	98.642681
3893.000000	98.644289
3892.000000	98.648265
3891.000000	98.653896
3890.000000	98.659697
3889.000000	98.664572
3888.000000	98.667961
3887.000000	98.669185
3886.000000	98.667833
3885.000000	98.664474
3884.000000	98.659626
3883.000000	98.653549
3882.000000	98.646300
3881.000000	98.639887
3880.000000	98.637679
3879.000000	98.639462
3878.000000	98.640535
3877.000000	98.636559
3876.000000	98.626606
3875.000000	98.614636
3874.000000	98.607562
3873.000000	98.608613
3872.000000	98.614722
3871.000000	98.620718
3870.000000	98.624679
3869.000000	98.628590
3868.000000	98.633634
3867.000000	98.638100
3866.000000	98.639704
3865.000000	98.638402
3864.000000	98.637374
3863.000000	98.639308
3862.000000	98.642752
3861.000000	98.644357
3860.000000	98.642142
3859.000000	98.637367
3858.000000	98.632826
3857.000000	98.630218
3856.000000	98.629312
3855.000000	98.629488
3854.000000	98.634505
3853.000000	98.644846
3852.000000	98.651337
3851.000000	98.651475
3850.000000	98.648901
3849.000000	98.645060
3848.000000	98.640028
3847.000000	98.633975
3846.000000	98.627296
3845.000000	98.621286
3844.000000	98.619048
3843.000000	98.623214
3842.000000	98.632771
3841.000000	98.643559
3840.000000	98.651043
3839.000000	98.653729
3838.000000	98.653811
3837.000000	98.654359
3836.000000	98.656656
3835.000000	98.659422
3834.000000	98.660492
3833.000000	98.658472
3832.000000	98.652902
3831.000000	98.644666
3830.000000	98.634992
3829.000000	98.624390
3828.000000	98.613760
3827.000000	98.606696
3826.000000	98.607856
3825.000000	98.618348
3824.000000	98.633715
3823.000000	98.645163
3822.000000	98.645811
3821.000000	98.637204
3820.000000	98.628029
3819.000000	98.624661
3818.000000	98.625498
3817.000000	98.625161
3816.000000	98.618693
3815.000000	98.607012
3814.000000	98.595628
3813.000000	98.588955
3812.000000	98.588163
3811.000000	98.592972
3810.000000	98.602750
3809.000000	98.615619
3808.000000	98.628523
3807.000000	98.638108
3806.000000	98.643225
3805.000000	98.645519
3804.000000	98.646301
3803.000000	98.644664
3802.000000	98.639214
3801.000000	98.630814
3800.000000	98.624318
3799.000000	98.622154
3798.000000	98.622162
3797.000000	98.620964
3796.000000	98.617084
3795.000000	98.610451
3794.000000	98.601673
3793.000000	98.592038
3792.000000	98.583610
3791.000000	98.578556
3790.000000	98.577898
3789.000000	98.580534
3788.000000	98.583641
3787.000000	98.584896
3786.000000	98.584263
3785.000000	98.583853
3784.000000	98.585619
3783.000000	98.589771
3782.000000	98.595037
3781.000000	98.600611
3780.000000	98.606542
3779.000000	98.611905
3778.000000	98.614134
3777.000000	98.611778
3776.000000	98.606703
3775.000000	98.602575
3774.000000	98.602079
3773.000000	98.604693
3772.000000	98.607594
3771.000000	98.608643
3770.000000	98.608795
3769.000000	98.611108
3768.000000	98.615949
3767.000000	98.619893
3766.000000	98.619465
3765.000000	98.614865
3764.000000	98.610297
3763.000000	98.610167
3762.000000	98.615104
3761.000000	98.622299
3760.000000	98.627415
3759.000000	98.627592
3758.000000	98.623467
3757.000000	98.618300
3756.000000	98.615650
3755.000000	98.617767
3754.000000	98.627344
3753.000000	98.648405
3752.000000	98.681156
3751.000000	98.714057
3750.000000	98.730207
3749.000000	98.728063
3748.000000	98.718610
3747.000000	98.707977
3746.000000	98.693983
3745.000000	98.672667
3744.000000	98.647981
3743.000000	98.628907
3742.000000	98.620773
3741.000000	98.623516
3740.000000	98.632924
3739.000000	98.643984
3738.000000	98.652187
3737.000000	98.654435
3736.000000	98.651920
3735.000000	98.649146
3734.000000	98.649659
3733.000000	98.650144
3732.000000	98.644253
3731.000000	98.632172
3730.000000	98.620439
3729.000000	98.614839
3728.000000	98.615198
3727.000000	98.615708
3726.000000	98.610078
3725.000000	98.597527
3724.000000	98.583474
3723.000000	98.574045
3722.000000	98.571885
3721.000000	98.575140
3720.000000	98.579518
3719.000000	98.583095
3718.000000	98.587706
3717.000000	98.595754
3716.000000	98.607018
3715.000000	98.618022
3714.000000	98.625149
3713.000000	98.627420
3712.000000	98.626428
3711.000000	98.624298
3710.000000	98.622545
3709.000000	98.621823
3708.000000	98.620311
3707.000000	98.616094
3706.000000	98.610404
3705.000000	98.605889
3704.000000	98.603529
3703.000000	98.602037
3702.000000	98.599038
3701.000000	98.594596
3700.000000	98.591425
3699.000000	98.592398
3698.000000	98.598344
3697.000000	98.607219
3696.000000	98.615423
3695.000000	98.620066
3694.000000	98.620491
3693.000000	98.617891
3692.000000	98.615004
3691.000000	98.614730
3690.000000	98.617438
3689.000000	98.619329
3688.000000	98.617406
3687.000000	98.613016
3686.000000	98.608729
3685.000000	98.606572
3684.000000	98.608101
3683.000000	98.613930
3682.000000	98.622014
3681.000000	98.629006
3680.000000	98.632978
3679.000000	98.634235
3678.000000	98.634266
3677.000000	98.634102
3676.000000	98.633617
3675.000000	98.633223
3674.000000	98.634967
3673.000000	98.638270
3672.000000	98.641657
3671.000000	98.644157
3670.000000	98.645422
3669.000000	98.646424
3668.000000	98.647684
3667.000000	98.647226
3666.000000	98.643367
3665.000000	98.636372
3664.000000	98.628318
3663.000000	98.621295
3662.000000	98.616095
3661.000000	98.612375
3660.000000	98.610084
3659.000000	98.609907
3658.000000	98.612821
3657.000000	98.619245
3656.000000	98.628191
3655.000000	98.637437
3654.000000	98.645437
3653.000000	98.651286
3652.000000	98.655049
3651.000000	98.660180
3650.000000	98.669856
3649.000000	98.675755
3648.000000	98.666603
3647.000000	98.647552
3646.000000	98.629843
3645.000000	98.618327
3644.000000	98.613379
3643.000000	98.614428
3642.000000	98.619652
3641.000000	98.625675
3640.000000	98.628973
3639.000000	98.628042
3638.000000	98.625493
3637.000000	98.625974
3636.000000	98.632133
3635.000000	98.642582
3634.000000	98.653838
3633.000000	98.664194
3632.000000	98.674323
3631.000000	98.684259
3630.000000	98.691903
3629.000000	98.693827
3628.000000	98.687246
3627.000000	98.674001
3626.000000	98.658213
3625.000000	98.644194
3624.000000	98.635837
3623.000000	98.635430
3622.000000	98.641651
3621.000000	98.649229
3620.000000	98.652268
3619.000000	98.649941
3618.000000	98.647220
3617.000000	98.649005
3616.000000	98.656031
3615.000000	98.665576
3614.000000	98.674029
3613.000000	98.679894
3612.000000	98.684451
3611.000000	98.688150
3610.000000	98.688730
3609.000000	98.682722
3608.000000	98.669770
3607.000000	98.654548
3606.000000	98.641896
3605.000000	98.633135
3604.000000	98.627495
3603.000000	98.625457
3602.000000	98.628499
3601.000000	98.635882
3600.000000	98.643277
3599.000000	98.645918
3598.000000	98.642349
3597.000000	98.635033
3596.000000	98.629468
3595.000000	98.630711
3594.000000	98.640072
3593.000000	98.653965
3592.000000	98.666982
3591.000000	98.674436
3590.000000	98.673375
3589.000000	98.663625
3588.000000	98.650349
3587.000000	98.641627
3586.000000	98.641938
3585.000000	98.648782
3584.000000	98.656372
3583.000000	98.660315
3582.000000	98.658936
3581.000000	98.653032
3580.000000	98.645881
3579.000000	98.641060
3578.000000	98.639221
3577.000000	98.636974
3576.000000	98.630649
3575.000000	98.621112
3574.000000	98.613989
3573.000000	98.614602
3572.000000	98.622600
3571.000000	98.631879
3570.000000	98.635114
3569.000000	98.629226
3568.000000	98.618214
3567.000000	98.609927
3566.000000	98.609182
3565.000000	98.615399
3564.000000	98.624476
3563.000000	98.632143
3562.000000	98.636169
3561.000000	98.636661
3560.000000	98.635022
3559.000000	98.632821
3558.000000	98.630769
3557.000000	98.628749
3556.000000	98.626246
3555.000000	98.622934
3554.000000	98.619389
3553.000000	98.617682
3552.000000	98.620199
3551.000000	98.626784
3550.000000	98.633739
3549.000000	98.636743
3548.000000	98.634972
3547.000000	98.631741
3546.000000	98.630474
3545.000000	98.630539
3544.000000	98.629212
3543.000000	98.626105
3542.000000	98.623566
3541.000000	98.623282
3540.000000	98.624182
3539.000000	98.624202
3538.000000	98.623019
3537.000000	98.622094
3536.000000	98.622427
3535.000000	98.623368
3534.000000	98.624503
3533.000000	98.626958
3532.000000	98.632324
3531.000000	98.640625
3530.000000	98.649861
3529.000000	98.657381
3528.000000	98.661479
3527.000000	98.662203
3526.000000	98.661312
3525.000000	98.660787
3524.000000	98.660772
3523.000000	98.659235
3522.000000	98.654469
3521.000000	98.647685
3520.000000	98.642311
3519.000000	98.640796
3518.000000	98.642555
3517.000000	98.644759
3516.000000	98.645467
3515.000000	98.645231
3514.000000	98.646129
3513.000000	98.649158
3512.000000	98.652879
3511.000000	98.654682
3510.000000	98.653797
3509.000000	98.652545
3508.000000	98.654101
3507.000000	98.659557
3506.000000	98.667681
3505.000000	98.676848
3504.000000	98.685609
3503.000000	98.691921
3502.000000	98.693574
3501.000000	98.689818
3500.000000	98.681902
3499.000000	98.672243
3498.000000	98.663724
3497.000000	98.658874
3496.000000	98.658693
3495.000000	98.661922
3494.000000	98.665964
3493.000000	98.668730
3492.000000	98.669416
3491.000000	98.668127
3490.000000	98.665889
3489.000000	98.664784
3488.000000	98.666737
3487.000000	98.671299
3486.000000	98.675240
3485.000000	98.675178
3484.000000	98.670735
3483.000000	98.665073
3482.000000	98.662709
3481.000000	98.666553
3480.000000	98.676419
3479.000000	98.689722
3478.000000	98.703029
3477.000000	98.712945
3476.000000	98.716201
3475.000000	98.710767
3474.000000	98.698327
3473.000000	98.684936
3472.000000	98.677332
3471.000000	98.677649
3470.000000	98.682370
3469.000000	98.686806
3468.000000	98.689463
3467.000000	98.691542
3466.000000	98.693294
3465.000000	98.692727
3464.000000	98.688031
3463.000000	98.680127
3462.000000	98.672497
3461.000000	98.668683
3460.000000	98.669930
3459.000000	98.674712
3458.000000	98.680502
3457.000000	98.686225
3456.000000	98.692583
3455.000000	98.699492
3454.000000	98.704475
3453.000000	98.704503
3452.000000	98.699318
3451.000000	98.691585
3450.000000	98.684151
3449.000000	98.678565
3448.000000	98.675923
3447.000000	98.677383
3446.000000	98.683133
3445.000000	98.691640
3444.000000	98.700262
3443.000000	98.705942
3442.000000	98.705765
3441.000000	98.698775
3440.000000	98.687636
3439.000000	98.677380
3438.000000	98.671821
3437.000000	98.671242
3436.000000	98.673234
3435.000000	98.674648
3434.000000	98.673301
3433.000000	98.669148
3432.000000	98.664796
3431.000000	98.663692
3430.000000	98.667188
3429.000000	98.673744
3428.000000	98.680763
3427.000000	98.686224
3426.000000	98.688372
3425.000000	98.685564
3424.000000	98.677460
3423.000000	98.665801
3422.000000	98.653362
3421.000000	98.642570
3420.000000	98.635225
3419.000000	98.632357
3418.000000	98.633467
3417.000000	98.636593
3416.000000	98.640074
3415.000000	98.644058
3414.000000	98.649695
3413.000000	98.657104
3412.000000	98.664643
3411.000000	98.669880
3410.000000	98.670743
3409.000000	98.666244
3408.000000	98.657071
3407.000000	98.645815
3406.000000	98.635939
3405.000000	98.629888
3404.000000	98.627859
3403.000000	98.628010
3402.000000	98.627795
3401.000000	98.625331
3400.000000	98.620331
3399.000000	98.614041
3398.000000	98.608260
3397.000000	98.604293
3396.000000	98.602694
3395.000000	98.603648
3394.000000	98.607037
3393.000000	98.612007
3392.000000	98.616905
3391.000000	98.620115
3390.000000	98.620838
3389.000000	98.619120
3388.000000	98.615673
3387.000000	98.611788
3386.000000	98.608815
3385.000000	98.606900
3384.000000	98.604350
3383.000000	98.598923
3382.000000	98.590053
3381.000000	98.579411
3380.000000	98.569339
3379.000000	98.561066
3378.000000	98.554586
3377.000000	98.549623
3376.000000	98.545925
3375.000000	98.542808
3374.000000	98.539222
3373.000000	98.534917
3372.000000	98.531240
3371.000000	98.530155
3370.000000	98.532057
3369.000000	98.534707
3368.000000	98.534467
3367.000000	98.528842
3366.000000	98.518144
3365.000000	98.505190
3364.000000	98.493564
3363.000000	98.485805
3362.000000	98.482398
3361.000000	98.481776
3360.000000	98.481241
3359.000000	98.478380
3358.000000	98.472327
3357.000000	98.464231
3356.000000	98.456731
3355.000000	98.452669
3354.000000	98.453580
3353.000000	98.458682
3352.000000	98.464955
3351.000000	98.468666
3350.000000	98.467562
3349.000000	98.462001
3348.000000	98.453812
3347.000000	98.444168
3346.000000	98.432942
3345.000000	98.420115
3344.000000	98.407267
3343.000000	98.397020
3342.000000	98.391125
3341.000000	98.389498
3340.000000	98.390894
3339.000000	98.393893
3338.000000	98.396981
3337.000000	98.398139
3336.000000	98.395154
3335.000000	98.386862
3334.000000	98.374106
3333.000000	98.359179
3332.000000	98.344268
3331.000000	98.330673
3330.000000	98.319595
3329.000000	98.312815
3328.000000	98.311386
3327.000000	98.313474
3326.000000	98.314689
3325.000000	98.311415
3324.000000	98.303599
3323.000000	98.293783
3322.000000	98.284158
3321.000000	98.275456
3320.000000	98.268020
3319.000000	98.262450
3318.000000	98.258866
3317.000000	98.256282
3316.000000	98.253378
3315.000000	98.249525
3314.000000	98.244737
3313.000000	98.239000
3312.000000	98.232059
3311.000000	98.223843
3310.000000	98.215017
3309.000000	98.207023
3308.000000	98.201348
3307.000000	98.198460
3306.000000	98.197411
3305.000000	98.196618
3304.000000	98.194819
3303.000000	98.191169
3302.000000	98.184949
3301.000000	98.175949
3300.000000	98.165266
3299.000000	98.154997
3298.000000	98.146763
3297.000000	98.140637
3296.000000	98.135817
3295.000000	98.132069
3294.000000	98.129950
3293.000000	98.129558
3292.000000	98.129595
3291.000000	98.128294
3290.000000	98.125292
3289.000000	98.121924
3288.000000	98.119308
3287.000000	98.116718
3286.000000	98.112477
3285.000000	98.106065
3284.000000	98.098612
3283.000000	98.091669
3282.000000	98.086373
3281.000000	98.083666
3280.000000	98.083839
3279.000000	98.085473
3278.000000	98.086323
3277.000000	98.086030
3276.000000	98.086887
3275.000000	98.090628
3274.000000	98.095410
3273.000000	98.097511
3272.000000	98.095566
3271.000000	98.091729
3270.000000	98.088777
3269.000000	98.087609
3268.000000	98.087783
3267.000000	98.089129
3266.000000	98.092014
3265.000000	98.096266
3264.000000	98.100272
3263.000000	98.101410
3262.000000	98.097966
3261.000000	98.091462
3260.000000	98.086666
3259.000000	98.088191
3258.000000	98.096622
3257.000000	98.108237
3256.000000	98.118142
3255.000000	98.123314
3254.000000	98.123460
3253.000000	98.120379
3252.000000	98.116786
3251.000000	98.114576
3250.000000	98.113752
3249.000000	98.113430
3248.000000	98.113647
3247.000000	98.115323
3246.000000	98.118711
3245.000000	98.123079
3244.000000	98.128079
3243.000000	98.133890
3242.000000	98.139539
3241.000000	98.142643
3240.000000	98.141920
3239.000000	98.139132
3238.000000	98.137275
3237.000000	98.137418
3236.000000	98.138231
3235.000000	98.138320
3234.000000	98.137961
3233.000000	98.138376
3232.000000	98.140020
3231.000000	98.141709
3230.000000	98.141428
3229.000000	98.138207
3228.000000	98.133316
3227.000000	98.129312
3226.000000	98.127733
3225.000000	98.128073
3224.000000	98.128999
3223.000000	98.129947
3222.000000	98.131282
3221.000000	98.133488
3220.000000	98.136386
3219.000000	98.138774
3218.000000	98.138827
3217.000000	98.135801
3216.000000	98.131534
3215.000000	98.129299
3214.000000	98.130594
3213.000000	98.133999
3212.000000	98.137612
3211.000000	98.141385
3210.000000	98.146045
3209.000000	98.150948
3208.000000	98.154374
3207.000000	98.155482
3206.000000	98.154736
3205.000000	98.152843
3204.000000	98.150359
3203.000000	98.148078
3202.000000	98.146523
3201.000000	98.145105
3200.000000	98.142570
3199.000000	98.138541
3198.000000	98.134040
3197.000000	98.130547
3196.000000	98.128923
3195.000000	98.128959
3194.000000	98.129468
3193.000000	98.128956
3192.000000	98.126758
3191.000000	98.123449
3190.000000	98.120022
3189.000000	98.117058
3188.000000	98.114664
3187.000000	98.112454
3186.000000	98.109297
3185.000000	98.104602
3184.000000	98.100542
3183.000000	98.101449
3182.000000	98.109372
3181.000000	98.120932
3180.000000	98.130211
3179.000000	98.133991
3178.000000	98.133019
3177.000000	98.129118
3176.000000	98.123653
3175.000000	98.118956
3174.000000	98.118430
3173.000000	98.123620
3172.000000	98.132153
3171.000000	98.139666
3170.000000	98.143355
3169.000000	98.143331
3168.000000	98.141725
3167.000000	98.141113
3166.000000	98.142889
3165.000000	98.146199
3164.000000	98.148879
3163.000000	98.149869
3162.000000	98.150055
3161.000000	98.150255
3160.000000	98.149491
3159.000000	98.146332
3158.000000	98.141518
3157.000000	98.137918
3156.000000	98.137712
3155.000000	98.140367
3154.000000	98.143756
3153.000000	98.146576
3152.000000	98.149153
3151.000000	98.152218
3150.000000	98.155766
3149.000000	98.159352
3148.000000	98.162905
3147.000000	98.166536
3146.000000	98.169484
3145.000000	98.169834
3144.000000	98.165797
3143.000000	98.157626
3142.000000	98.148399
3141.000000	98.142645
3140.000000	98.143346
3139.000000	98.149530
3138.000000	98.156815
3137.000000	98.161038
3136.000000	98.161625
3135.000000	98.161441
3134.000000	98.163530
3133.000000	98.168440
3132.000000	98.174349
3131.000000	98.178722
3130.000000	98.179720
3129.000000	98.177294
3128.000000	98.173650
3127.000000	98.171741
3126.000000	98.172392
3125.000000	98.173605
3124.000000	98.173194
3123.000000	98.171180
3122.000000	98.168811
3121.000000	98.166313
3120.000000	98.163106
3119.000000	98.159747
3118.000000	98.158054
3117.000000	98.158951
3116.000000	98.161131
3115.000000	98.162483
3114.000000	98.162375
3113.000000	98.162116
3112.000000	98.163284
3111.000000	98.165818
3110.000000	98.167959
3109.000000	98.168211
3108.000000	98.166968
3107.000000	98.165494
3106.000000	98.163784
3105.000000	98.160714
3104.000000	98.156173
3103.000000	98.151691
3102.000000	98.148449
3101.000000	98.146035
3100.000000	98.143704
3099.000000	98.141562
3098.000000	98.139710
3097.000000	98.137564
3096.000000	98.135099
3095.000000	98.133529
3094.000000	98.133472
3093.000000	98.133347
3092.000000	98.131198
3091.000000	98.127394
3090.000000	98.124138
3089.000000	98.122675
3088.000000	98.122308
3087.000000	98.121748
3086.000000	98.119984
3085.000000	98.116313
3084.000000	98.111104
3083.000000	98.106787
3082.000000	98.106451
3081.000000	98.110832
3080.000000	98.117454
3079.000000	98.122915
3078.000000	98.125330
3077.000000	98.124661
3076.000000	98.122028
3075.000000	98.118862
3074.000000	98.115836
3073.000000	98.112242
3072.000000	98.107198
3071.000000	98.101407
3070.000000	98.096815
3069.000000	98.094519
3068.000000	98.093883
3067.000000	98.093602
3066.000000	98.092544
3065.000000	98.089673
3064.000000	98.084736
3063.000000	98.079551
3062.000000	98.077142
3061.000000	98.078770
3060.000000	98.082656
3059.000000	98.086279
3058.000000	98.088879
3057.000000	98.090921
3056.000000	98.092299
3055.000000	98.092474
3054.000000	98.091987
3053.000000	98.092286
3052.000000	98.093928
3051.000000	98.095802
3050.000000	98.096224
3049.000000	98.094418
3048.000000	98.090962
3047.000000	98.087269
3046.000000	98.084429
3045.000000	98.082172
3044.000000	98.079369
3043.000000	98.076090
3042.000000	98.074596
3041.000000	98.077293
3040.000000	98.083787
3039.000000	98.090860
3038.000000	98.095191
3037.000000	98.095312
3036.000000	98.091325
3035.000000	98.084486
3034.000000	98.077659
3033.000000	98.074603
3032.000000	98.077019
3031.000000	98.082334
3030.000000	98.085626
3029.000000	98.084139
3028.000000	98.079414
3027.000000	98.075055
3026.000000	98.073196
3025.000000	98.073436
3024.000000	98.074414
3023.000000	98.075607
3022.000000	98.077481
3021.000000	98.080424
3020.000000	98.083558
3019.000000	98.084490
3018.000000	98.080598
3017.000000	98.071386
3016.000000	98.059449
3015.000000	98.048302
3014.000000	98.039000
3013.000000	98.029788
3012.000000	98.019362
3011.000000	98.009317
3010.000000	98.002263
3009.000000	97.998302
3008.000000	97.994934
3007.000000	97.990398
3006.000000	97.985647
3005.000000	97.982495
3004.000000	97.980882
3003.000000	97.978963
3002.000000	97.975488
3001.000000	97.971281
3000.000000	97.968424
2999.000000	97.968677
2998.000000	97.972387
2997.000000	97.978268
2996.000000	97.983871
2995.000000	97.986754
2994.000000	97.985734
2993.000000	97.981217
2992.000000	97.974500
2991.000000	97.966641
2990.000000	97.957795
2989.000000	97.947234
2988.000000	97.934153
2987.000000	97.918749
2986.000000	97.902428
2985.000000	97.886638
2984.000000	97.871321
2983.000000	97.854777
2982.000000	97.835338
2981.000000	97.813187
2980.000000	97.790395
2979.000000	97.768964
2978.000000	97.748720
2977.000000	97.727233
2976.000000	97.701750
2975.000000	97.671294
2974.000000	97.636791
2973.000000	97.599259
2972.000000	97.558194
2971.000000	97.511906
2970.000000	97.459560
2969.000000	97.402630
2968.000000	97.344179
2967.000000	97.286754
2966.000000	97.230921
2965.000000	97.175764
2964.000000	97.120265
2963.000000	97.064237
2962.000000	97.008477
2961.000000	96.954632
2960.000000	96.904679
2959.000000	96.859771
2958.000000	96.819636
2957.000000	96.783549
2956.000000	96.752195
2955.000000	96.727941
2954.000000	96.713008
2953.000000	96.707791
2952.000000	96.710722
2951.000000	96.718897
2950.000000	96.727858
2949.000000	96.731877
2948.000000	96.725911
2947.000000	96.707831
2946.000000	96.678399
2945.000000	96.639104
2944.000000	96.590935
2943.000000	96.534629
2942.000000	96.470857
2941.000000	96.399255
2940.000000	96.318172
2939.000000	96.226173
2938.000000	96.123213
2937.000000	96.009878
2936.000000	95.885879
2935.000000	95.750767
2934.000000	95.606447
2933.000000	95.458006
2932.000000	95.311029
2931.000000	95.167739
2930.000000	95.026134
2929.000000	94.883119
2928.000000	94.738701
2927.000000	94.597663
2926.000000	94.467267
2925.000000	94.353492
2924.000000	94.258636
2923.000000	94.182306
2922.000000	94.124391
2921.000000	94.087110
2920.000000	94.075003
2919.000000	94.093126
2918.000000	94.145814
2917.000000	94.236271
2916.000000	94.365825
2915.000000	94.532042
2914.000000	94.726324
2913.000000	94.934250
2912.000000	95.139433
2911.000000	95.329122
2910.000000	95.496906
2909.000000	95.641529
2908.000000	95.764801
2907.000000	95.870497
2906.000000	95.963700
2905.000000	96.048510
2904.000000	96.125964
2903.000000	96.194531
2902.000000	96.253343
2901.000000	96.304297
2900.000000	96.352143
2899.000000	96.401240
2898.000000	96.452951
2897.000000	96.505391
2896.000000	96.555717
2895.000000	96.602786
2894.000000	96.647851
2893.000000	96.692780
2892.000000	96.738026
2891.000000	96.782470
2890.000000	96.824887
2889.000000	96.864936
2888.000000	96.902533
2887.000000	96.936730
2886.000000	96.966110
2885.000000	96.990648
2884.000000	97.012597
2883.000000	97.034331
2882.000000	97.054774
2881.000000	97.068850
2880.000000	97.071603
2879.000000	97.063146
2878.000000	97.048974
2877.000000	97.035327
2876.000000	97.024276
2875.000000	97.013244
2874.000000	96.998725
2873.000000	96.980285
2872.000000	96.961243
2871.000000	96.945547
2870.000000	96.933971
2869.000000	96.923275
2868.000000	96.908838
2867.000000	96.887094
2866.000000	96.855244
2865.000000	96.810240
2864.000000	96.749946
2863.000000	96.675140
2862.000000	96.588302
2861.000000	96.489987
2860.000000	96.378309
2859.000000	96.253160
2858.000000	96.119399
2857.000000	95.984405
2856.000000	95.853377
2855.000000	95.728657
2854.000000	95.613807
2853.000000	95.516529
2852.000000	95.447769
2851.000000	95.419966
2850.000000	95.445358
2849.000000	95.532753
2848.000000	95.681404
2847.000000	95.877104
2846.000000	96.095603
2845.000000	96.312437
2844.000000	96.511006
2843.000000	96.684385
2842.000000	96.831908
2841.000000	96.955355
2840.000000	97.058072
2839.000000	97.144706
2838.000000	97.219747
2837.000000	97.285804
2836.000000	97.343733
2835.000000	97.394238
2834.000000	97.438681
2833.000000	97.478242
2832.000000	97.513334
2831.000000	97.544210
2830.000000	97.571406
2829.000000	97.595324
2828.000000	97.615999
2827.000000	97.633835
2826.000000	97.650149
2825.000000	97.666428
2824.000000	97.683428
2823.000000	97.701294
2822.000000	97.719936
2821.000000	97.738544
2820.000000	97.755082
2819.000000	97.767328
2818.000000	97.774827
2817.000000	97.779651
2816.000000	97.785267
2815.000000	97.794617
2814.000000	97.808486
2813.000000	97.824784
2812.000000	97.839449
2811.000000	97.849102
2810.000000	97.853503
2809.000000	97.855512
2808.000000	97.858454
2807.000000	97.863569
2806.000000	97.869657
2805.000000	97.874748
2804.000000	97.878136
2803.000000	97.881169
2802.000000	97.886100
2801.000000	97.893855
2800.000000	97.902860
2799.000000	97.910265
2798.000000	97.914380
2797.000000	97.915812
2796.000000	97.916652
2795.000000	97.919022
2794.000000	97.924088
2793.000000	97.931359
2792.000000	97.938586
2791.000000	97.943150
2790.000000	97.944457
2789.000000	97.944780
2788.000000	97.947210
2787.000000	97.952867
2786.000000	97.960427
2785.000000	97.967991
2784.000000	97.974631
2783.000000	97.980089
2782.000000	97.983899
2781.000000	97.985588
2780.000000	97.985666
2779.000000	97.985975
2778.000000	97.988749
2777.000000	97.994995
2776.000000	98.003417
2775.000000	98.010967
2774.000000	98.015080
2773.000000	98.015767
2772.000000	98.015338
2771.000000	98.015897
2770.000000	98.017546
2769.000000	98.019303
2768.000000	98.021041
2767.000000	98.023520
2766.000000	98.026707
2765.000000	98.029176
2764.000000	98.029696
2763.000000	98.028691
2762.000000	98.027517
2761.000000	98.026737
2760.000000	98.025829
2759.000000	98.024514
2758.000000	98.023727
2757.000000	98.025030
2756.000000	98.029214
2755.000000	98.035535
2754.000000	98.042161
2753.000000	98.047294
2752.000000	98.050026
2751.000000	98.050401
2750.000000	98.049090
2749.000000	98.047300
2748.000000	98.046624
2747.000000	98.048130
2746.000000	98.051376
2745.000000	98.054889
2744.000000	98.057906
2743.000000	98.061021
2742.000000	98.064640
2741.000000	98.067442
2740.000000	98.067345
2739.000000	98.063910
2738.000000	98.059052
2737.000000	98.055276
2736.000000	98.053765
2735.000000	98.054341
2734.000000	98.056613
2733.000000	98.060531
2732.000000	98.065762
2731.000000	98.070844
2730.000000	98.073413
2729.000000	98.071930
2728.000000	98.067549
2727.000000	98.063834
2726.000000	98.063930
2725.000000	98.067813
2724.000000	98.072545
2723.000000	98.075136
2722.000000	98.074968
2721.000000	98.073853
2720.000000	98.074358
2719.000000	98.077792
2718.000000	98.082983
2717.000000	98.086896
2716.000000	98.087101
2715.000000	98.083928
2714.000000	98.079842
2713.000000	98.076871
2712.000000	98.075328
2711.000000	98.074982
2710.000000	98.076327
2709.000000	98.080046
2708.000000	98.085794
2707.000000	98.092175
2706.000000	98.097687
2705.000000	98.101286
2704.000000	98.102478
2703.000000	98.101471
2702.000000	98.099251
2701.000000	98.097203
2700.000000	98.096612
2699.000000	98.098299
2698.000000	98.102107
2697.000000	98.106524
2696.000000	98.109515
2695.000000	98.110332
2694.000000	98.110032
2693.000000	98.109733
2692.000000	98.108911
2691.000000	98.106291
2690.000000	98.102090
2689.000000	98.098351
2688.000000	98.096901
2687.000000	98.097815
2686.000000	98.100093
2685.000000	98.102953
2684.000000	98.105859
2683.000000	98.107938
2682.000000	98.108417
2681.000000	98.107619
2680.000000	98.106729
2679.000000	98.106219
2678.000000	98.105137
2677.000000	98.102688
2676.000000	98.100295
2675.000000	98.101030
2674.000000	98.106333
2673.000000	98.113755
2672.000000	98.118825
2671.000000	98.119355
2670.000000	98.117254
2669.000000	98.115988
2668.000000	98.116975
2667.000000	98.119040
2666.000000	98.120755
2665.000000	98.122222
2664.000000	98.124294
2663.000000	98.126693
2662.000000	98.127618
2661.000000	98.125339
2660.000000	98.120088
2659.000000	98.114231
2658.000000	98.110358
2657.000000	98.109174
2656.000000	98.109419
2655.000000	98.109790
2654.000000	98.110496
2653.000000	98.112746
2652.000000	98.117204
2651.000000	98.123382
2650.000000	98.130081
2649.000000	98.135771
2648.000000	98.138974
2647.000000	98.139336
2646.000000	98.138541
2645.000000	98.139328
2644.000000	98.143048
2643.000000	98.148490
2642.000000	98.153343
2641.000000	98.156313
2640.000000	98.157613
2639.000000	98.158064
2638.000000	98.158502
2637.000000	98.159857
2636.000000	98.163062
2635.000000	98.168474
2634.000000	98.175406
2633.000000	98.182260
2632.000000	98.187245
2631.000000	98.189390
2630.000000	98.189157
2629.000000	98.187998
2628.000000	98.187114
2627.000000	98.186761
2626.000000	98.186777
2625.000000	98.187414
2624.000000	98.189389
2623.000000	98.193305
2622.000000	98.199119
2621.000000	98.205755
2620.000000	98.211147
2619.000000	98.213420
2618.000000	98.212760
2617.000000	98.211700
2616.000000	98.212688
2615.000000	98.215544
2614.000000	98.218118
2613.000000	98.219236
2612.000000	98.219913
2611.000000	98.221389
2610.000000	98.223245
2609.000000	98.224408
2608.000000	98.225388
2607.000000	98.228312
2606.000000	98.234404
2605.000000	98.241953
2604.000000	98.247139
2603.000000	98.246967
2602.000000	98.241679
2601.000000	98.234575
2600.000000	98.229493
2599.000000	98.228299
2598.000000	98.230504
2597.000000	98.234631
2596.000000	98.239278
2595.000000	98.243162
2594.000000	98.245322
2593.000000	98.245784
2592.000000	98.245333
2591.000000	98.244146
2590.000000	98.241495
2589.000000	98.237506
2588.000000	98.234481
2587.000000	98.235231
2586.000000	98.240143
2585.000000	98.246797
2584.000000	98.252479
2583.000000	98.256405
2582.000000	98.259372
2581.000000	98.261971
2580.000000	98.263353
2579.000000	98.261506
2578.000000	98.255042
2577.000000	98.245416
2576.000000	98.237183
2575.000000	98.234920
2574.000000	98.239389
2573.000000	98.247231
2572.000000	98.254530
2571.000000	98.259931
2570.000000	98.264001
2569.000000	98.266695
2568.000000	98.266810
2567.000000	98.264066
2566.000000	98.260676
2565.000000	98.260014
2564.000000	98.263460
2563.000000	98.268864
2562.000000	98.272534
2561.000000	98.272826
2560.000000	98.271686
2559.000000	98.272677
2558.000000	98.277894
2557.000000	98.286623
2556.000000	98.295888
2555.000000	98.301768
2554.000000	98.301353
2553.000000	98.295107
2552.000000	98.287272
2551.000000	98.282820
2550.000000	98.283551
2549.000000	98.287525
2548.000000	98.291639
2547.000000	98.293616
2546.000000	98.292210
2545.000000	98.287670
2544.000000	98.282685
2543.000000	98.280994
2542.000000	98.283607
2541.000000	98.287136
2540.000000	98.287027
2539.000000	98.282041
2538.000000	98.274918
2537.000000	98.269426
2536.000000	98.267741
2535.000000	98.270081
2534.000000	98.275317
2533.000000	98.281326
2532.000000	98.285444
2531.000000	98.285453
2530.000000	98.280819
2529.000000	98.273584
2528.000000	98.267923
2527.000000	98.267603
2526.000000	98.272644
2525.000000	98.278487
2524.000000	98.279291
2523.000000	98.272839
2522.000000	98.262686
2521.000000	98.255563
2520.000000	98.256126
2519.000000	98.263232
2518.000000	98.270933
2517.000000	98.273672
2516.000000	98.271147
2515.000000	98.268150
2514.000000	98.269737
2513.000000	98.276644
2512.000000	98.284820
2511.000000	98.288737
2510.000000	98.285486
2509.000000	98.277031
2508.000000	98.268888
2507.000000	98.265683
2506.000000	98.267387
2505.000000	98.270300
2504.000000	98.271504
2503.000000	98.271533
2502.000000	98.272819
2501.000000	98.277141
2500.000000	98.284955
2499.000000	98.295312
2498.000000	98.305061
2497.000000	98.309589
2496.000000	98.306645
2495.000000	98.299360
2494.000000	98.294015
2493.000000	98.294237
2492.000000	98.297995
2491.000000	98.300411
2490.000000	98.298984
2489.000000	98.296187
2488.000000	98.296941
2487.000000	98.303264
2486.000000	98.311732
2485.000000	98.317093
2484.000000	98.318494
2483.000000	98.320323
2482.000000	98.326118
2481.000000	98.333903
2480.000000	98.339338
2479.000000	98.341982
2478.000000	98.345395
2477.000000	98.351408
2476.000000	98.357403
2475.000000	98.360208
2474.000000	98.360295
2473.000000	98.360322
2472.000000	98.361042
2471.000000	98.360564
2470.000000	98.357314
2469.000000	98.352070
2468.000000	98.346678
2467.000000	98.341965
2466.000000	98.337753
2465.000000	98.334560
2464.000000	98.334163
2463.000000	98.337807
2462.000000	98.344239
2461.000000	98.350438
2460.000000	98.354346
2459.000000	98.355881
2458.000000	98.354801
2457.000000	98.349207
2456.000000	98.337945
2455.000000	98.324177
2454.000000	98.314501
2453.000000	98.313608
2452.000000	98.320371
2451.000000	98.329507
2450.000000	98.336309
2449.000000	98.339197
2448.000000	98.339004
2447.000000	98.337545
2446.000000	98.336974
2445.000000	98.339033
2444.000000	98.343555
2443.000000	98.347910
2442.000000	98.349297
2441.000000	98.348269
2440.000000	98.349157
2439.000000	98.355706
2438.000000	98.366503
2437.000000	98.375849
2436.000000	98.379506
2435.000000	98.378446
2434.000000	98.376534
2433.000000	98.375695
2432.000000	98.374291
2431.000000	98.369539
2430.000000	98.360662
2429.000000	98.350274
2428.000000	98.343131
2427.000000	98.342443
2426.000000	98.346526
2425.000000	98.350172
2424.000000	98.350376
2423.000000	98.349713
2422.000000	98.352658
2421.000000	98.359577
2420.000000	98.366220
2419.000000	98.368578
2418.000000	98.366352
2417.000000	98.362032
2416.000000	98.358548
2415.000000	98.357758
2414.000000	98.359048
2413.000000	98.358991
2412.000000	98.354315
2411.000000	98.345794
2410.000000	98.337708
2409.000000	98.333461
2408.000000	98.333771
2407.000000	98.339207
2406.000000	98.350906
2405.000000	98.366769
2404.000000	98.379870
2403.000000	98.384269
2402.000000	98.381688
2401.000000	98.379611
2400.000000	98.382840
2399.000000	98.388732
2398.000000	98.390733
2397.000000	98.384760
2396.000000	98.372241
2395.000000	98.358644
2394.000000	98.349477
2393.000000	98.346376
2392.000000	98.346801
2391.000000	98.348267
2390.000000	98.352071
2389.000000	98.360855
2388.000000	98.372776
2387.000000	98.381307
2386.000000	98.381838
2385.000000	98.376376
2384.000000	98.369949
2383.000000	98.363975
2382.000000	98.356205
2381.000000	98.346201
2380.000000	98.338500
2379.000000	98.339122
2378.000000	98.349570
2377.000000	98.364743
2376.000000	98.375913
2375.000000	98.376478
2374.000000	98.366745
2373.000000	98.354377
2372.000000	98.348788
2371.000000	98.352843
2370.000000	98.360010
2369.000000	98.361300
2368.000000	98.355563
2367.000000	98.349341
2366.000000	98.347087
2365.000000	98.346849
2364.000000	98.346549
2363.000000	98.347739
2362.000000	98.351182
2361.000000	98.353423
2360.000000	98.349892
2359.000000	98.344111
2358.000000	98.343032
2357.000000	98.346434
2356.000000	98.352236
2355.000000	98.355854
2354.000000	98.352295
2353.000000	98.341049
2352.000000	98.331622
2351.000000	98.332406
2350.000000	98.339449
2349.000000	98.344350
2348.000000	98.339356
2347.000000	98.324703
2346.000000	98.312963
2345.000000	98.319226
2344.000000	98.341893
2343.000000	98.360079
2342.000000	98.365637
2341.000000	98.365812
2340.000000	98.367359
2339.000000	98.366728
2338.000000	98.356821
2337.000000	98.340077
2336.000000	98.327792
2335.000000	98.328248
2334.000000	98.335209
2333.000000	98.338744
2332.000000	98.336278
2331.000000	98.335769
2330.000000	98.338691
2329.000000	98.344244
2328.000000	98.346440
2327.000000	98.344311
2326.000000	98.337001
2325.000000	98.327771
2324.000000	98.323023
2323.000000	98.327421
2322.000000	98.340648
2321.000000	98.357437
2320.000000	98.371942
2319.000000	98.382467
2318.000000	98.388455
2317.000000	98.391991
2316.000000	98.391255
2315.000000	98.384653
2314.000000	98.369379
2313.000000	98.350236
2312.000000	98.334952
2311.000000	98.331784
2310.000000	98.340546
2309.000000	98.357657
2308.000000	98.376854
2307.000000	98.393290
2306.000000	98.402273
2305.000000	98.403328
2304.000000	98.399614
2303.000000	98.395492
2302.000000	98.391441
2301.000000	98.386940
2300.000000	98.381714
2299.000000	98.377168
2298.000000	98.371491
2297.000000	98.362964
2296.000000	98.352687
2295.000000	98.347346
2294.000000	98.351650
2293.000000	98.363777
2292.000000	98.376031
2291.000000	98.382619
2290.000000	98.384384
2289.000000	98.386802
2288.000000	98.393521
2287.000000	98.401947
2286.000000	98.406449
2285.000000	98.403913
2284.000000	98.395579
2283.000000	98.383215
2282.000000	98.368726
2281.000000	98.357850
2280.000000	98.360154
2279.000000	98.379391
2278.000000	98.406379
2277.000000	98.426242
2276.000000	98.433109
2275.000000	98.433766
2274.000000	98.436208
2273.000000	98.440124
2272.000000	98.439315
2271.000000	98.430093
2270.000000	98.415150
2269.000000	98.402434
2268.000000	98.400735
2267.000000	98.412590
2266.000000	98.429994
2265.000000	98.440790
2264.000000	98.440423
2263.000000	98.434490
2262.000000	98.428723
2261.000000	98.421961
2260.000000	98.412153
2259.000000	98.403755
2258.000000	98.404383
2257.000000	98.414902
2256.000000	98.427406
2255.000000	98.432835
2254.000000	98.428660
2253.000000	98.420197
2252.000000	98.416264
2251.000000	98.423208
2250.000000	98.439904
2249.000000	98.458472
2248.000000	98.470534
2247.000000	98.472533
2246.000000	98.464676
2245.000000	98.446684
2244.000000	98.417602
2243.000000	98.380485
2242.000000	98.346128
2241.000000	98.330106
2240.000000	98.343277
2239.000000	98.382873
2238.000000	98.433389
2237.000000	98.477367
2236.000000	98.505994
2235.000000	98.519784
2234.000000	98.521960
2233.000000	98.515155
2232.000000	98.502936
2231.000000	98.489527
2230.000000	98.477129
2229.000000	98.466954
2228.000000	98.462125
2227.000000	98.464658
2226.000000	98.469113
2225.000000	98.465177
2224.000000	98.450185
2223.000000	98.435207
2222.000000	98.434886
2221.000000	98.452893
2220.000000	98.479615
2219.000000	98.502238
2218.000000	98.514244
2217.000000	98.517347
2216.000000	98.518091
2215.000000	98.522333
2214.000000	98.530230
2213.000000	98.535661
2212.000000	98.531143
2211.000000	98.514732
2210.000000	98.493103
2209.000000	98.477713
2208.000000	98.475355
2207.000000	98.481014
2206.000000	98.482523
2205.000000	98.473782
2204.000000	98.460374
2203.000000	98.450239
2202.000000	98.445067
2201.000000	98.446429
2200.000000	98.463611
2199.000000	98.503498
2198.000000	98.553986
2197.000000	98.587820
2196.000000	98.586588
2195.000000	98.553563
2194.000000	98.502982
2193.000000	98.448538
2192.000000	98.405635
2191.000000	98.391936
2190.000000	98.415604
2189.000000	98.467150
2188.000000	98.528465
2187.000000	98.586196
2186.000000	98.631516
2185.000000	98.655598
2184.000000	98.657353
2183.000000	98.651343
2182.000000	98.654736
2181.000000	98.664211
2180.000000	98.654939
2179.000000	98.607723
2178.000000	98.534638
2177.000000	98.475879
2176.000000	98.467785
2175.000000	98.508919
2174.000000	98.559046
2173.000000	98.577253
2172.000000	98.560443
2171.000000	98.537986
2170.000000	98.532514
2169.000000	98.536860
2168.000000	98.530686
2167.000000	98.508758
2166.000000	98.484016
2165.000000	98.470166
2164.000000	98.469221
2163.000000	98.472777
2162.000000	98.470922
2161.000000	98.466576
2160.000000	98.485934
2159.000000	98.557818
2158.000000	98.665003
2157.000000	98.739522
2156.000000	98.732734
2155.000000	98.665548
2154.000000	98.594004
2153.000000	98.549597
2152.000000	98.525797
2151.000000	98.508022
2150.000000	98.496846
2149.000000	98.498126
2148.000000	98.506578
2147.000000	98.510612
2146.000000	98.506554
2145.000000	98.499299
2144.000000	98.493070
2143.000000	98.489301
2142.000000	98.491015
2141.000000	98.501231
2140.000000	98.516045
2139.000000	98.525127
2138.000000	98.522325
2137.000000	98.512827
2136.000000	98.507714
2135.000000	98.512647
2134.000000	98.523730
2133.000000	98.532735
2132.000000	98.533964
2131.000000	98.527355
2130.000000	98.518158
2129.000000	98.514293
2128.000000	98.520864
2127.000000	98.534837
2126.000000	98.545426
2125.000000	98.541353
2124.000000	98.519276
2123.000000	98.486980
2122.000000	98.459597
2121.000000	98.450580
2120.000000	98.461321
2119.000000	98.478125
2118.000000	98.482981
2117.000000	98.469873
2116.000000	98.449994
2115.000000	98.439235
2114.000000	98.443392
2113.000000	98.457175
2112.000000	98.473632
2111.000000	98.488804
2110.000000	98.498119
2109.000000	98.495633
2108.000000	98.481079
2107.000000	98.463972
2106.000000	98.456071
2105.000000	98.460183
2104.000000	98.468935
2103.000000	98.474100
2102.000000	98.474787
2101.000000	98.475634
2100.000000	98.480122
2099.000000	98.489125
2098.000000	98.505200
2097.000000	98.532371
2096.000000	98.566696
2095.000000	98.590173
2094.000000	98.582420
2093.000000	98.541964
2092.000000	98.491795
2091.000000	98.459784
2090.000000	98.455820
2089.000000	98.468384
2088.000000	98.479529
2087.000000	98.480994
2086.000000	98.477194
2085.000000	98.476881
2084.000000	98.482628
2083.000000	98.487972
2082.000000	98.486327
2081.000000	98.481515
2080.000000	98.483805
2079.000000	98.493591
2078.000000	98.496257
2077.000000	98.480498
2076.000000	98.456801
2075.000000	98.448422
2074.000000	98.465418
2073.000000	98.494875
2072.000000	98.516461
2071.000000	98.520968
2070.000000	98.514407
2069.000000	98.511810
2068.000000	98.527547
2067.000000	98.562894
2066.000000	98.599814
2065.000000	98.612925
2064.000000	98.593362
2063.000000	98.557356
2062.000000	98.529761
2061.000000	98.525417
2060.000000	98.542917
2059.000000	98.567055
2058.000000	98.577655
2057.000000	98.565317
2056.000000	98.541976
2055.000000	98.528391
2054.000000	98.528315
2053.000000	98.523848
2052.000000	98.501127
2051.000000	98.472366
2050.000000	98.465926
2049.000000	98.496429
2048.000000	98.547783
2047.000000	98.587954
2046.000000	98.597788
2045.000000	98.583254
2044.000000	98.564816
2043.000000	98.557767
2042.000000	98.563027
2041.000000	98.575867
2040.000000	98.598143
2039.000000	98.634006
2038.000000	98.676028
2037.000000	98.706967
2036.000000	98.718133
2035.000000	98.717185
2034.000000	98.713380
2033.000000	98.706453
2032.000000	98.694980
2031.000000	98.683482
2030.000000	98.675274
2029.000000	98.669591
2028.000000	98.671120
2027.000000	98.690894
2026.000000	98.728711
2025.000000	98.761543
2024.000000	98.759449
2023.000000	98.711104
2022.000000	98.630492
2021.000000	98.546577
2020.000000	98.487890
2019.000000	98.467129
2018.000000	98.474487
2017.000000	98.486557
2016.000000	98.486531
2015.000000	98.475064
2014.000000	98.462481
2013.000000	98.460181
2012.000000	98.478869
2011.000000	98.523361
2010.000000	98.582569
2009.000000	98.629150
2008.000000	98.637913
2007.000000	98.607947
2006.000000	98.565559
2005.000000	98.546781
2004.000000	98.571114
2003.000000	98.624280
2002.000000	98.667683
2001.000000	98.671213
2000.000000	98.640482
1999.000000	98.606878
1998.000000	98.592903
1997.000000	98.597260
1996.000000	98.609439
1995.000000	98.623589
1994.000000	98.633160
1993.000000	98.624344
1992.000000	98.589033
1991.000000	98.542522
1990.000000	98.515199
1989.000000	98.527815
1988.000000	98.576820
1987.000000	98.635498
1986.000000	98.668523
1985.000000	98.655657
1984.000000	98.609879
1983.000000	98.568959
1982.000000	98.563471
1981.000000	98.592403
1980.000000	98.627736
1979.000000	98.638743
1978.000000	98.612147
1977.000000	98.557772
1976.000000	98.501347
1975.000000	98.468548
1974.000000	98.471879
1973.000000	98.507793
1972.000000	98.560638
1971.000000	98.611363
1970.000000	98.646921
1969.000000	98.664874
1968.000000	98.671776
1967.000000	98.676697
1966.000000	98.684398
1965.000000	98.694048
1964.000000	98.702074
1963.000000	98.704504
1962.000000	98.700545
1961.000000	98.695413
1960.000000	98.694733
1959.000000	98.694786
1958.000000	98.684135
1957.000000	98.656936
1956.000000	98.619296
1955.000000	98.581945
1954.000000	98.554224
1953.000000	98.545645
1952.000000	98.561930
1951.000000	98.593678
1950.000000	98.618544
1949.000000	98.623464
1948.000000	98.618762
1947.000000	98.620074
1946.000000	98.622371
1945.000000	98.605079
1944.000000	98.561982
1943.000000	98.515935
1942.000000	98.498646
1941.000000	98.518761
1940.000000	98.557165
1939.000000	98.587899
1938.000000	98.595393
1937.000000	98.580943
1936.000000	98.558945
1935.000000	98.542704
1934.000000	98.535009
1933.000000	98.534270
1932.000000	98.543420
1931.000000	98.564489
1930.000000	98.587605
1929.000000	98.596836
1928.000000	98.588958
1927.000000	98.577153
1926.000000	98.574196
1925.000000	98.580009
1924.000000	98.586371
1923.000000	98.587368
1922.000000	98.582925
1921.000000	98.576700
1920.000000	98.572081
1919.000000	98.568737
1918.000000	98.562828
1917.000000	98.554369
1916.000000	98.552610
1915.000000	98.564309
1914.000000	98.582237
1913.000000	98.592043
1912.000000	98.588420
1911.000000	98.578946
1910.000000	98.570575
1909.000000	98.561574
1908.000000	98.551154
1907.000000	98.546552
1906.000000	98.554249
1905.000000	98.571300
1904.000000	98.588910
1903.000000	98.600840
1902.000000	98.605075
1901.000000	98.602190
1900.000000	98.595040
1899.000000	98.587234
1898.000000	98.580503
1897.000000	98.575055
1896.000000	98.572392
1895.000000	98.575188
1894.000000	98.584178
1893.000000	98.598583
1892.000000	98.617635
1891.000000	98.636650
1890.000000	98.643673
1889.000000	98.629239
1888.000000	98.601780
1887.000000	98.577895
1886.000000	98.562984
1885.000000	98.553313
1884.000000	98.548336
1883.000000	98.551903
1882.000000	98.562573
1881.000000	98.572176
1880.000000	98.576258
1879.000000	98.579521
1878.000000	98.588112
1877.000000	98.601112
1876.000000	98.612306
1875.000000	98.617047
1874.000000	98.615668
1873.000000	98.612956
1872.000000	98.615147
1871.000000	98.624343
1870.000000	98.634999
1869.000000	98.637531
1868.000000	98.631104
1867.000000	98.626437
1866.000000	98.626675
1865.000000	98.625236
1864.000000	98.619370
1863.000000	98.611823
1862.000000	98.602431
1861.000000	98.587740
1860.000000	98.570969
1859.000000	98.562870
1858.000000	98.568192
1857.000000	98.578823
1856.000000	98.584417
1855.000000	98.583073
1854.000000	98.579538
1853.000000	98.578716
1852.000000	98.582870
1851.000000	98.590954
1850.000000	98.598798
1849.000000	98.603746
1848.000000	98.608514
1847.000000	98.616827
1846.000000	98.625927
1845.000000	98.629201
1844.000000	98.626866
1843.000000	98.626432
1842.000000	98.628962
1841.000000	98.628827
1840.000000	98.624457
1839.000000	98.619804
1838.000000	98.617325
1837.000000	98.614669
1836.000000	98.610991
1835.000000	98.610041
1834.000000	98.613155
1833.000000	98.616619
1832.000000	98.618190
1831.000000	98.622216
1830.000000	98.632098
1829.000000	98.641572
1828.000000	98.646796
1827.000000	98.651428
1826.000000	98.655521
1825.000000	98.652255
1824.000000	98.638769
1823.000000	98.624136
1822.000000	98.616785
1821.000000	98.614901
1820.000000	98.613592
1819.000000	98.614165
1818.000000	98.620080
1817.000000	98.627483
1816.000000	98.629036
1815.000000	98.624915
1814.000000	98.620759
1813.000000	98.618668
1812.000000	98.616884
1811.000000	98.616582
1810.000000	98.621010
1809.000000	98.627495
1808.000000	98.630207
1807.000000	98.627255
1806.000000	98.620231
1805.000000	98.612101
1804.000000	98.607583
1803.000000	98.610545
1802.000000	98.618048
1801.000000	98.619520
1800.000000	98.609728
1799.000000	98.597989
1798.000000	98.593348
1797.000000	98.593138
1796.000000	98.591862
1795.000000	98.589703
1794.000000	98.589565
1793.000000	98.591062
1792.000000	98.591048
1791.000000	98.591038
1790.000000	98.594020
1789.000000	98.597541
1788.000000	98.601037
1787.000000	98.608338
1786.000000	98.620707
1785.000000	98.631730
1784.000000	98.634577
1783.000000	98.631598
1782.000000	98.630741
1781.000000	98.635685
1780.000000	98.643347
1779.000000	98.649314
1778.000000	98.653086
1777.000000	98.658045
1776.000000	98.668871
1775.000000	98.686586
1774.000000	98.705583
1773.000000	98.716867
1772.000000	98.713806
1771.000000	98.704526
1770.000000	98.702605
1769.000000	98.703999
1768.000000	98.698224
1767.000000	98.685601
1766.000000	98.673531
1765.000000	98.663692
1764.000000	98.652062
1763.000000	98.635879
1762.000000	98.616366
1761.000000	98.594605
1760.000000	98.570769
1759.000000	98.546192
1758.000000	98.519559
1757.000000	98.485873
1756.000000	98.443926
1755.000000	98.401080
1754.000000	98.363981
1753.000000	98.329287
1752.000000	98.287336
1751.000000	98.231320
1750.000000	98.162740
1749.000000	98.088985
1748.000000	98.017597
1747.000000	97.954949
1746.000000	97.902063
1745.000000	97.854037
1744.000000	97.808865
1743.000000	97.773247
1742.000000	97.755447
1741.000000	97.755313
1740.000000	97.765713
1739.000000	97.780636
1738.000000	97.800670
1737.000000	97.829884
1736.000000	97.874330
1735.000000	97.944013
1734.000000	98.027212
1733.000000	98.080342
1732.000000	98.104152
1731.000000	98.126910
1730.000000	98.157149
1729.000000	98.189922
1728.000000	98.220088
1727.000000	98.246256
1726.000000	98.269304
1725.000000	98.289917
1724.000000	98.307626
1723.000000	98.320584
1722.000000	98.327312
1721.000000	98.327017
1720.000000	98.320719
1719.000000	98.316938
1718.000000	98.328466
1717.000000	98.337029
1716.000000	98.318498
1715.000000	98.286241
1714.000000	98.254798
1713.000000	98.229632
1712.000000	98.214886
1711.000000	98.211914
1710.000000	98.216981
1709.000000	98.222187
1708.000000	98.221543
1707.000000	98.217526
1706.000000	98.216257
1705.000000	98.216825
1704.000000	98.217615
1703.000000	98.220912
1702.000000	98.222729
1701.000000	98.214975
1700.000000	98.201726
1699.000000	98.196084
1698.000000	98.197310
1697.000000	98.186442
1696.000000	98.151159
1695.000000	98.115145
1694.000000	98.099431
1693.000000	98.091130
1692.000000	98.075760
1691.000000	98.051421
1690.000000	98.024275
1689.000000	97.998825
1688.000000	97.974744
1687.000000	97.950500
1686.000000	97.921495
1685.000000	97.882274
1684.000000	97.831434
1683.000000	97.789053
1682.000000	97.771248
1681.000000	97.758810
1680.000000	97.739238
1679.000000	97.716155
1678.000000	97.693617
1677.000000	97.667736
1676.000000	97.634510
1675.000000	97.598891
1674.000000	97.568553
1673.000000	97.543639
1672.000000	97.520176
1671.000000	97.495131
1670.000000	97.463081
1669.000000	97.419072
1668.000000	97.374070
1667.000000	97.339188
1666.000000	97.311252
1665.000000	97.280946
1664.000000	97.242988
1663.000000	97.199848
1662.000000	97.155511
1661.000000	97.111901
1660.000000	97.071036
1659.000000	97.033866
1658.000000	97.000551
1657.000000	96.969433
1656.000000	96.936593
1655.000000	96.893945
1654.000000	96.836695
1653.000000	96.766079
1652.000000	96.715236
1651.000000	96.702972
1650.000000	96.704501
1649.000000	96.704248
1648.000000	96.704423
1647.000000	96.708083
1646.000000	96.704551
1645.000000	96.696878
1644.000000	96.692666
1643.000000	96.693213
1642.000000	96.696237
1641.000000	96.697796
1640.000000	96.697912
1639.000000	96.699657
1638.000000	96.702809
1637.000000	96.704329
1636.000000	96.703687
1635.000000	96.705154
1634.000000	96.717656
1633.000000	96.735210
1632.000000	96.750710
1631.000000	96.764723
1630.000000	96.779121
1629.000000	96.794376
1628.000000	96.811030
1627.000000	96.829646
1626.000000	96.850717
1625.000000	96.876006
1624.000000	96.909654
1623.000000	96.951186
1622.000000	96.990930
1621.000000	97.024220
1620.000000	97.052710
1619.000000	97.078319
1618.000000	97.105643
1617.000000	97.141680
1616.000000	97.187200
1615.000000	97.236153
1614.000000	97.282110
1613.000000	97.323831
1612.000000	97.364945
1611.000000	97.407905
1610.000000	97.449427
1609.000000	97.487963
1608.000000	97.528066
1607.000000	97.570377
1606.000000	97.607638
1605.000000	97.635908
1604.000000	97.660094
1603.000000	97.685480
1602.000000	97.711378
1601.000000	97.735650
1600.000000	97.758071
1599.000000	97.776801
1598.000000	97.789572
1597.000000	97.799307
1596.000000	97.812629
1595.000000	97.830297
1594.000000	97.844505
1593.000000	97.849672
1592.000000	97.847387
1591.000000	97.838309
1590.000000	97.819569
1589.000000	97.793642
1588.000000	97.768758
1587.000000	97.746124
1586.000000	97.716406
1585.000000	97.672501
1584.000000	97.617668
1583.000000	97.556957
1582.000000	97.490256
1581.000000	97.419782
1580.000000	97.353946
1579.000000	97.298051
1578.000000	97.250753
1577.000000	97.214081
1576.000000	97.196402
1575.000000	97.199572
1574.000000	97.216642
1573.000000	97.239664
1572.000000	97.265353
1571.000000	97.296892
1570.000000	97.334529
1569.000000	97.365901
1568.000000	97.383536
1567.000000	97.389345
1566.000000	97.384982
1565.000000	97.376078
1564.000000	97.370036
1563.000000	97.366212
1562.000000	97.354518
1561.000000	97.326629
1560.000000	97.300590
1559.000000	97.302802
1558.000000	97.260278
1557.000000	97.214209
1556.000000	97.183565
1555.000000	97.144173
1554.000000	97.087310
1553.000000	97.022995
1552.000000	96.960118
1551.000000	96.895195
1550.000000	96.822131
1549.000000	96.746528
1548.000000	96.676935
1547.000000	96.608567
1546.000000	96.526422
1545.000000	96.422567
1544.000000	96.307993
1543.000000	96.203533
1542.000000	96.120026
1541.000000	96.047693
1540.000000	95.965084
1539.000000	95.903095
1538.000000	95.907600
1537.000000	95.953355
1536.000000	96.012272
1535.000000	96.080734
1534.000000	96.166204
1533.000000	96.257084
1532.000000	96.330076
1531.000000	96.385742
1530.000000	96.430585
1529.000000	96.466896
1528.000000	96.498250
1527.000000	96.529208
1526.000000	96.557375
1525.000000	96.574635
1524.000000	96.582587
1523.000000	96.592273
1522.000000	96.602942
1521.000000	96.592646
1520.000000	96.564615
1519.000000	96.544059
1518.000000	96.535037
1517.000000	96.528508
1516.000000	96.521878
1515.000000	96.524020
1514.000000	96.535441
1513.000000	96.545884
1512.000000	96.549469
1511.000000	96.550970
1510.000000	96.557284
1509.000000	96.570700
1508.000000	96.597530
1507.000000	96.633218
1506.000000	96.647610
1505.000000	96.653956
1504.000000	96.658474
1503.000000	96.662330
1502.000000	96.666087
1501.000000	96.667437
1500.000000	96.666925
1499.000000	96.672437
1498.000000	96.691411
1497.000000	96.712427
1496.000000	96.715446
1495.000000	96.705310
1494.000000	96.697534
1493.000000	96.693780
1492.000000	96.690394
1491.000000	96.689358
1490.000000	96.691324
1489.000000	96.681259
1488.000000	96.655492
1487.000000	96.631214
1486.000000	96.613910
1485.000000	96.595593
1484.000000	96.571795
1483.000000	96.543824
1482.000000	96.511888
1481.000000	96.472925
1480.000000	96.428131
1479.000000	96.383318
1478.000000	96.337821
1477.000000	96.285069
1476.000000	96.224496
1475.000000	96.164110
1474.000000	96.100488
1473.000000	96.009625
1472.000000	95.883822
1471.000000	95.761958
1470.000000	95.667196
1469.000000	95.589009
1468.000000	95.518602
1467.000000	95.458646
1466.000000	95.414572
1465.000000	95.386236
1464.000000	95.370228
1463.000000	95.364083
1462.000000	95.361578
1461.000000	95.354678
1460.000000	95.341527
1459.000000	95.328167
1458.000000	95.319231
1457.000000	95.299396
1456.000000	95.260721
1455.000000	95.225759
1454.000000	95.201570
1453.000000	95.182278
1452.000000	95.164029
1451.000000	95.147250
1450.000000	95.132476
1449.000000	95.117861
1448.000000	95.101780
1447.000000	95.084850
1446.000000	95.066658
1445.000000	95.044009
1444.000000	95.017551
1443.000000	94.992098
1442.000000	94.970632
1441.000000	94.952796
1440.000000	94.938176
1439.000000	94.926096
1438.000000	94.913533
1437.000000	94.896334
1436.000000	94.873716
1435.000000	94.851325
1434.000000	94.835531
1433.000000	94.826127
1432.000000	94.820657
1431.000000	94.817919
1430.000000	94.818646
1429.000000	94.824058
1428.000000	94.832414
1427.000000	94.838327
1426.000000	94.836545
1425.000000	94.827759
1424.000000	94.818211
1423.000000	94.811240
1422.000000	94.805132
1421.000000	94.796306
1420.000000	94.784756
1419.000000	94.774894
1418.000000	94.769270
1417.000000	94.768153
1416.000000	94.771697
1415.000000	94.780569
1414.000000	94.794988
1413.000000	94.816155
1412.000000	94.845850
1411.000000	94.881526
1410.000000	94.916385
1409.000000	94.945538
1408.000000	94.969754
1407.000000	94.994483
1406.000000	95.026511
1405.000000	95.068863
1404.000000	95.115211
1403.000000	95.154438
1402.000000	95.183287
1401.000000	95.207396
1400.000000	95.232993
1399.000000	95.257225
1398.000000	95.272654
1397.000000	95.281672
1396.000000	95.293998
1395.000000	95.313959
1394.000000	95.337806
1393.000000	95.362471
1392.000000	95.387695
1391.000000	95.414172
1390.000000	95.442160
1389.000000	95.472589
1388.000000	95.506426
1387.000000	95.539326
1386.000000	95.564191
1385.000000	95.582312
1384.000000	95.601259
1383.000000	95.625470
1382.000000	95.653278
1381.000000	95.681101
1380.000000	95.708562
1379.000000	95.737620
1378.000000	95.769374
1377.000000	95.805312
1376.000000	95.848825
1375.000000	95.901053
1374.000000	95.955522
1373.000000	96.003549
1372.000000	96.043318
1371.000000	96.077839
1370.000000	96.110545
1369.000000	96.144829
1368.000000	96.180527
1367.000000	96.212623
1366.000000	96.238299
1365.000000	96.262452
1364.000000	96.294527
1363.000000	96.338169
1362.000000	96.384295
1361.000000	96.423823
1360.000000	96.457529
1359.000000	96.488473
1358.000000	96.516895
1357.000000	96.542996
1356.000000	96.567903
1355.000000	96.590879
1354.000000	96.609800
1353.000000	96.625510
1352.000000	96.642604
1351.000000	96.664473
1350.000000	96.689294
1349.000000	96.713578
1348.000000	96.735566
1347.000000	96.754194
1346.000000	96.768593
1345.000000	96.779963
1344.000000	96.790374
1343.000000	96.799317
1342.000000	96.804539
1341.000000	96.807203
1340.000000	96.812641
1339.000000	96.824007
1338.000000	96.839677
1337.000000	96.857552
1336.000000	96.876732
1335.000000	96.896157
1334.000000	96.914466
1333.000000	96.931529
1332.000000	96.948058
1331.000000	96.963481
1330.000000	96.976521
1329.000000	96.988251
1328.000000	97.001468
1327.000000	97.016616
1326.000000	97.031318
1325.000000	97.044444
1324.000000	97.056189
1323.000000	97.064916
1322.000000	97.068235
1321.000000	97.067159
1320.000000	97.065608
1319.000000	97.065498
1318.000000	97.065697
1317.000000	97.066072
1316.000000	97.068636
1315.000000	97.074260
1314.000000	97.081289
1313.000000	97.087833
1312.000000	97.093200
1311.000000	97.096836
1310.000000	97.098525
1309.000000	97.100435
1308.000000	97.106550
1307.000000	97.118388
1306.000000	97.132180
1305.000000	97.142260
1304.000000	97.145454
1303.000000	97.142331
1302.000000	97.136286
1301.000000	97.132111
1300.000000	97.133685
1299.000000	97.141480
1298.000000	97.152290
1297.000000	97.161887
1296.000000	97.168379
1295.000000	97.173150
1294.000000	97.178811
1293.000000	97.186007
1292.000000	97.192329
1291.000000	97.194934
1290.000000	97.194050
1289.000000	97.192607
1288.000000	97.192421
1287.000000	97.192506
1286.000000	97.191679
1285.000000	97.190722
1284.000000	97.190831
1283.000000	97.191827
1282.000000	97.192889
1281.000000	97.193464
1280.000000	97.192396
1279.000000	97.187889
1278.000000	97.180576
1277.000000	97.175040
1276.000000	97.175758
1275.000000	97.181927
1274.000000	97.188262
1273.000000	97.190529
1272.000000	97.188735
1271.000000	97.185470
1270.000000	97.182838
1269.000000	97.180938
1268.000000	97.177837
1267.000000	97.170902
1266.000000	97.159620
1265.000000	97.146847
1264.000000	97.136579
1263.000000	97.131061
1262.000000	97.130372
1261.000000	97.133585
1260.000000	97.139071
1259.000000	97.144045
1258.000000	97.145842
1257.000000	97.143705
1256.000000	97.138876
1255.000000	97.133424
1254.000000	97.128958
1253.000000	97.125444
1252.000000	97.120978
1251.000000	97.113758
1250.000000	97.104557
1249.000000	97.096159
1248.000000	97.090095
1247.000000	97.085249
1246.000000	97.080110
1245.000000	97.074453
1244.000000	97.068392
1243.000000	97.061856
1242.000000	97.055906
1241.000000	97.052542
1240.000000	97.052263
1239.000000	97.053366
1238.000000	97.054320
1237.000000	97.055083
1236.000000	97.055359
1235.000000	97.054064
1234.000000	97.052029
1233.000000	97.052876
1232.000000	97.059240
1231.000000	97.069836
1230.000000	97.081946
1229.000000	97.094827
1228.000000	97.108370
1227.000000	97.120411
1226.000000	97.128394
1225.000000	97.132981
1224.000000	97.137742
1223.000000	97.145761
1222.000000	97.158493
1221.000000	97.176637
1220.000000	97.199299
1219.000000	97.222386
1218.000000	97.240572
1217.000000	97.251628
1216.000000	97.257708
1215.000000	97.262785
1214.000000	97.269951
1213.000000	97.280324
1212.000000	97.292589
1211.000000	97.303837
1210.000000	97.312317
1209.000000	97.319008
1208.000000	97.325545
1207.000000	97.331451
1206.000000	97.334758
1205.000000	97.334854
1204.000000	97.333227
1203.000000	97.331688
1202.000000	97.330922
1201.000000	97.330618
1200.000000	97.330221
1199.000000	97.329690
1198.000000	97.330028
1197.000000	97.332360
1196.000000	97.335995
1195.000000	97.338510
1194.000000	97.338602
1193.000000	97.337827
1192.000000	97.338345
1191.000000	97.339904
1190.000000	97.340480
1189.000000	97.339246
1188.000000	97.337387
1187.000000	97.336237
1186.000000	97.335796
1185.000000	97.335090
1184.000000	97.332999
1183.000000	97.328689
1182.000000	97.322026
1181.000000	97.313954
1180.000000	97.306283
1179.000000	97.300847
1178.000000	97.298434
1177.000000	97.297953
1176.000000	97.296529
1175.000000	97.291222
1174.000000	97.281376
1173.000000	97.269462
1172.000000	97.259448
1171.000000	97.254544
1170.000000	97.255848
1169.000000	97.262247
1168.000000	97.271395
1167.000000	97.281220
1166.000000	97.290813
1165.000000	97.299796
1164.000000	97.307436
1163.000000	97.313124
1162.000000	97.317391
1161.000000	97.322049
1160.000000	97.329741
1159.000000	97.343240
1158.000000	97.363274
1157.000000	97.385945
1156.000000	97.404420
1155.000000	97.415533
1154.000000	97.423321
1153.000000	97.433375
1152.000000	97.445295
1151.000000	97.454633
1150.000000	97.461448
1149.000000	97.471905
1148.000000	97.490207
1147.000000	97.513129
1146.000000	97.534155
1145.000000	97.549787
1144.000000	97.560320
1143.000000	97.568205
1142.000000	97.577879
1141.000000	97.594233
1140.000000	97.618303
1139.000000	97.646029
1138.000000	97.672562
1137.000000	97.695953
1136.000000	97.715986
1135.000000	97.732880
1134.000000	97.748698
1133.000000	97.766269
1132.000000	97.784356
1131.000000	97.797127
1130.000000	97.801301
1129.000000	97.801171
1128.000000	97.803526
1127.000000	97.810247
1126.000000	97.818591
1125.000000	97.825748
1124.000000	97.829674
1123.000000	97.827563
1122.000000	97.818147
1121.000000	97.804946
1120.000000	97.793784
1119.000000	97.787073
1118.000000	97.782336
1117.000000	97.775893
1116.000000	97.766084
1115.000000	97.753607
1114.000000	97.740868
1113.000000	97.731263
1112.000000	97.727784
1111.000000	97.731658
1110.000000	97.741651
1109.000000	97.753604
1108.000000	97.761186
1107.000000	97.760500
1106.000000	97.754541
1105.000000	97.750478
1104.000000	97.751472
1103.000000	97.753994
1102.000000	97.754197
1101.000000	97.753544
1100.000000	97.755145
1099.000000	97.759626
1098.000000	97.764922
1097.000000	97.769520
1096.000000	97.772231
1095.000000	97.771004
1094.000000	97.765175
1093.000000	97.757701
1092.000000	97.752385
1091.000000	97.749719
1090.000000	97.747221
1089.000000	97.742989
1088.000000	97.737237
1087.000000	97.731222
1086.000000	97.725949
1085.000000	97.721149
1084.000000	97.715196
1083.000000	97.707742
1082.000000	97.702631
1081.000000	97.705089
1080.000000	97.714749
1079.000000	97.724429
1078.000000	97.728050
1077.000000	97.727049
1076.000000	97.726771
1075.000000	97.729742
1074.000000	97.735457
1073.000000	97.744361
1072.000000	97.757920
1071.000000	97.775158
1070.000000	97.791798
1069.000000	97.803147
1068.000000	97.806827
1067.000000	97.803961
1066.000000	97.799074
1065.000000	97.797292
1064.000000	97.800082
1063.000000	97.804735
1062.000000	97.808145
1061.000000	97.809367
1060.000000	97.808231
1059.000000	97.804700
1058.000000	97.800781
1057.000000	97.799980
1056.000000	97.803079
1055.000000	97.807175
1054.000000	97.810272
1053.000000	97.813399
1052.000000	97.816326
1051.000000	97.815371
1050.000000	97.809223
1049.000000	97.803241
1048.000000	97.803312
1047.000000	97.807620
1046.000000	97.808709
1045.000000	97.802482
1044.000000	97.792088
1043.000000	97.784280
1042.000000	97.784045
1041.000000	97.791059
1040.000000	97.799443
1039.000000	97.802606
1038.000000	97.800239
1037.000000	97.798639
1036.000000	97.802233
1035.000000	97.807565
1034.000000	97.807921
1033.000000	97.801370
1032.000000	97.791599
1031.000000	97.783476
1030.000000	97.780848
1029.000000	97.785769
1028.000000	97.795777
1027.000000	97.803536
1026.000000	97.803462
1025.000000	97.797907
1024.000000	97.793711
1023.000000	97.793664
1022.000000	97.794784
1021.000000	97.794264
1020.000000	97.793192
1019.000000	97.794079
1018.000000	97.797461
1017.000000	97.801794
1016.000000	97.805532
1015.000000	97.809175
1014.000000	97.815972
1013.000000	97.829265
1012.000000	97.848016
1011.000000	97.866241
1010.000000	97.877823
1009.000000	97.880525
1008.000000	97.875378
1007.000000	97.865839
1006.000000	97.859228
1005.000000	97.864482
1004.000000	97.884272
1003.000000	97.910896
1002.000000	97.933455
1001.000000	97.947907
1000.000000	97.957747
999.000000	97.967073
998.000000	97.976454
997.000000	97.984485
996.000000	97.989695
995.000000	97.991317
994.000000	97.990411
993.000000	97.989943
992.000000	97.992588
991.000000	97.999753
990.000000	98.012984
989.000000	98.033335
988.000000	98.057455
987.000000	98.077784
986.000000	98.089572
985.000000	98.095125
984.000000	98.098358
983.000000	98.098698
982.000000	98.094164
981.000000	98.087088
980.000000	98.082475
979.000000	98.082586
978.000000	98.087071
977.000000	98.095844
976.000000	98.107547
975.000000	98.117454
974.000000	98.122052
973.000000	98.124598
972.000000	98.131718
971.000000	98.145763
970.000000	98.163967
969.000000	98.183281
968.000000	98.201542
967.000000	98.216109
966.000000	98.226434
965.000000	98.236406
964.000000	98.248937
963.000000	98.260001
962.000000	98.263610
961.000000	98.261510
960.000000	98.261889
959.000000	98.269422
958.000000	98.282967
957.000000	98.301663
956.000000	98.325647
955.000000	98.349740
954.000000	98.364591
953.000000	98.367004
952.000000	98.363694
951.000000	98.362557
950.000000	98.365785
949.000000	98.373679
948.000000	98.388268
947.000000	98.408605
946.000000	98.426861
945.000000	98.434578
944.000000	98.430919
943.000000	98.422409
942.000000	98.416740
941.000000	98.418484
940.000000	98.427476
939.000000	98.438555
938.000000	98.445263
937.000000	98.446566
936.000000	98.447647
935.000000	98.452679
934.000000	98.460122
933.000000	98.467331
932.000000	98.476057
931.000000	98.489107
930.000000	98.503845
929.000000	98.513516
928.000000	98.514931
927.000000	98.511959
926.000000	98.511054
925.000000	98.515196
924.000000	98.521993
923.000000	98.526165
922.000000	98.524101
921.000000	98.517151
920.000000	98.510774
919.000000	98.510063
918.000000	98.515985
917.000000	98.525720
916.000000	98.535924
915.000000	98.545809
914.000000	98.557585
913.000000	98.572964
912.000000	98.588472
911.000000	98.596384
910.000000	98.592994
909.000000	98.584945
908.000000	98.583566
907.000000	98.592959
906.000000	98.606996
905.000000	98.617795
904.000000	98.623661
903.000000	98.627732
902.000000	98.632853
901.000000	98.639852
900.000000	98.648195
899.000000	98.656561
898.000000	98.664145
897.000000	98.672623
896.000000	98.684243
895.000000	98.697341
894.000000	98.706368
893.000000	98.707908
892.000000	98.704474
891.000000	98.701622
890.000000	98.703018
889.000000	98.707831
888.000000	98.709799
887.000000	98.698017
886.000000	98.663198
885.000000	98.605371
884.000000	98.532209
883.000000	98.448479
882.000000	98.349765
881.000000	98.228331
880.000000	98.081355
879.000000	97.911430
878.000000	97.724042
877.000000	97.529528
876.000000	97.345559
875.000000	97.192731
874.000000	97.090222
873.000000	97.058000
872.000000	97.117401
871.000000	97.274168
870.000000	97.498141
869.000000	97.731883
868.000000	97.926849
867.000000	98.071661
866.000000	98.184886
865.000000	98.285486
864.000000	98.373862
863.000000	98.437915
862.000000	98.470062
861.000000	98.476498
860.000000	98.472333
859.000000	98.471493
858.000000	98.481409
857.000000	98.503044
856.000000	98.532636
855.000000	98.563414
854.000000	98.588454
853.000000	98.603867
852.000000	98.608905
851.000000	98.603944
850.000000	98.591425
849.000000	98.579313
848.000000	98.579298
847.000000	98.596994
846.000000	98.624484
845.000000	98.646057
844.000000	98.651915
843.000000	98.645096
842.000000	98.635688
841.000000	98.631001
840.000000	98.632097
839.000000	98.636873
838.000000	98.643685
837.000000	98.651546
836.000000	98.658242
835.000000	98.660254
834.000000	98.656031
833.000000	98.649089
832.000000	98.646001
831.000000	98.650459
830.000000	98.659995
829.000000	98.669123
828.000000	98.674867
827.000000	98.678451
826.000000	98.682729
825.000000	98.688872
824.000000	98.694933
823.000000	98.697341
822.000000	98.694871
821.000000	98.690756
820.000000	98.689009
819.000000	98.689115
818.000000	98.687164
817.000000	98.682683
816.000000	98.680806
815.000000	98.685820
814.000000	98.695405
813.000000	98.703823
812.000000	98.708229
811.000000	98.708719
810.000000	98.705040
809.000000	98.697722
808.000000	98.690935
807.000000	98.689330
806.000000	98.691769
805.000000	98.692649
804.000000	98.690540
803.000000	98.691112
802.000000	98.698974
801.000000	98.709357
800.000000	98.711538
799.000000	98.700654
798.000000	98.683943
797.000000	98.674208
796.000000	98.677573
795.000000	98.688432
794.000000	98.696698
793.000000	98.697968
792.000000	98.694251
791.000000	98.687169
790.000000	98.676599
789.000000	98.666965
788.000000	98.667384
787.000000	98.680149
786.000000	98.694040
785.000000	98.696612
784.000000	98.690155
783.000000	98.687272
782.000000	98.692249
781.000000	98.695987
780.000000	98.690941
779.000000	98.682339
778.000000	98.680451
777.000000	98.688285
776.000000	98.701167
775.000000	98.712647
774.000000	98.715997
773.000000	98.705786
772.000000	98.685264
771.000000	98.668669
770.000000	98.668676
769.000000	98.682488
768.000000	98.695801
767.000000	98.699637
766.000000	98.697786
765.000000	98.698354
764.000000	98.703932
763.000000	98.711004
762.000000	98.713865
761.000000	98.707706
760.000000	98.692273
759.000000	98.674167
758.000000	98.662329
757.000000	98.659617
756.000000	98.661241
755.000000	98.662059
754.000000	98.662038
753.000000	98.663359
752.000000	98.665728
751.000000	98.667045
750.000000	98.666474
749.000000	98.664370
748.000000	98.660552
747.000000	98.654779
746.000000	98.647882
745.000000	98.640793
744.000000	98.633256
743.000000	98.624844
742.000000	98.616966
741.000000	98.613103
740.000000	98.616728
739.000000	98.627853
738.000000	98.640763
737.000000	98.646474
736.000000	98.639906
735.000000	98.624920
734.000000	98.609888
733.000000	98.597987
732.000000	98.584029
731.000000	98.561220
730.000000	98.528536
729.000000	98.491026
728.000000	98.455384
727.000000	98.427445
726.000000	98.411611
725.000000	98.407105
724.000000	98.405404
723.000000	98.396641
722.000000	98.379996
721.000000	98.364330
720.000000	98.356930
719.000000	98.354972
718.000000	98.349119
717.000000	98.329847
716.000000	98.287977
715.000000	98.218090
714.000000	98.131693
713.000000	98.063398
712.000000	98.050550
711.000000	98.100506
710.000000	98.183624
709.000000	98.261021
708.000000	98.313056
707.000000	98.340319
706.000000	98.349669
705.000000	98.348784
704.000000	98.348387
703.000000	98.358649
702.000000	98.380280
701.000000	98.404356
700.000000	98.421588
699.000000	98.426168
698.000000	98.415767
697.000000	98.395392
696.000000	98.379389
695.000000	98.381579
694.000000	98.400217
693.000000	98.420870
692.000000	98.436115
691.000000	98.451052
690.000000	98.468171
689.000000	98.476940
688.000000	98.466604
687.000000	98.443762
686.000000	98.424473
685.000000	98.415167
684.000000	98.410841
683.000000	98.406510
682.000000	98.403405
681.000000	98.405244
680.000000	98.413150
679.000000	98.421460
678.000000	98.418225
677.000000	98.398510
676.000000	98.374262
675.000000	98.365705
674.000000	98.377902
673.000000	98.394943
672.000000	98.401418
671.000000	98.398841
670.000000	98.392219
669.000000	98.376756
668.000000	98.364871
667.000000	98.362357
666.000000	98.339503
665.000000	98.317968
664.000000	98.316549
663.000000	98.330616
662.000000	98.349019
661.000000	98.364225
660.000000	98.373816
659.000000	98.378257
658.000000	98.379429
657.000000	98.380708
656.000000	98.381469
655.000000	98.377682
654.000000	98.367826
653.000000	98.354762
652.000000	98.341990
651.000000	98.333441
650.000000	98.333754
649.000000	98.344287
648.000000	98.358771
647.000000	98.367456
646.000000	98.365804
645.000000	98.354947
644.000000	98.338582
643.000000	98.324223
642.000000	98.321941
641.000000	98.337234
640.000000	98.365331
639.000000	98.395205
638.000000	98.418181
637.000000	98.430396
636.000000	98.430019
635.000000	98.419128
634.000000	98.405973
633.000000	98.398585
632.000000	98.397319
631.000000	98.397252
630.000000	98.395016
629.000000	98.390082
628.000000	98.381875
627.000000	98.370809
626.000000	98.362131
625.000000	98.362148
624.000000	98.371901
623.000000	98.386010
622.000000	98.396054
621.000000	98.394633
620.000000	98.379900
619.000000	98.358952
618.000000	98.342755
617.000000	98.334583
616.000000	98.328325
615.000000	98.321210
614.000000	98.320045
613.000000	98.330225
612.000000	98.344915
611.000000	98.351817
610.000000	98.346587
609.000000	98.334196
608.000000	98.321009
607.000000	98.310920
606.000000	98.307057
605.000000	98.308768
604.000000	98.310296
603.000000	98.308124
602.000000	98.307747
601.000000	98.318947
600.000000	98.346155
599.000000	98.383587
598.000000	98.418079
597.000000	98.435059
596.000000	98.426910
595.000000	98.401494
594.000000	98.379428
593.000000	98.375792
592.000000	98.385083
591.000000	98.389619
590.000000	98.380501
589.000000	98.365447
588.000000	98.358255
587.000000	98.367151
586.000000	98.388950
585.000000	98.407288
584.000000	98.402365
583.000000	98.369575
582.000000	98.327258
581.000000	98.300289
580.000000	98.298565
579.000000	98.314124
578.000000	98.335316
577.000000	98.352931
576.000000	98.356695
575.000000	98.341145
574.000000	98.315015
573.000000	98.294031
572.000000	98.286572
571.000000	98.294428
570.000000	98.318508
569.000000	98.352909
568.000000	98.377356
567.000000	98.372135
566.000000	98.344896
565.000000	98.327935
564.000000	98.344457
563.000000	98.387065
562.000000	98.430399
561.000000	98.454256
560.000000	98.451551
559.000000	98.425201
558.000000	98.387395
557.000000	98.354658
556.000000	98.337416
555.000000	98.336358
554.000000	98.345922
553.000000	98.357221
552.000000	98.362802
551.000000	98.366248
550.000000	98.381700
549.000000	98.411940
548.000000	98.431237
547.000000	98.407995
546.000000	98.346104
545.000000	98.285456
544.000000	98.254685
543.000000	98.246722
542.000000	98.246055
541.000000	98.254927
540.000000	98.278832
539.000000	98.303512
538.000000	98.307475
537.000000	98.289541
536.000000	98.267552
535.000000	98.253598
534.000000	98.247394
533.000000	98.247331
532.000000	98.254972
531.000000	98.267431
530.000000	98.277972
529.000000	98.287970
528.000000	98.307563
527.000000	98.338598
526.000000	98.365222
525.000000	98.371982
524.000000	98.363720
523.000000	98.356705
522.000000	98.358565
521.000000	98.363210
520.000000	98.361564
519.000000	98.355014
518.000000	98.358911
517.000000	98.386662
516.000000	98.428494
515.000000	98.456717
514.000000	98.452917
513.000000	98.425279
512.000000	98.398345
511.000000	98.388927
510.000000	98.396779
509.000000	98.416057
508.000000	98.445178
507.000000	98.474888
506.000000	98.481175
505.000000	98.448761
504.000000	98.392211
503.000000	98.346004
502.000000	98.334575
501.000000	98.351978
500.000000	98.378797
499.000000	98.407326
498.000000	98.437041
497.000000	98.460765
496.000000	98.468933
495.000000	98.462134
494.000000	98.447772
493.000000	98.428578
492.000000	98.403730
491.000000	98.377615
490.000000	98.358646
489.000000	98.345811
488.000000	98.328870
487.000000	98.305523
486.000000	98.293248
485.000000	98.315199
484.000000	98.367845
483.000000	98.412553
482.000000	98.412324
481.000000	98.373010
480.000000	98.336053
479.000000	98.333499
478.000000	98.360237
477.000000	98.387850
476.000000	98.399074
475.000000	98.402837
474.000000	98.419121
473.000000	98.451908
472.000000	98.478041
471.000000	98.466744
470.000000	98.417282
469.000000	98.360094
468.000000	98.334742
467.000000	98.362576
466.000000	98.422903
465.000000	98.468262
464.000000	98.466579
463.000000	98.419818
462.000000	98.353635
461.000000	98.294113
460.000000	98.255756
459.000000	98.254734
458.000000	98.306713
457.000000	98.397160
456.000000	98.488460
455.000000	98.564522
454.000000	98.629380
453.000000	98.675282
452.000000	98.730423
451.000000	98.708891
450.000000	98.708679
