PE IR       SUBTECH     SPECTRUM    ASCII       PEDS        4.00        
   -1
Trigon_clear-F002_1.ASC
23/09/08
15:08:41.00
23/09/08
15:20:53.00
uco
Sample 002 By uco Date Friday, September 08 2023
450.000000
#HDR
-1
-1
#GR
cm-1
%T
1.0
0.0
4000.000000
-1.000000
3551
8
99.843735
95.392120
#DATA
4000.000000	99.718859
3999.000000	99.717723
3998.000000	99.717113
3997.000000	99.716124
3996.000000	99.715156
3995.000000	99.714992
3994.000000	99.715298
3993.000000	99.714089
3992.000000	99.709449
3991.000000	99.701694
3990.000000	99.693893
3989.000000	99.689827
3988.000000	99.691055
3987.000000	99.695498
3986.000000	99.698929
3985.000000	99.698368
3984.000000	99.694401
3983.000000	99.690532
3982.000000	99.690032
3981.000000	99.693131
3980.000000	99.697230
3979.000000	99.699637
3978.000000	99.699899
3977.000000	99.699699
3976.000000	99.701024
3975.000000	99.704492
3974.000000	99.709149
3973.000000	99.713231
3972.000000	99.715117
3971.000000	99.714081
3970.000000	99.710603
3969.000000	99.706311
3968.000000	99.703006
3967.000000	99.701522
3966.000000	99.701355
3965.000000	99.701234
3964.000000	99.700097
3963.000000	99.697693
3962.000000	99.694586
3961.000000	99.691461
3960.000000	99.688639
3959.000000	99.686082
3958.000000	99.683589
3957.000000	99.681196
3956.000000	99.678965
3955.000000	99.676676
3954.000000	99.674015
3953.000000	99.671053
3952.000000	99.668612
3951.000000	99.667829
3950.000000	99.669628
3949.000000	99.674511
3948.000000	99.682178
3947.000000	99.690810
3946.000000	99.697023
3945.000000	99.697651
3944.000000	99.692257
3943.000000	99.684146
3942.000000	99.678415
3941.000000	99.677114
3940.000000	99.677641
3939.000000	99.676689
3938.000000	99.673766
3937.000000	99.671454
3936.000000	99.672701
3935.000000	99.678161
3934.000000	99.685508
3933.000000	99.690076
3932.000000	99.688029
3931.000000	99.679437
3930.000000	99.668527
3929.000000	99.660096
3928.000000	99.655141
3927.000000	99.651482
3926.000000	99.647112
3925.000000	99.643004
3924.000000	99.642244
3923.000000	99.646050
3922.000000	99.652462
3921.000000	99.659421
3920.000000	99.666482
3919.000000	99.673346
3918.000000	99.678262
3917.000000	99.679610
3916.000000	99.678485
3915.000000	99.677097
3914.000000	99.675355
3913.000000	99.670772
3912.000000	99.661976
3911.000000	99.651462
3910.000000	99.644245
3909.000000	99.644064
3908.000000	99.651078
3907.000000	99.663386
3906.000000	99.679335
3905.000000	99.697498
3904.000000	99.714579
3903.000000	99.724687
3902.000000	99.722615
3901.000000	99.709212
3900.000000	99.691006
3899.000000	99.675119
3898.000000	99.664433
3897.000000	99.657454
3896.000000	99.652862
3895.000000	99.651534
3894.000000	99.653558
3893.000000	99.656806
3892.000000	99.659302
3891.000000	99.663105
3890.000000	99.670651
3889.000000	99.679178
3888.000000	99.684114
3887.000000	99.683586
3886.000000	99.679285
3885.000000	99.676393
3884.000000	99.677421
3883.000000	99.678329
3882.000000	99.673468
3881.000000	99.662905
3880.000000	99.654577
3879.000000	99.655248
3878.000000	99.660906
3877.000000	99.663968
3876.000000	99.662261
3875.000000	99.659460
3874.000000	99.661693
3873.000000	99.670527
3872.000000	99.679126
3871.000000	99.678455
3870.000000	99.668433
3869.000000	99.659524
3868.000000	99.657653
3867.000000	99.658348
3866.000000	99.656901
3865.000000	99.652876
3864.000000	99.648389
3863.000000	99.645991
3862.000000	99.646003
3861.000000	99.646681
3860.000000	99.645418
3859.000000	99.641247
3858.000000	99.635122
3857.000000	99.629968
3856.000000	99.628992
3855.000000	99.632458
3854.000000	99.635404
3853.000000	99.636598
3852.000000	99.640224
3851.000000	99.644742
3850.000000	99.647016
3849.000000	99.648579
3848.000000	99.650762
3847.000000	99.652677
3846.000000	99.652199
3845.000000	99.648542
3844.000000	99.643747
3843.000000	99.641668
3842.000000	99.644141
3841.000000	99.649105
3840.000000	99.652955
3839.000000	99.655066
3838.000000	99.658129
3837.000000	99.663930
3836.000000	99.670044
3835.000000	99.671732
3834.000000	99.666559
3833.000000	99.656177
3832.000000	99.644821
3831.000000	99.636687
3830.000000	99.632429
3829.000000	99.629385
3828.000000	99.625319
3827.000000	99.622031
3826.000000	99.624129
3825.000000	99.633515
3824.000000	99.646700
3823.000000	99.656853
3822.000000	99.657813
3821.000000	99.651455
3820.000000	99.647921
3819.000000	99.649091
3818.000000	99.647360
3817.000000	99.639943
3816.000000	99.629928
3815.000000	99.622635
3814.000000	99.618496
3813.000000	99.614608
3812.000000	99.612312
3811.000000	99.615648
3810.000000	99.625336
3809.000000	99.636938
3808.000000	99.644928
3807.000000	99.648968
3806.000000	99.654204
3805.000000	99.661541
3804.000000	99.665224
3803.000000	99.659663
3802.000000	99.644155
3801.000000	99.627402
3800.000000	99.619841
3799.000000	99.617655
3798.000000	99.612698
3797.000000	99.604736
3796.000000	99.598702
3795.000000	99.596474
3794.000000	99.594474
3793.000000	99.589260
3792.000000	99.581842
3791.000000	99.575489
3790.000000	99.572699
3789.000000	99.574208
3788.000000	99.578446
3787.000000	99.581888
3786.000000	99.580901
3785.000000	99.574898
3784.000000	99.567163
3783.000000	99.561419
3782.000000	99.558209
3781.000000	99.556486
3780.000000	99.556373
3779.000000	99.559752
3778.000000	99.567019
3777.000000	99.574582
3776.000000	99.578796
3775.000000	99.580205
3774.000000	99.582095
3773.000000	99.586323
3772.000000	99.592161
3771.000000	99.598367
3770.000000	99.605222
3769.000000	99.613744
3768.000000	99.621380
3767.000000	99.623005
3766.000000	99.616845
3765.000000	99.606739
3764.000000	99.598202
3763.000000	99.593691
3762.000000	99.592586
3761.000000	99.594321
3760.000000	99.598455
3759.000000	99.604538
3758.000000	99.612054
3757.000000	99.619619
3756.000000	99.625212
3755.000000	99.628390
3754.000000	99.632924
3753.000000	99.645638
3752.000000	99.668618
3751.000000	99.692625
3750.000000	99.706752
3749.000000	99.710833
3748.000000	99.708263
3747.000000	99.698673
3746.000000	99.679981
3745.000000	99.653293
3744.000000	99.630994
3743.000000	99.622286
3742.000000	99.620176
3741.000000	99.618921
3740.000000	99.620422
3739.000000	99.627033
3738.000000	99.636612
3737.000000	99.642081
3736.000000	99.636205
3735.000000	99.619738
3734.000000	99.603617
3733.000000	99.595577
3732.000000	99.594115
3731.000000	99.595124
3730.000000	99.596309
3729.000000	99.597785
3728.000000	99.599549
3727.000000	99.598859
3726.000000	99.591522
3725.000000	99.576768
3724.000000	99.559590
3723.000000	99.546781
3722.000000	99.541642
3721.000000	99.541494
3720.000000	99.540792
3719.000000	99.538021
3718.000000	99.537494
3717.000000	99.544349
3716.000000	99.559027
3715.000000	99.576839
3714.000000	99.591741
3713.000000	99.597808
3712.000000	99.590030
3711.000000	99.571038
3710.000000	99.552212
3709.000000	99.542245
3708.000000	99.539957
3707.000000	99.540628
3706.000000	99.542076
3705.000000	99.543700
3704.000000	99.544600
3703.000000	99.544000
3702.000000	99.542525
3701.000000	99.542707
3700.000000	99.545069
3699.000000	99.546941
3698.000000	99.547079
3697.000000	99.547690
3696.000000	99.552039
3695.000000	99.561500
3694.000000	99.575188
3693.000000	99.590366
3692.000000	99.601911
3691.000000	99.602328
3690.000000	99.586683
3689.000000	99.561593
3688.000000	99.542693
3687.000000	99.535920
3686.000000	99.534498
3685.000000	99.533354
3684.000000	99.533365
3683.000000	99.536438
3682.000000	99.540876
3681.000000	99.543366
3680.000000	99.543449
3679.000000	99.543309
3678.000000	99.543885
3677.000000	99.542625
3676.000000	99.537154
3675.000000	99.536080
3674.000000	99.548095
3673.000000	99.562413
3672.000000	99.567183
3671.000000	99.560524
3670.000000	99.545618
3669.000000	99.532681
3668.000000	99.529010
3667.000000	99.530623
3666.000000	99.533637
3665.000000	99.538240
3664.000000	99.544156
3663.000000	99.548538
3662.000000	99.548223
3661.000000	99.543089
3660.000000	99.536502
3659.000000	99.532491
3658.000000	99.533009
3657.000000	99.537360
3656.000000	99.544392
3655.000000	99.552427
3654.000000	99.558258
3653.000000	99.559515
3652.000000	99.557608
3651.000000	99.556926
3650.000000	99.559446
3649.000000	99.559610
3648.000000	99.552662
3647.000000	99.544398
3646.000000	99.540337
3645.000000	99.539358
3644.000000	99.538373
3643.000000	99.536329
3642.000000	99.533608
3641.000000	99.530594
3640.000000	99.526657
3639.000000	99.520973
3638.000000	99.515315
3637.000000	99.513447
3636.000000	99.518243
3635.000000	99.530250
3634.000000	99.548491
3633.000000	99.571278
3632.000000	99.595789
3631.000000	99.616606
3630.000000	99.624489
3629.000000	99.613369
3628.000000	99.593675
3627.000000	99.578232
3626.000000	99.566182
3625.000000	99.557108
3624.000000	99.554386
3623.000000	99.559074
3622.000000	99.568151
3621.000000	99.576640
3620.000000	99.581071
3619.000000	99.583029
3618.000000	99.586922
3617.000000	99.592717
3616.000000	99.596455
3615.000000	99.595746
3614.000000	99.591347
3613.000000	99.587060
3612.000000	99.587618
3611.000000	99.593662
3610.000000	99.601312
3609.000000	99.605010
3608.000000	99.601623
3607.000000	99.593363
3606.000000	99.583698
3605.000000	99.573554
3604.000000	99.562930
3603.000000	99.553749
3602.000000	99.549371
3601.000000	99.551217
3600.000000	99.556797
3599.000000	99.561734
3598.000000	99.563545
3597.000000	99.562552
3596.000000	99.560979
3595.000000	99.561385
3594.000000	99.566671
3593.000000	99.578120
3592.000000	99.593875
3591.000000	99.609310
3590.000000	99.618913
3589.000000	99.618082
3588.000000	99.607309
3587.000000	99.594739
3586.000000	99.588599
3585.000000	99.587390
3584.000000	99.585057
3583.000000	99.579755
3582.000000	99.573881
3581.000000	99.570187
3580.000000	99.570138
3579.000000	99.573147
3578.000000	99.576640
3577.000000	99.577036
3576.000000	99.572580
3575.000000	99.565480
3574.000000	99.560432
3573.000000	99.560702
3572.000000	99.565723
3571.000000	99.572779
3570.000000	99.579429
3569.000000	99.583936
3568.000000	99.583727
3567.000000	99.576590
3566.000000	99.565622
3565.000000	99.558177
3564.000000	99.558085
3563.000000	99.564364
3562.000000	99.573320
3561.000000	99.580356
3560.000000	99.582213
3559.000000	99.579114
3558.000000	99.573735
3557.000000	99.568658
3556.000000	99.564761
3555.000000	99.561886
3554.000000	99.560396
3553.000000	99.561981
3552.000000	99.568105
3551.000000	99.577491
3550.000000	99.586267
3549.000000	99.591187
3548.000000	99.592183
3547.000000	99.591374
3546.000000	99.590512
3545.000000	99.589828
3544.000000	99.589156
3543.000000	99.588504
3542.000000	99.587482
3541.000000	99.585065
3540.000000	99.580385
3539.000000	99.573929
3538.000000	99.567697
3537.000000	99.564125
3536.000000	99.564877
3535.000000	99.569909
3534.000000	99.577727
3533.000000	99.586194
3532.000000	99.593806
3531.000000	99.600267
3530.000000	99.606170
3529.000000	99.611981
3528.000000	99.617302
3527.000000	99.621095
3526.000000	99.622638
3525.000000	99.621979
3524.000000	99.619831
3523.000000	99.617363
3522.000000	99.615764
3521.000000	99.615531
3520.000000	99.616291
3519.000000	99.617338
3518.000000	99.618058
3517.000000	99.617643
3516.000000	99.615649
3515.000000	99.612900
3514.000000	99.611867
3513.000000	99.614949
3512.000000	99.622383
3511.000000	99.631881
3510.000000	99.640474
3509.000000	99.646391
3508.000000	99.649265
3507.000000	99.649706
3506.000000	99.649498
3505.000000	99.651641
3504.000000	99.658261
3503.000000	99.667960
3502.000000	99.676300
3501.000000	99.679301
3500.000000	99.676142
3499.000000	99.668915
3498.000000	99.660880
3497.000000	99.654681
3496.000000	99.651426
3495.000000	99.650674
3494.000000	99.651288
3493.000000	99.652700
3492.000000	99.655491
3491.000000	99.660584
3490.000000	99.667791
3489.000000	99.675245
3488.000000	99.680809
3487.000000	99.684054
3486.000000	99.686378
3485.000000	99.689041
3484.000000	99.692043
3483.000000	99.694888
3482.000000	99.697670
3481.000000	99.700548
3480.000000	99.702538
3479.000000	99.702209
3478.000000	99.699695
3477.000000	99.697055
3476.000000	99.696094
3475.000000	99.696468
3474.000000	99.696413
3473.000000	99.694786
3472.000000	99.691770
3471.000000	99.688042
3470.000000	99.684196
3469.000000	99.681314
3468.000000	99.681226
3467.000000	99.685269
3466.000000	99.692293
3465.000000	99.698579
3464.000000	99.700825
3463.000000	99.699428
3462.000000	99.698084
3461.000000	99.699401
3460.000000	99.701877
3459.000000	99.702531
3458.000000	99.701803
3457.000000	99.703757
3456.000000	99.710821
3455.000000	99.719566
3454.000000	99.723698
3453.000000	99.720503
3452.000000	99.713177
3451.000000	99.706849
3450.000000	99.703809
3449.000000	99.703028
3448.000000	99.702571
3447.000000	99.701541
3446.000000	99.700567
3445.000000	99.701253
3444.000000	99.704943
3443.000000	99.711228
3442.000000	99.717405
3441.000000	99.720352
3440.000000	99.719209
3439.000000	99.715948
3438.000000	99.713774
3437.000000	99.715191
3436.000000	99.720590
3435.000000	99.727136
3434.000000	99.729804
3433.000000	99.725096
3432.000000	99.714729
3431.000000	99.704643
3430.000000	99.700158
3429.000000	99.702677
3428.000000	99.710451
3427.000000	99.720650
3426.000000	99.729799
3425.000000	99.734155
3424.000000	99.731704
3423.000000	99.723795
3422.000000	99.713780
3421.000000	99.704072
3420.000000	99.695349
3419.000000	99.688282
3418.000000	99.684370
3417.000000	99.684142
3416.000000	99.685815
3415.000000	99.687059
3414.000000	99.688015
3413.000000	99.691393
3412.000000	99.698951
3411.000000	99.708636
3410.000000	99.715890
3409.000000	99.717531
3408.000000	99.713914
3407.000000	99.708021
3406.000000	99.703360
3405.000000	99.702344
3404.000000	99.705174
3403.000000	99.709309
3402.000000	99.710718
3401.000000	99.706612
3400.000000	99.697679
3399.000000	99.687756
3398.000000	99.681167
3397.000000	99.679664
3396.000000	99.681359
3395.000000	99.682691
3394.000000	99.681825
3393.000000	99.680281
3392.000000	99.681104
3391.000000	99.685430
3390.000000	99.691159
3389.000000	99.695015
3388.000000	99.695485
3387.000000	99.693723
3386.000000	99.692081
3385.000000	99.691915
3384.000000	99.692561
3383.000000	99.691917
3382.000000	99.688010
3381.000000	99.680372
3380.000000	99.670786
3379.000000	99.662894
3378.000000	99.660317
3377.000000	99.664028
3376.000000	99.671150
3375.000000	99.676968
3374.000000	99.678741
3373.000000	99.677543
3372.000000	99.676258
3371.000000	99.676204
3370.000000	99.676075
3369.000000	99.673880
3368.000000	99.669106
3367.000000	99.662791
3366.000000	99.656072
3365.000000	99.649517
3364.000000	99.643802
3363.000000	99.640165
3362.000000	99.639407
3361.000000	99.640442
3360.000000	99.640535
3359.000000	99.637483
3358.000000	99.631494
3357.000000	99.624786
3356.000000	99.619566
3355.000000	99.616670
3354.000000	99.615743
3353.000000	99.616036
3352.000000	99.616872
3351.000000	99.618043
3350.000000	99.619981
3349.000000	99.622996
3348.000000	99.625882
3347.000000	99.625819
3346.000000	99.620452
3345.000000	99.610102
3344.000000	99.597747
3343.000000	99.586927
3342.000000	99.579997
3341.000000	99.577787
3340.000000	99.579668
3339.000000	99.583522
3338.000000	99.586368
3337.000000	99.585973
3336.000000	99.582091
3335.000000	99.575995
3334.000000	99.568884
3333.000000	99.560973
3332.000000	99.552104
3331.000000	99.542868
3330.000000	99.534900
3329.000000	99.529995
3328.000000	99.528835
3327.000000	99.530465
3326.000000	99.532926
3325.000000	99.534326
3324.000000	99.533608
3323.000000	99.530763
3322.000000	99.526614
3321.000000	99.522193
3320.000000	99.518077
3319.000000	99.514276
3318.000000	99.510696
3317.000000	99.507278
3316.000000	99.503701
3315.000000	99.499519
3314.000000	99.494955
3313.000000	99.491047
3312.000000	99.488432
3311.000000	99.486359
3310.000000	99.483441
3309.000000	99.479091
3308.000000	99.473787
3307.000000	99.468376
3306.000000	99.463810
3305.000000	99.461031
3304.000000	99.459987
3303.000000	99.458978
3302.000000	99.456218
3301.000000	99.452245
3300.000000	99.449610
3299.000000	99.449547
3298.000000	99.450013
3297.000000	99.447619
3296.000000	99.441155
3295.000000	99.432831
3294.000000	99.426408
3293.000000	99.424435
3292.000000	99.426564
3291.000000	99.430043
3290.000000	99.432224
3289.000000	99.432787
3288.000000	99.433120
3287.000000	99.433775
3286.000000	99.433575
3285.000000	99.431459
3284.000000	99.427998
3283.000000	99.424594
3282.000000	99.422055
3281.000000	99.420741
3280.000000	99.421048
3279.000000	99.422603
3278.000000	99.423716
3277.000000	99.422765
3276.000000	99.419946
3275.000000	99.416725
3274.000000	99.413964
3273.000000	99.411645
3272.000000	99.409979
3271.000000	99.409447
3270.000000	99.409848
3269.000000	99.410683
3268.000000	99.412643
3267.000000	99.417207
3266.000000	99.424001
3265.000000	99.429428
3264.000000	99.429244
3263.000000	99.422647
3262.000000	99.413285
3261.000000	99.406401
3260.000000	99.404838
3259.000000	99.407487
3258.000000	99.411184
3257.000000	99.413999
3256.000000	99.416689
3255.000000	99.420869
3254.000000	99.426231
3253.000000	99.430328
3252.000000	99.431083
3251.000000	99.428460
3250.000000	99.423534
3249.000000	99.417038
3248.000000	99.409837
3247.000000	99.404202
3246.000000	99.403173
3245.000000	99.407924
3244.000000	99.416155
3243.000000	99.423533
3242.000000	99.426601
3241.000000	99.424625
3240.000000	99.419407
3239.000000	99.413891
3238.000000	99.410462
3237.000000	99.409798
3236.000000	99.410901
3235.000000	99.412166
3234.000000	99.412567
3233.000000	99.411935
3232.000000	99.410530
3231.000000	99.408556
3230.000000	99.406116
3229.000000	99.403397
3228.000000	99.400651
3227.000000	99.398094
3226.000000	99.395987
3225.000000	99.394703
3224.000000	99.394483
3223.000000	99.395096
3222.000000	99.396065
3221.000000	99.397372
3220.000000	99.399416
3219.000000	99.401914
3218.000000	99.403134
3217.000000	99.401135
3216.000000	99.395962
3215.000000	99.389978
3214.000000	99.385515
3213.000000	99.382648
3212.000000	99.379859
3211.000000	99.376601
3210.000000	99.374329
3209.000000	99.374842
3208.000000	99.378059
3207.000000	99.381874
3206.000000	99.384146
3205.000000	99.384591
3204.000000	99.384516
3203.000000	99.384662
3202.000000	99.383664
3201.000000	99.379431
3200.000000	99.372131
3199.000000	99.365135
3198.000000	99.362052
3197.000000	99.363039
3196.000000	99.364610
3195.000000	99.363251
3194.000000	99.358414
3193.000000	99.351983
3192.000000	99.345686
3191.000000	99.339838
3190.000000	99.334523
3189.000000	99.330955
3188.000000	99.330676
3187.000000	99.333273
3186.000000	99.335703
3185.000000	99.335120
3184.000000	99.332516
3183.000000	99.332317
3182.000000	99.337573
3181.000000	99.345908
3180.000000	99.351295
3179.000000	99.349429
3178.000000	99.341003
3177.000000	99.330099
3176.000000	99.320805
3175.000000	99.315747
3174.000000	99.316181
3173.000000	99.321570
3172.000000	99.328871
3171.000000	99.333670
3170.000000	99.333162
3169.000000	99.328249
3168.000000	99.322677
3167.000000	99.319916
3166.000000	99.320700
3165.000000	99.323148
3164.000000	99.324948
3163.000000	99.325210
3162.000000	99.324422
3161.000000	99.323184
3160.000000	99.321597
3159.000000	99.319749
3158.000000	99.318200
3157.000000	99.317562
3156.000000	99.317731
3155.000000	99.317877
3154.000000	99.317240
3153.000000	99.315811
3152.000000	99.314158
3151.000000	99.312748
3150.000000	99.311704
3149.000000	99.311300
3148.000000	99.312351
3147.000000	99.315587
3146.000000	99.320396
3145.000000	99.324388
3144.000000	99.324596
3143.000000	99.319620
3142.000000	99.310957
3141.000000	99.302276
3140.000000	99.297045
3139.000000	99.296288
3138.000000	99.298198
3137.000000	99.299915
3136.000000	99.299915
3135.000000	99.299023
3134.000000	99.299230
3133.000000	99.301510
3132.000000	99.304713
3131.000000	99.306399
3130.000000	99.304672
3129.000000	99.299631
3128.000000	99.293575
3127.000000	99.289743
3126.000000	99.290093
3125.000000	99.293773
3124.000000	99.297525
3123.000000	99.297871
3122.000000	99.293366
3121.000000	99.285416
3120.000000	99.277261
3119.000000	99.272056
3118.000000	99.271108
3117.000000	99.273241
3116.000000	99.275721
3115.000000	99.276585
3114.000000	99.276247
3113.000000	99.276376
3112.000000	99.277192
3111.000000	99.276904
3110.000000	99.274644
3109.000000	99.272857
3108.000000	99.274918
3107.000000	99.280335
3106.000000	99.284496
3105.000000	99.284069
3104.000000	99.280566
3103.000000	99.277257
3102.000000	99.274367
3101.000000	99.269824
3100.000000	99.263550
3099.000000	99.258125
3098.000000	99.255090
3097.000000	99.253197
3096.000000	99.250887
3095.000000	99.248450
3094.000000	99.246956
3093.000000	99.246695
3092.000000	99.247711
3091.000000	99.250324
3090.000000	99.253899
3089.000000	99.256135
3088.000000	99.254890
3087.000000	99.250108
3086.000000	99.243156
3085.000000	99.235335
3084.000000	99.228106
3083.000000	99.223893
3082.000000	99.224646
3081.000000	99.229372
3080.000000	99.234245
3079.000000	99.235777
3078.000000	99.233526
3077.000000	99.229698
3076.000000	99.226873
3075.000000	99.226229
3074.000000	99.227257
3073.000000	99.228511
3072.000000	99.228525
3071.000000	99.226329
3070.000000	99.221684
3069.000000	99.215533
3068.000000	99.210000
3067.000000	99.206974
3066.000000	99.206146
3065.000000	99.205072
3064.000000	99.201907
3063.000000	99.197755
3062.000000	99.195738
3061.000000	99.197814
3060.000000	99.202779
3059.000000	99.207197
3058.000000	99.208100
3057.000000	99.205224
3056.000000	99.201233
3055.000000	99.199471
3054.000000	99.201054
3053.000000	99.203927
3052.000000	99.204800
3051.000000	99.201994
3050.000000	99.196535
3049.000000	99.191137
3048.000000	99.188271
3047.000000	99.188633
3046.000000	99.190649
3045.000000	99.191457
3044.000000	99.189200
3043.000000	99.184879
3042.000000	99.181632
3041.000000	99.181777
3040.000000	99.184606
3039.000000	99.187292
3038.000000	99.187718
3037.000000	99.186019
3036.000000	99.183542
3035.000000	99.181019
3034.000000	99.178171
3033.000000	99.174752
3032.000000	99.171138
3031.000000	99.167681
3030.000000	99.163971
3029.000000	99.159285
3028.000000	99.153618
3027.000000	99.147751
3026.000000	99.142467
3025.000000	99.138304
3024.000000	99.136133
3023.000000	99.137138
3022.000000	99.141508
3021.000000	99.147250
3020.000000	99.150638
3019.000000	99.148149
3018.000000	99.138408
3017.000000	99.122985
3016.000000	99.105295
3015.000000	99.088192
3014.000000	99.072325
3013.000000	99.057141
3012.000000	99.043218
3011.000000	99.032643
3010.000000	99.026618
3009.000000	99.023620
3008.000000	99.020769
3007.000000	99.016738
3006.000000	99.012553
3005.000000	99.009684
3004.000000	99.008148
3003.000000	99.006727
3002.000000	99.004589
3001.000000	99.002328
3000.000000	99.001494
2999.000000	99.003313
2998.000000	99.007572
2997.000000	99.012520
2996.000000	99.015696
2995.000000	99.015123
2994.000000	99.010158
2993.000000	99.001699
2992.000000	98.991699
2991.000000	98.981902
2990.000000	98.972616
2989.000000	98.962645
2988.000000	98.950810
2987.000000	98.937561
2986.000000	98.924744
2985.000000	98.913594
2984.000000	98.903157
2983.000000	98.890982
2982.000000	98.875425
2981.000000	98.857107
2980.000000	98.838110
2979.000000	98.819801
2978.000000	98.801498
2977.000000	98.781119
2976.000000	98.756738
2975.000000	98.727722
2974.000000	98.694869
2973.000000	98.659708
2972.000000	98.623155
2971.000000	98.584316
2970.000000	98.541101
2969.000000	98.492526
2968.000000	98.440106
2967.000000	98.386414
2966.000000	98.332614
2965.000000	98.278486
2964.000000	98.224439
2963.000000	98.172001
2962.000000	98.121962
2961.000000	98.073521
2960.000000	98.026404
2959.000000	97.982758
2958.000000	97.945863
2957.000000	97.917378
2956.000000	97.896836
2955.000000	97.883134
2954.000000	97.875220
2953.000000	97.871705
2952.000000	97.871076
2951.000000	97.872408
2950.000000	97.874219
2949.000000	97.872560
2948.000000	97.861707
2947.000000	97.837911
2946.000000	97.801885
2945.000000	97.756697
2944.000000	97.704122
2943.000000	97.643683
2942.000000	97.574749
2941.000000	97.497853
2940.000000	97.413618
2939.000000	97.321274
2938.000000	97.218677
2937.000000	97.103868
2936.000000	96.976623
2935.000000	96.839481
2934.000000	96.697580
2933.000000	96.556616
2932.000000	96.419727
2931.000000	96.285915
2930.000000	96.152111
2929.000000	96.017137
2928.000000	95.884009
2927.000000	95.758849
2926.000000	95.647839
2925.000000	95.555109
2924.000000	95.482334
2923.000000	95.430075
2922.000000	95.399360
2921.000000	95.392120
2920.000000	95.410567
2919.000000	95.456198
2918.000000	95.530210
2917.000000	95.634135
2916.000000	95.768980
2915.000000	95.932586
2914.000000	96.117182
2913.000000	96.310286
2912.000000	96.498400
2911.000000	96.671273
2910.000000	96.823491
2909.000000	96.953749
2908.000000	97.063924
2907.000000	97.158205
2906.000000	97.241482
2905.000000	97.316705
2904.000000	97.384117
2903.000000	97.443404
2902.000000	97.496433
2901.000000	97.546587
2900.000000	97.596691
2899.000000	97.647260
2898.000000	97.697611
2897.000000	97.747226
2896.000000	97.795501
2895.000000	97.841150
2894.000000	97.883068
2893.000000	97.921809
2892.000000	97.959517
2891.000000	97.998242
2890.000000	98.038507
2889.000000	98.079219
2888.000000	98.118079
2887.000000	98.152096
2886.000000	98.179001
2885.000000	98.199282
2884.000000	98.216617
2883.000000	98.235134
2882.000000	98.255495
2881.000000	98.273755
2880.000000	98.284319
2879.000000	98.284313
2878.000000	98.275334
2877.000000	98.261310
2876.000000	98.244776
2875.000000	98.225532
2874.000000	98.203037
2873.000000	98.179413
2872.000000	98.158769
2871.000000	98.143149
2870.000000	98.130159
2869.000000	98.115525
2868.000000	98.096990
2867.000000	98.074127
2866.000000	98.044658
2865.000000	98.003133
2864.000000	97.944269
2863.000000	97.866783
2862.000000	97.773069
2861.000000	97.666141
2860.000000	97.548312
2859.000000	97.422499
2858.000000	97.293161
2857.000000	97.165259
2856.000000	97.043001
2855.000000	96.930167
2854.000000	96.832297
2853.000000	96.757964
2852.000000	96.717871
2851.000000	96.722665
2850.000000	96.780039
2849.000000	96.891941
2848.000000	97.051950
2847.000000	97.244877
2846.000000	97.450405
2845.000000	97.650023
2844.000000	97.831907
2843.000000	97.991173
2842.000000	98.126908
2841.000000	98.239894
2840.000000	98.332844
2839.000000	98.410070
2838.000000	98.475578
2837.000000	98.531633
2836.000000	98.579381
2835.000000	98.620043
2834.000000	98.655096
2833.000000	98.685918
2832.000000	98.713913
2831.000000	98.740289
2830.000000	98.765024
2829.000000	98.786964
2828.000000	98.805742
2827.000000	98.822963
2826.000000	98.840441
2825.000000	98.857767
2824.000000	98.872926
2823.000000	98.885217
2822.000000	98.896470
2821.000000	98.909098
2820.000000	98.923631
2819.000000	98.938262
2818.000000	98.950268
2817.000000	98.958028
2816.000000	98.962594
2815.000000	98.967381
2814.000000	98.975500
2813.000000	98.986967
2812.000000	98.998851
2811.000000	99.008144
2810.000000	99.013975
2809.000000	99.017322
2808.000000	99.019634
2807.000000	99.022205
2806.000000	99.025929
2805.000000	99.030771
2804.000000	99.035665
2803.000000	99.039601
2802.000000	99.042786
2801.000000	99.046369
2800.000000	99.050979
2799.000000	99.055846
2798.000000	99.059600
2797.000000	99.061949
2796.000000	99.064458
2795.000000	99.069209
2794.000000	99.076284
2793.000000	99.082704
2792.000000	99.084634
2791.000000	99.081188
2790.000000	99.076024
2789.000000	99.074667
2788.000000	99.079955
2787.000000	99.089968
2786.000000	99.100227
2785.000000	99.107656
2784.000000	99.112246
2783.000000	99.115271
2782.000000	99.116934
2781.000000	99.116596
2780.000000	99.114915
2779.000000	99.114379
2778.000000	99.117080
2777.000000	99.122556
2776.000000	99.128480
2775.000000	99.133092
2774.000000	99.136343
2773.000000	99.139026
2772.000000	99.141645
2771.000000	99.144186
2770.000000	99.146347
2769.000000	99.147735
2768.000000	99.148087
2767.000000	99.147435
2766.000000	99.146022
2765.000000	99.144273
2764.000000	99.143030
2763.000000	99.143385
2762.000000	99.145623
2761.000000	99.148377
2760.000000	99.149457
2759.000000	99.147885
2758.000000	99.145010
2757.000000	99.143457
2756.000000	99.144879
2755.000000	99.148503
2754.000000	99.151765
2753.000000	99.152558
2752.000000	99.151062
2751.000000	99.149317
2750.000000	99.149143
2749.000000	99.150867
2748.000000	99.153825
2747.000000	99.157183
2746.000000	99.159910
2745.000000	99.160997
2744.000000	99.160670
2743.000000	99.160871
2742.000000	99.163546
2741.000000	99.168492
2740.000000	99.173445
2739.000000	99.176033
2738.000000	99.175178
2737.000000	99.171279
2736.000000	99.166090
2735.000000	99.162211
2734.000000	99.161546
2733.000000	99.163998
2732.000000	99.168206
2731.000000	99.173228
2730.000000	99.178494
2729.000000	99.182449
2728.000000	99.182917
2727.000000	99.179548
2726.000000	99.174900
2725.000000	99.172297
2724.000000	99.172944
2723.000000	99.175409
2722.000000	99.177324
2721.000000	99.177288
2720.000000	99.175861
2719.000000	99.175092
2718.000000	99.176512
2717.000000	99.179302
2716.000000	99.181068
2715.000000	99.180697
2714.000000	99.179676
2713.000000	99.180108
2712.000000	99.182256
2711.000000	99.184677
2710.000000	99.186052
2709.000000	99.186027
2708.000000	99.184878
2707.000000	99.183502
2706.000000	99.183479
2705.000000	99.185996
2704.000000	99.190400
2703.000000	99.194490
2702.000000	99.196537
2701.000000	99.196643
2700.000000	99.196101
2699.000000	99.195885
2698.000000	99.195922
2697.000000	99.195438
2696.000000	99.193868
2695.000000	99.191697
2694.000000	99.190405
2693.000000	99.191208
2692.000000	99.193748
2691.000000	99.196356
2690.000000	99.197743
2689.000000	99.198012
2688.000000	99.197843
2687.000000	99.197227
2686.000000	99.195605
2685.000000	99.193066
2684.000000	99.190712
2683.000000	99.189559
2682.000000	99.189510
2681.000000	99.189724
2680.000000	99.189625
2679.000000	99.189060
2678.000000	99.187741
2677.000000	99.185458
2676.000000	99.183137
2675.000000	99.182874
2674.000000	99.186014
2673.000000	99.191345
2672.000000	99.195978
2671.000000	99.198232
2670.000000	99.199043
2669.000000	99.200319
2668.000000	99.202485
2667.000000	99.204226
2666.000000	99.204325
2665.000000	99.202987
2664.000000	99.201111
2663.000000	99.198794
2662.000000	99.195253
2661.000000	99.190315
2660.000000	99.185442
2659.000000	99.182668
2658.000000	99.182527
2657.000000	99.183677
2656.000000	99.184942
2655.000000	99.187143
2654.000000	99.192050
2653.000000	99.199592
2652.000000	99.206980
2651.000000	99.211142
2650.000000	99.211638
2649.000000	99.210861
2648.000000	99.211705
2647.000000	99.215439
2646.000000	99.221462
2645.000000	99.228271
2644.000000	99.234360
2643.000000	99.238710
2642.000000	99.241118
2641.000000	99.242198
2640.000000	99.242857
2639.000000	99.243724
2638.000000	99.245196
2637.000000	99.247884
2636.000000	99.252294
2635.000000	99.257621
2634.000000	99.261448
2633.000000	99.261697
2632.000000	99.259120
2631.000000	99.256969
2630.000000	99.257537
2629.000000	99.259555
2628.000000	99.259679
2627.000000	99.256350
2626.000000	99.251641
2625.000000	99.249470
2624.000000	99.252421
2623.000000	99.260048
2622.000000	99.269506
2621.000000	99.277708
2620.000000	99.283446
2619.000000	99.287757
2618.000000	99.292211
2617.000000	99.296956
2616.000000	99.300504
2615.000000	99.301036
2614.000000	99.297720
2613.000000	99.291338
2612.000000	99.284225
2611.000000	99.279177
2610.000000	99.277612
2609.000000	99.278938
2608.000000	99.282054
2607.000000	99.286720
2606.000000	99.292438
2605.000000	99.296830
2604.000000	99.297060
2603.000000	99.293224
2602.000000	99.288831
2601.000000	99.287101
2600.000000	99.288020
2599.000000	99.289765
2598.000000	99.291725
2597.000000	99.294566
2596.000000	99.297839
2595.000000	99.299246
2594.000000	99.296725
2593.000000	99.290371
2592.000000	99.281898
2591.000000	99.273103
2590.000000	99.265666
2589.000000	99.261773
2588.000000	99.263245
2587.000000	99.269179
2586.000000	99.275424
2585.000000	99.277843
2584.000000	99.276285
2583.000000	99.274323
2582.000000	99.274954
2581.000000	99.277988
2580.000000	99.282166
2579.000000	99.287980
2578.000000	99.296349
2577.000000	99.305651
2576.000000	99.312659
2575.000000	99.316590
2574.000000	99.319830
2573.000000	99.323820
2572.000000	99.326341
2571.000000	99.324432
2570.000000	99.318453
2569.000000	99.311350
2568.000000	99.304863
2567.000000	99.298792
2566.000000	99.294030
2565.000000	99.293901
2564.000000	99.300909
2563.000000	99.312942
2562.000000	99.324289
2561.000000	99.330497
2560.000000	99.331766
2559.000000	99.331418
2558.000000	99.331802
2557.000000	99.332193
2556.000000	99.330366
2555.000000	99.325513
2554.000000	99.319395
2553.000000	99.315098
2552.000000	99.314926
2551.000000	99.319123
2550.000000	99.326084
2549.000000	99.333610
2548.000000	99.340033
2547.000000	99.344408
2546.000000	99.346065
2545.000000	99.344529
2544.000000	99.339876
2543.000000	99.332800
2542.000000	99.324373
2541.000000	99.316241
2540.000000	99.310770
2539.000000	99.309879
2538.000000	99.313376
2537.000000	99.319219
2536.000000	99.325680
2535.000000	99.332251
2534.000000	99.338144
2533.000000	99.341507
2532.000000	99.341444
2531.000000	99.339746
2530.000000	99.339037
2529.000000	99.339986
2528.000000	99.341710
2527.000000	99.343885
2526.000000	99.346083
2525.000000	99.345502
2524.000000	99.338591
2523.000000	99.326357
2522.000000	99.315962
2521.000000	99.314625
2520.000000	99.322331
2519.000000	99.331919
2518.000000	99.335922
2517.000000	99.332393
2516.000000	99.324635
2515.000000	99.317473
2514.000000	99.314786
2513.000000	99.319002
2512.000000	99.330241
2511.000000	99.344689
2510.000000	99.355208
2509.000000	99.355977
2508.000000	99.347674
2507.000000	99.337265
2506.000000	99.331652
2505.000000	99.331986
2504.000000	99.334261
2503.000000	99.334567
2502.000000	99.332651
2501.000000	99.331082
2500.000000	99.332496
2499.000000	99.337491
2498.000000	99.343818
2497.000000	99.347250
2496.000000	99.344722
2495.000000	99.337596
2494.000000	99.331546
2493.000000	99.332190
2492.000000	99.340288
2491.000000	99.351176
2490.000000	99.359079
2489.000000	99.362567
2488.000000	99.365593
2487.000000	99.372494
2486.000000	99.382363
2485.000000	99.389821
2484.000000	99.391579
2483.000000	99.389900
2482.000000	99.388220
2481.000000	99.385934
2480.000000	99.380572
2479.000000	99.373927
2478.000000	99.371931
2477.000000	99.377517
2476.000000	99.386700
2475.000000	99.393523
2474.000000	99.396995
2473.000000	99.401191
2472.000000	99.409577
2471.000000	99.420956
2470.000000	99.430512
2469.000000	99.433557
2468.000000	99.428346
2467.000000	99.416555
2466.000000	99.401601
2465.000000	99.386782
2464.000000	99.374828
2463.000000	99.368120
2462.000000	99.367858
2461.000000	99.372725
2460.000000	99.379350
2459.000000	99.384298
2458.000000	99.385075
2457.000000	99.380027
2456.000000	99.369616
2455.000000	99.358402
2454.000000	99.353281
2453.000000	99.357640
2452.000000	99.367688
2451.000000	99.375854
2450.000000	99.377661
2449.000000	99.374334
2448.000000	99.369630
2447.000000	99.365940
2446.000000	99.363737
2445.000000	99.363353
2444.000000	99.365706
2443.000000	99.370878
2442.000000	99.376873
2441.000000	99.381092
2440.000000	99.383426
2439.000000	99.386385
2438.000000	99.391021
2437.000000	99.394066
2436.000000	99.391640
2435.000000	99.385489
2434.000000	99.382482
2433.000000	99.386692
2432.000000	99.394125
2431.000000	99.397189
2430.000000	99.393035
2429.000000	99.385725
2428.000000	99.381220
2427.000000	99.381949
2426.000000	99.385928
2425.000000	99.389411
2424.000000	99.390154
2423.000000	99.389174
2422.000000	99.389708
2421.000000	99.393830
2420.000000	99.400026
2419.000000	99.404475
2418.000000	99.404775
2417.000000	99.402323
2416.000000	99.400997
2415.000000	99.403405
2414.000000	99.408177
2413.000000	99.411301
2412.000000	99.410644
2411.000000	99.408426
2410.000000	99.408229
2409.000000	99.410556
2408.000000	99.413223
2407.000000	99.415453
2406.000000	99.418579
2405.000000	99.422247
2404.000000	99.423298
2403.000000	99.420225
2402.000000	99.416101
2401.000000	99.414786
2400.000000	99.416350
2399.000000	99.418756
2398.000000	99.422136
2397.000000	99.427805
2396.000000	99.433907
2395.000000	99.435770
2394.000000	99.431372
2393.000000	99.423834
2392.000000	99.417812
2391.000000	99.415489
2390.000000	99.416664
2389.000000	99.420326
2388.000000	99.424641
2387.000000	99.427168
2386.000000	99.426568
2385.000000	99.423564
2384.000000	99.419516
2383.000000	99.414792
2382.000000	99.409762
2381.000000	99.406101
2380.000000	99.406255
2379.000000	99.411720
2378.000000	99.421816
2377.000000	99.433253
2376.000000	99.440405
2375.000000	99.438047
2374.000000	99.425914
2373.000000	99.410510
2372.000000	99.400667
2371.000000	99.400224
2370.000000	99.405465
2369.000000	99.410182
2368.000000	99.413252
2367.000000	99.418775
2366.000000	99.428583
2365.000000	99.437497
2364.000000	99.437985
2363.000000	99.427560
2362.000000	99.409608
2361.000000	99.389884
2360.000000	99.374272
2359.000000	99.369718
2358.000000	99.379719
2357.000000	99.397855
2356.000000	99.414552
2355.000000	99.423577
2354.000000	99.422981
2353.000000	99.414428
2352.000000	99.404256
2351.000000	99.399273
2350.000000	99.400246
2349.000000	99.404443
2348.000000	99.407125
2347.000000	99.404178
2346.000000	99.397511
2345.000000	99.395393
2344.000000	99.402696
2343.000000	99.412281
2342.000000	99.417638
2341.000000	99.418364
2340.000000	99.415606
2339.000000	99.408502
2338.000000	99.396510
2337.000000	99.383618
2336.000000	99.375904
2335.000000	99.376255
2334.000000	99.381512
2333.000000	99.388911
2332.000000	99.398524
2331.000000	99.410921
2330.000000	99.420632
2329.000000	99.423761
2328.000000	99.419888
2327.000000	99.412314
2326.000000	99.402493
2325.000000	99.391890
2324.000000	99.384295
2323.000000	99.383320
2322.000000	99.389724
2321.000000	99.401166
2320.000000	99.414235
2319.000000	99.426699
2318.000000	99.436696
2317.000000	99.444595
2316.000000	99.449976
2315.000000	99.452018
2314.000000	99.448551
2313.000000	99.440545
2312.000000	99.430772
2311.000000	99.423151
2310.000000	99.420326
2309.000000	99.425541
2308.000000	99.438699
2307.000000	99.453603
2306.000000	99.460468
2305.000000	99.456083
2304.000000	99.447089
2303.000000	99.442459
2302.000000	99.443409
2301.000000	99.444820
2300.000000	99.441880
2299.000000	99.434347
2298.000000	99.423463
2297.000000	99.411430
2296.000000	99.401823
2295.000000	99.399102
2294.000000	99.403966
2293.000000	99.412391
2292.000000	99.419028
2291.000000	99.421404
2290.000000	99.420387
2289.000000	99.418477
2288.000000	99.418462
2287.000000	99.421929
2286.000000	99.428317
2285.000000	99.434803
2284.000000	99.437736
2283.000000	99.434597
2282.000000	99.426998
2281.000000	99.422267
2280.000000	99.429404
2279.000000	99.449889
2278.000000	99.473542
2277.000000	99.486819
2276.000000	99.485672
2275.000000	99.477916
2274.000000	99.472746
2273.000000	99.471468
2272.000000	99.469039
2271.000000	99.461820
2270.000000	99.452102
2269.000000	99.446680
2268.000000	99.451487
2267.000000	99.465691
2266.000000	99.480774
2265.000000	99.487836
2264.000000	99.486204
2263.000000	99.482589
2262.000000	99.481438
2261.000000	99.479692
2260.000000	99.472677
2259.000000	99.461937
2258.000000	99.454750
2257.000000	99.456568
2256.000000	99.465375
2255.000000	99.472660
2254.000000	99.469948
2253.000000	99.456513
2252.000000	99.441497
2251.000000	99.436920
2250.000000	99.447172
2249.000000	99.465789
2248.000000	99.481908
2247.000000	99.488355
2246.000000	99.484826
2245.000000	99.476673
2244.000000	99.471718
2243.000000	99.474973
2242.000000	99.484116
2241.000000	99.491863
2240.000000	99.493805
2239.000000	99.492015
2238.000000	99.490152
2237.000000	99.488495
2236.000000	99.486131
2235.000000	99.485185
2234.000000	99.489068
2233.000000	99.497278
2232.000000	99.504858
2231.000000	99.507434
2230.000000	99.505536
2229.000000	99.503767
2228.000000	99.505764
2227.000000	99.509073
2226.000000	99.505582
2225.000000	99.489375
2224.000000	99.464765
2223.000000	99.443970
2222.000000	99.436081
2221.000000	99.440281
2220.000000	99.449766
2219.000000	99.458558
2218.000000	99.462726
2217.000000	99.460234
2216.000000	99.454613
2215.000000	99.456414
2214.000000	99.474398
2213.000000	99.503885
2212.000000	99.527317
2211.000000	99.529629
2210.000000	99.512113
2209.000000	99.490526
2208.000000	99.480698
2207.000000	99.486327
2206.000000	99.499710
2205.000000	99.511238
2204.000000	99.515511
2203.000000	99.509383
2202.000000	99.489929
2201.000000	99.459935
2200.000000	99.433316
2199.000000	99.427399
2198.000000	99.447125
2197.000000	99.479480
2196.000000	99.505420
2195.000000	99.514809
2194.000000	99.509533
2193.000000	99.498125
2192.000000	99.491127
2191.000000	99.496455
2190.000000	99.513599
2189.000000	99.533224
2188.000000	99.545634
2187.000000	99.547533
2186.000000	99.538405
2185.000000	99.516907
2184.000000	99.488499
2183.000000	99.471261
2182.000000	99.481796
2181.000000	99.513792
2180.000000	99.541676
2179.000000	99.550595
2178.000000	99.553063
2177.000000	99.570162
2176.000000	99.603964
2175.000000	99.636285
2174.000000	99.649997
2173.000000	99.642635
2172.000000	99.619840
2171.000000	99.585662
2170.000000	99.543279
2169.000000	99.498503
2168.000000	99.456632
2167.000000	99.418782
2166.000000	99.385898
2165.000000	99.361714
2164.000000	99.346213
2163.000000	99.331729
2162.000000	99.317056
2161.000000	99.325044
2160.000000	99.391222
2159.000000	99.519894
2158.000000	99.656852
2157.000000	99.728295
2156.000000	99.709168
2155.000000	99.636934
2154.000000	99.567742
2153.000000	99.533255
2152.000000	99.529476
2151.000000	99.534976
2150.000000	99.536859
2149.000000	99.538036
2148.000000	99.543443
2147.000000	99.548220
2146.000000	99.544761
2145.000000	99.535971
2144.000000	99.533184
2143.000000	99.542035
2142.000000	99.557297
2141.000000	99.570127
2140.000000	99.573740
2139.000000	99.563142
2138.000000	99.538847
2137.000000	99.513433
2136.000000	99.505770
2135.000000	99.522938
2134.000000	99.552881
2133.000000	99.577442
2132.000000	99.586672
2131.000000	99.579120
2130.000000	99.557491
2129.000000	99.530853
2128.000000	99.513801
2127.000000	99.514440
2126.000000	99.525004
2125.000000	99.530003
2124.000000	99.522745
2123.000000	99.509980
2122.000000	99.502891
2121.000000	99.508019
2120.000000	99.523954
2119.000000	99.540792
2118.000000	99.544252
2117.000000	99.526833
2116.000000	99.496645
2115.000000	99.471191
2114.000000	99.462837
2113.000000	99.472782
2112.000000	99.495278
2111.000000	99.520248
2110.000000	99.533059
2109.000000	99.522320
2108.000000	99.493820
2107.000000	99.470627
2106.000000	99.473148
2105.000000	99.500477
2104.000000	99.533331
2103.000000	99.552298
2102.000000	99.552126
2101.000000	99.542171
2100.000000	99.536570
2099.000000	99.541538
2098.000000	99.549958
2097.000000	99.549669
2096.000000	99.537409
2095.000000	99.521331
2094.000000	99.510303
2093.000000	99.506854
2092.000000	99.510914
2091.000000	99.522576
2090.000000	99.536695
2089.000000	99.541233
2088.000000	99.528543
2087.000000	99.506296
2086.000000	99.491236
2085.000000	99.492957
2084.000000	99.507115
2083.000000	99.523108
2082.000000	99.533650
2081.000000	99.536091
2080.000000	99.530006
2079.000000	99.517112
2078.000000	99.502318
2077.000000	99.492128
2076.000000	99.490321
2075.000000	99.494974
2074.000000	99.500390
2073.000000	99.502897
2072.000000	99.504881
2071.000000	99.512397
2070.000000	99.529467
2069.000000	99.555194
2068.000000	99.584512
2067.000000	99.608871
2066.000000	99.617118
2065.000000	99.601655
2064.000000	99.567732
2063.000000	99.533119
2062.000000	99.515055
2061.000000	99.517829
2060.000000	99.530915
2059.000000	99.538565
2058.000000	99.533643
2057.000000	99.524144
2056.000000	99.524764
2055.000000	99.539518
2054.000000	99.555613
2053.000000	99.558931
2052.000000	99.552257
2051.000000	99.551373
2050.000000	99.564767
2049.000000	99.583593
2048.000000	99.593454
2047.000000	99.589989
2046.000000	99.577568
2045.000000	99.560058
2044.000000	99.540599
2043.000000	99.525127
2042.000000	99.519773
2041.000000	99.527962
2040.000000	99.553509
2039.000000	99.601927
2038.000000	99.672967
2037.000000	99.752835
2036.000000	99.817475
2035.000000	99.843735
2034.000000	99.817305
2033.000000	99.739876
2032.000000	99.635266
2031.000000	99.538924
2030.000000	99.476636
2029.000000	99.454988
2028.000000	99.465917
2027.000000	99.493380
2026.000000	99.516717
2025.000000	99.517062
2024.000000	99.491446
2023.000000	99.458837
2022.000000	99.445968
2021.000000	99.465979
2020.000000	99.508194
2019.000000	99.547151
2018.000000	99.563148
2017.000000	99.558052
2016.000000	99.550680
2015.000000	99.551814
2014.000000	99.552160
2013.000000	99.541709
2012.000000	99.530690
2011.000000	99.538868
2010.000000	99.567878
2009.000000	99.596934
2008.000000	99.606708
2007.000000	99.597834
2006.000000	99.584459
2005.000000	99.581516
2004.000000	99.598190
2003.000000	99.630330
2002.000000	99.657620
2001.000000	99.659928
2000.000000	99.640327
1999.000000	99.621455
1998.000000	99.617097
1997.000000	99.620170
1996.000000	99.619981
1995.000000	99.616477
1994.000000	99.611380
1993.000000	99.598148
1992.000000	99.572145
1991.000000	99.544200
1990.000000	99.531466
1989.000000	99.541336
1988.000000	99.569960
1987.000000	99.605901
1986.000000	99.630223
1985.000000	99.624756
1984.000000	99.591945
1983.000000	99.559806
1982.000000	99.556181
1981.000000	99.581152
1980.000000	99.610290
1979.000000	99.619650
1978.000000	99.599433
1977.000000	99.551224
1976.000000	99.487768
1975.000000	99.434172
1974.000000	99.416216
1973.000000	99.443415
1972.000000	99.505331
1971.000000	99.583678
1970.000000	99.661503
1969.000000	99.721271
1968.000000	99.746772
1967.000000	99.734762
1966.000000	99.699271
1965.000000	99.659889
1964.000000	99.629134
1963.000000	99.610414
1962.000000	99.600846
1961.000000	99.592168
1960.000000	99.574397
1959.000000	99.545472
1958.000000	99.516930
1957.000000	99.506384
1956.000000	99.521645
1955.000000	99.553383
1954.000000	99.585028
1953.000000	99.608575
1952.000000	99.627426
1951.000000	99.643206
1950.000000	99.647151
1949.000000	99.631396
1948.000000	99.604472
1947.000000	99.584921
1946.000000	99.579178
1945.000000	99.575683
1944.000000	99.565027
1943.000000	99.558209
1942.000000	99.574686
1941.000000	99.613142
1940.000000	99.648466
1939.000000	99.657610
1938.000000	99.638104
1937.000000	99.606546
1936.000000	99.583644
1935.000000	99.578242
1934.000000	99.584583
1933.000000	99.591704
1932.000000	99.593448
1931.000000	99.590125
1930.000000	99.584268
1929.000000	99.579714
1928.000000	99.582864
1927.000000	99.597974
1926.000000	99.619916
1925.000000	99.636798
1924.000000	99.640898
1923.000000	99.635667
1922.000000	99.630084
1921.000000	99.628191
1920.000000	99.626975
1919.000000	99.620367
1918.000000	99.603483
1917.000000	99.579271
1916.000000	99.560338
1915.000000	99.557440
1914.000000	99.569320
1913.000000	99.584609
1912.000000	99.593224
1911.000000	99.595198
1910.000000	99.595795
1909.000000	99.596757
1908.000000	99.598025
1907.000000	99.603270
1906.000000	99.616343
1905.000000	99.634061
1904.000000	99.646482
1903.000000	99.646025
1902.000000	99.634430
1901.000000	99.621353
1900.000000	99.616000
1899.000000	99.619415
1898.000000	99.625405
1897.000000	99.627841
1896.000000	99.625883
1895.000000	99.622424
1894.000000	99.619481
1893.000000	99.617899
1892.000000	99.619222
1891.000000	99.623449
1890.000000	99.626163
1889.000000	99.622590
1888.000000	99.615297
1887.000000	99.610199
1886.000000	99.608562
1885.000000	99.608498
1884.000000	99.609288
1883.000000	99.610612
1882.000000	99.609594
1881.000000	99.604173
1880.000000	99.597950
1879.000000	99.596587
1878.000000	99.600794
1877.000000	99.607321
1876.000000	99.615283
1875.000000	99.626108
1874.000000	99.638807
1873.000000	99.651012
1872.000000	99.664133
1871.000000	99.680762
1870.000000	99.695641
1869.000000	99.695913
1868.000000	99.680409
1867.000000	99.666455
1866.000000	99.663244
1865.000000	99.663894
1864.000000	99.661054
1863.000000	99.654197
1862.000000	99.644812
1861.000000	99.633227
1860.000000	99.623163
1859.000000	99.622190
1858.000000	99.632472
1857.000000	99.646193
1856.000000	99.654430
1855.000000	99.655229
1854.000000	99.651469
1853.000000	99.646479
1852.000000	99.643417
1851.000000	99.644790
1850.000000	99.650050
1849.000000	99.658070
1848.000000	99.671667
1847.000000	99.694158
1846.000000	99.718815
1845.000000	99.726894
1844.000000	99.707260
1843.000000	99.676316
1842.000000	99.655604
1841.000000	99.648589
1840.000000	99.649827
1839.000000	99.654143
1838.000000	99.656547
1837.000000	99.652965
1836.000000	99.645387
1835.000000	99.641823
1834.000000	99.647255
1833.000000	99.658606
1832.000000	99.669032
1831.000000	99.674055
1830.000000	99.672365
1829.000000	99.666160
1828.000000	99.661921
1827.000000	99.663945
1826.000000	99.669089
1825.000000	99.668579
1824.000000	99.659118
1823.000000	99.648884
1822.000000	99.644781
1821.000000	99.643956
1820.000000	99.640871
1819.000000	99.637570
1818.000000	99.640536
1817.000000	99.649311
1816.000000	99.656607
1815.000000	99.658782
1814.000000	99.657489
1813.000000	99.653496
1812.000000	99.647082
1811.000000	99.643992
1810.000000	99.651092
1809.000000	99.663994
1808.000000	99.671196
1807.000000	99.667653
1806.000000	99.657137
1805.000000	99.647105
1804.000000	99.645028
1803.000000	99.654484
1802.000000	99.670014
1801.000000	99.677224
1800.000000	99.668159
1799.000000	99.652858
1798.000000	99.643537
1797.000000	99.640357
1796.000000	99.639348
1795.000000	99.641367
1794.000000	99.647664
1793.000000	99.650661
1792.000000	99.640700
1791.000000	99.625621
1790.000000	99.619677
1789.000000	99.622399
1788.000000	99.628223
1787.000000	99.635700
1786.000000	99.644938
1785.000000	99.653678
1784.000000	99.660150
1783.000000	99.666684
1782.000000	99.675954
1781.000000	99.684256
1780.000000	99.685290
1779.000000	99.679844
1778.000000	99.674759
1777.000000	99.675095
1776.000000	99.682654
1775.000000	99.697457
1774.000000	99.716349
1773.000000	99.728945
1772.000000	99.723185
1771.000000	99.707470
1770.000000	99.699457
1769.000000	99.696623
1768.000000	99.687484
1767.000000	99.671105
1766.000000	99.657268
1765.000000	99.651521
1764.000000	99.649858
1763.000000	99.642564
1762.000000	99.622792
1761.000000	99.594167
1760.000000	99.565429
1759.000000	99.540595
1758.000000	99.515956
1757.000000	99.482621
1756.000000	99.437698
1755.000000	99.390336
1754.000000	99.349866
1753.000000	99.314445
1752.000000	99.272157
1751.000000	99.212438
1750.000000	99.139167
1749.000000	99.065305
1748.000000	98.997948
1747.000000	98.939993
1746.000000	98.892632
1745.000000	98.853566
1744.000000	98.821044
1743.000000	98.798795
1742.000000	98.792727
1741.000000	98.801591
1740.000000	98.815426
1739.000000	98.827105
1738.000000	98.843013
1737.000000	98.874536
1736.000000	98.930659
1735.000000	99.013212
1734.000000	99.096308
1733.000000	99.144087
1732.000000	99.168224
1731.000000	99.193309
1730.000000	99.225441
1729.000000	99.260067
1728.000000	99.291118
1727.000000	99.314778
1726.000000	99.332369
1725.000000	99.347454
1724.000000	99.360544
1723.000000	99.368210
1722.000000	99.369786
1721.000000	99.369303
1720.000000	99.370219
1719.000000	99.373777
1718.000000	99.379101
1717.000000	99.371167
1716.000000	99.340710
1715.000000	99.301217
1714.000000	99.262491
1713.000000	99.230717
1712.000000	99.210368
1711.000000	99.200867
1710.000000	99.199236
1709.000000	99.203749
1708.000000	99.213508
1707.000000	99.228640
1706.000000	99.247889
1705.000000	99.266451
1704.000000	99.283775
1703.000000	99.305628
1702.000000	99.336590
1701.000000	99.368879
1700.000000	99.385517
1699.000000	99.387524
1698.000000	99.389057
1697.000000	99.389389
1696.000000	99.380146
1695.000000	99.369808
1694.000000	99.367923
1693.000000	99.367755
1692.000000	99.366254
1691.000000	99.366052
1690.000000	99.370563
1689.000000	99.378333
1688.000000	99.383846
1687.000000	99.384907
1686.000000	99.383270
1685.000000	99.373677
1684.000000	99.346916
1683.000000	99.325210
1682.000000	99.326024
1681.000000	99.332357
1680.000000	99.338814
1679.000000	99.345049
1678.000000	99.347432
1677.000000	99.341543
1676.000000	99.328852
1675.000000	99.317848
1674.000000	99.313508
1673.000000	99.310799
1672.000000	99.305846
1671.000000	99.299007
1670.000000	99.288448
1669.000000	99.273588
1668.000000	99.261445
1667.000000	99.254206
1666.000000	99.249053
1665.000000	99.244300
1664.000000	99.238425
1663.000000	99.228882
1662.000000	99.214253
1661.000000	99.196962
1660.000000	99.180960
1659.000000	99.167863
1658.000000	99.156122
1657.000000	99.143084
1656.000000	99.127280
1655.000000	99.112028
1654.000000	99.100119
1653.000000	99.090130
1652.000000	99.089347
1651.000000	99.096972
1650.000000	99.100675
1649.000000	99.105548
1648.000000	99.115703
1647.000000	99.127351
1646.000000	99.127061
1645.000000	99.121262
1644.000000	99.116569
1643.000000	99.114965
1642.000000	99.117787
1641.000000	99.123194
1640.000000	99.128768
1639.000000	99.132976
1638.000000	99.135101
1637.000000	99.136714
1636.000000	99.140839
1635.000000	99.151638
1634.000000	99.167664
1633.000000	99.176599
1632.000000	99.177008
1631.000000	99.176168
1630.000000	99.178277
1629.000000	99.183677
1628.000000	99.191791
1627.000000	99.201726
1626.000000	99.212682
1625.000000	99.226845
1624.000000	99.248539
1623.000000	99.276234
1622.000000	99.300158
1621.000000	99.315846
1620.000000	99.326646
1619.000000	99.337787
1618.000000	99.354062
1617.000000	99.375952
1616.000000	99.401299
1615.000000	99.428427
1614.000000	99.451703
1613.000000	99.468192
1612.000000	99.481659
1611.000000	99.496721
1610.000000	99.513670
1609.000000	99.532083
1608.000000	99.554024
1607.000000	99.577923
1606.000000	99.597611
1605.000000	99.610953
1604.000000	99.622302
1603.000000	99.634722
1602.000000	99.645963
1601.000000	99.654514
1600.000000	99.662779
1599.000000	99.671820
1598.000000	99.679693
1597.000000	99.685354
1596.000000	99.689763
1595.000000	99.691941
1594.000000	99.688364
1593.000000	99.679241
1592.000000	99.668775
1591.000000	99.657461
1590.000000	99.640852
1589.000000	99.618097
1588.000000	99.593795
1587.000000	99.568582
1586.000000	99.535986
1585.000000	99.491359
1584.000000	99.436795
1583.000000	99.375496
1582.000000	99.308675
1581.000000	99.241182
1580.000000	99.181507
1579.000000	99.132776
1578.000000	99.092002
1577.000000	99.059953
1576.000000	99.046877
1575.000000	99.058074
1574.000000	99.081239
1573.000000	99.103508
1572.000000	99.125337
1571.000000	99.154511
1570.000000	99.191062
1569.000000	99.222539
1568.000000	99.242081
1567.000000	99.251962
1566.000000	99.255012
1565.000000	99.254745
1564.000000	99.252111
1563.000000	99.244583
1562.000000	99.230009
1561.000000	99.212349
1560.000000	99.208938
1559.000000	99.224376
1558.000000	99.201814
1557.000000	99.177167
1556.000000	99.158896
1555.000000	99.138958
1554.000000	99.112457
1553.000000	99.078034
1552.000000	99.036507
1551.000000	98.990218
1550.000000	98.941664
1549.000000	98.895095
1548.000000	98.850708
1547.000000	98.802198
1546.000000	98.741416
1545.000000	98.665458
1544.000000	98.584012
1543.000000	98.513599
1542.000000	98.462934
1541.000000	98.421316
1540.000000	98.366027
1539.000000	98.324927
1538.000000	98.334150
1537.000000	98.366954
1536.000000	98.405449
1535.000000	98.454358
1534.000000	98.524336
1533.000000	98.605600
1532.000000	98.672179
1531.000000	98.718957
1530.000000	98.754012
1529.000000	98.786098
1528.000000	98.821536
1527.000000	98.861918
1526.000000	98.897507
1525.000000	98.913712
1524.000000	98.912807
1523.000000	98.915341
1522.000000	98.931634
1521.000000	98.939911
1520.000000	98.925403
1519.000000	98.902715
1518.000000	98.884603
1517.000000	98.874556
1516.000000	98.871756
1515.000000	98.875839
1514.000000	98.883459
1513.000000	98.890535
1512.000000	98.894910
1511.000000	98.896407
1510.000000	98.896703
1509.000000	98.896912
1508.000000	98.900195
1507.000000	98.901048
1506.000000	98.901053
1505.000000	98.914152
1504.000000	98.919045
1503.000000	98.915835
1502.000000	98.912726
1501.000000	98.910601
1500.000000	98.907346
1499.000000	98.904080
1498.000000	98.905921
1497.000000	98.908932
1496.000000	98.902840
1495.000000	98.890812
1494.000000	98.881487
1493.000000	98.875603
1492.000000	98.870904
1491.000000	98.865580
1490.000000	98.855549
1489.000000	98.830739
1488.000000	98.794001
1487.000000	98.762703
1486.000000	98.742396
1485.000000	98.725712
1484.000000	98.706079
1483.000000	98.681906
1482.000000	98.652819
1481.000000	98.617813
1480.000000	98.578896
1479.000000	98.540880
1478.000000	98.504227
1477.000000	98.465479
1476.000000	98.425192
1475.000000	98.389328
1474.000000	98.353007
1473.000000	98.290095
1472.000000	98.188040
1471.000000	98.080550
1470.000000	97.991637
1469.000000	97.916726
1468.000000	97.851864
1467.000000	97.800770
1466.000000	97.769870
1465.000000	97.760458
1464.000000	97.765756
1463.000000	97.775182
1462.000000	97.780057
1461.000000	97.777596
1460.000000	97.771246
1459.000000	97.771322
1458.000000	97.787244
1457.000000	97.805659
1456.000000	97.802493
1455.000000	97.782569
1454.000000	97.760202
1453.000000	97.745230
1452.000000	97.739023
1451.000000	97.737897
1450.000000	97.737198
1449.000000	97.734005
1448.000000	97.726496
1447.000000	97.714615
1446.000000	97.700619
1445.000000	97.685613
1444.000000	97.671645
1443.000000	97.660736
1442.000000	97.651601
1441.000000	97.642366
1440.000000	97.634998
1439.000000	97.633632
1438.000000	97.639657
1437.000000	97.646908
1436.000000	97.644474
1435.000000	97.629650
1434.000000	97.612866
1433.000000	97.603860
1432.000000	97.605127
1431.000000	97.612450
1430.000000	97.621151
1429.000000	97.630805
1428.000000	97.640772
1427.000000	97.647283
1426.000000	97.648837
1425.000000	97.649660
1424.000000	97.654873
1423.000000	97.662280
1422.000000	97.667357
1421.000000	97.669567
1420.000000	97.670217
1419.000000	97.669070
1418.000000	97.668218
1417.000000	97.671322
1416.000000	97.678185
1415.000000	97.688697
1414.000000	97.704193
1413.000000	97.727235
1412.000000	97.758948
1411.000000	97.794125
1410.000000	97.824891
1409.000000	97.848693
1408.000000	97.868640
1407.000000	97.889390
1406.000000	97.915226
1405.000000	97.947689
1404.000000	97.981832
1403.000000	98.009628
1402.000000	98.030577
1401.000000	98.051463
1400.000000	98.076210
1399.000000	98.098140
1398.000000	98.109482
1397.000000	98.114592
1396.000000	98.122283
1395.000000	98.133093
1394.000000	98.142036
1393.000000	98.148837
1392.000000	98.156119
1391.000000	98.166538
1390.000000	98.181264
1389.000000	98.199445
1388.000000	98.217922
1387.000000	98.230607
1386.000000	98.233763
1385.000000	98.231136
1384.000000	98.228955
1383.000000	98.230299
1382.000000	98.234030
1381.000000	98.237646
1380.000000	98.240985
1379.000000	98.247050
1378.000000	98.259950
1377.000000	98.283136
1376.000000	98.317694
1375.000000	98.359193
1374.000000	98.397210
1373.000000	98.423757
1372.000000	98.439456
1371.000000	98.449302
1370.000000	98.459038
1369.000000	98.474133
1368.000000	98.495555
1367.000000	98.517927
1366.000000	98.536420
1365.000000	98.552358
1364.000000	98.570580
1363.000000	98.592754
1362.000000	98.614453
1361.000000	98.632656
1360.000000	98.648367
1359.000000	98.661731
1358.000000	98.671853
1357.000000	98.680382
1356.000000	98.690915
1355.000000	98.703832
1354.000000	98.714929
1353.000000	98.720484
1352.000000	98.721705
1351.000000	98.722879
1350.000000	98.726514
1349.000000	98.733027
1348.000000	98.741517
1347.000000	98.749285
1346.000000	98.753614
1345.000000	98.755271
1344.000000	98.757498
1343.000000	98.761198
1342.000000	98.763749
1341.000000	98.763664
1340.000000	98.763473
1339.000000	98.765936
1338.000000	98.770779
1337.000000	98.777002
1336.000000	98.785068
1335.000000	98.795748
1334.000000	98.807595
1333.000000	98.817713
1332.000000	98.825099
1331.000000	98.831753
1330.000000	98.840422
1329.000000	98.852176
1328.000000	98.865495
1327.000000	98.876998
1326.000000	98.883872
1325.000000	98.887117
1324.000000	98.890453
1323.000000	98.896298
1322.000000	98.903953
1321.000000	98.910967
1320.000000	98.914931
1319.000000	98.914913
1318.000000	98.912833
1317.000000	98.912065
1316.000000	98.913577
1315.000000	98.915120
1314.000000	98.914894
1313.000000	98.914011
1312.000000	98.914119
1311.000000	98.914403
1310.000000	98.913159
1309.000000	98.911118
1308.000000	98.911071
1307.000000	98.914771
1306.000000	98.921348
1305.000000	98.929068
1304.000000	98.935891
1303.000000	98.939166
1302.000000	98.937327
1301.000000	98.932185
1300.000000	98.927887
1299.000000	98.927143
1298.000000	98.929113
1297.000000	98.930756
1296.000000	98.930078
1295.000000	98.928410
1294.000000	98.929494
1293.000000	98.935117
1292.000000	98.941686
1291.000000	98.943171
1290.000000	98.938216
1289.000000	98.931789
1288.000000	98.928407
1287.000000	98.926665
1286.000000	98.923002
1285.000000	98.918084
1284.000000	98.915342
1283.000000	98.914808
1282.000000	98.912406
1281.000000	98.905588
1280.000000	98.896647
1279.000000	98.889265
1278.000000	98.884831
1277.000000	98.883217
1276.000000	98.884823
1275.000000	98.889880
1274.000000	98.896813
1273.000000	98.902716
1272.000000	98.905094
1271.000000	98.903161
1270.000000	98.898418
1269.000000	98.893819
1268.000000	98.891095
1267.000000	98.888648
1266.000000	98.883571
1265.000000	98.875761
1264.000000	98.868754
1263.000000	98.866120
1262.000000	98.867705
1261.000000	98.869801
1260.000000	98.868635
1259.000000	98.863228
1258.000000	98.855826
1257.000000	98.849623
1256.000000	98.845950
1255.000000	98.843675
1254.000000	98.841064
1253.000000	98.837699
1252.000000	98.834445
1251.000000	98.832169
1250.000000	98.831143
1249.000000	98.831110
1248.000000	98.831244
1247.000000	98.830423
1246.000000	98.828118
1245.000000	98.824247
1244.000000	98.818119
1243.000000	98.809117
1242.000000	98.799020
1241.000000	98.791880
1240.000000	98.790352
1239.000000	98.792875
1238.000000	98.795240
1237.000000	98.794099
1236.000000	98.788458
1235.000000	98.779539
1234.000000	98.770905
1233.000000	98.767232
1232.000000	98.770847
1231.000000	98.779489
1230.000000	98.788656
1229.000000	98.795866
1228.000000	98.801614
1227.000000	98.807135
1226.000000	98.812895
1225.000000	98.819129
1224.000000	98.826775
1223.000000	98.837415
1222.000000	98.852278
1221.000000	98.870395
1220.000000	98.887698
1219.000000	98.899712
1218.000000	98.906237
1217.000000	98.911473
1216.000000	98.918222
1215.000000	98.924212
1214.000000	98.926068
1213.000000	98.924828
1212.000000	98.924405
1211.000000	98.926166
1210.000000	98.928403
1209.000000	98.930406
1208.000000	98.933360
1207.000000	98.936791
1206.000000	98.937507
1205.000000	98.933572
1204.000000	98.927087
1203.000000	98.921544
1202.000000	98.918096
1201.000000	98.915761
1200.000000	98.913842
1199.000000	98.912407
1198.000000	98.911315
1197.000000	98.910227
1196.000000	98.909162
1195.000000	98.907979
1194.000000	98.905760
1193.000000	98.901977
1192.000000	98.898070
1191.000000	98.896726
1190.000000	98.899149
1189.000000	98.903581
1188.000000	98.906685
1187.000000	98.906073
1186.000000	98.901733
1185.000000	98.895636
1184.000000	98.890303
1183.000000	98.887314
1182.000000	98.886413
1181.000000	98.885853
1180.000000	98.884106
1179.000000	98.881378
1178.000000	98.879301
1177.000000	98.879101
1176.000000	98.880273
1175.000000	98.880939
1174.000000	98.879294
1173.000000	98.875021
1172.000000	98.869732
1171.000000	98.866207
1170.000000	98.866665
1169.000000	98.871224
1168.000000	98.877873
1167.000000	98.884019
1166.000000	98.888651
1165.000000	98.893591
1164.000000	98.902884
1163.000000	98.920036
1162.000000	98.944200
1161.000000	98.969269
1160.000000	98.988302
1159.000000	98.999596
1158.000000	99.007416
1157.000000	99.016136
1156.000000	99.025356
1155.000000	99.032210
1154.000000	99.036684
1153.000000	99.041837
1152.000000	99.049561
1151.000000	99.058967
1150.000000	99.069156
1149.000000	99.080733
1148.000000	99.093620
1147.000000	99.105710
1146.000000	99.115229
1145.000000	99.123055
1144.000000	99.131595
1143.000000	99.142723
1142.000000	99.157567
1141.000000	99.177049
1140.000000	99.201326
1139.000000	99.229225
1138.000000	99.258653
1137.000000	99.286720
1136.000000	99.309958
1135.000000	99.326620
1134.000000	99.339276
1133.000000	99.352765
1132.000000	99.368712
1131.000000	99.384171
1130.000000	99.396388
1129.000000	99.406386
1128.000000	99.416091
1127.000000	99.424634
1126.000000	99.429853
1125.000000	99.431660
1124.000000	99.431645
1123.000000	99.430394
1122.000000	99.427425
1121.000000	99.422871
1120.000000	99.417119
1119.000000	99.409561
1118.000000	99.399494
1117.000000	99.388132
1116.000000	99.378146
1115.000000	99.371320
1114.000000	99.367599
1113.000000	99.366271
1112.000000	99.366964
1111.000000	99.369251
1110.000000	99.372041
1109.000000	99.373806
1108.000000	99.373179
1107.000000	99.369967
1106.000000	99.365433
1105.000000	99.361369
1104.000000	99.359132
1103.000000	99.359802
1102.000000	99.364173
1101.000000	99.371541
1100.000000	99.378279
1099.000000	99.381271
1098.000000	99.379992
1097.000000	99.376033
1096.000000	99.370853
1095.000000	99.366026
1094.000000	99.364159
1093.000000	99.366259
1092.000000	99.368438
1091.000000	99.364777
1090.000000	99.354034
1089.000000	99.340811
1088.000000	99.329558
1087.000000	99.320821
1086.000000	99.314237
1085.000000	99.311558
1084.000000	99.314175
1083.000000	99.319934
1082.000000	99.325394
1081.000000	99.330114
1080.000000	99.336650
1079.000000	99.346509
1078.000000	99.357598
1077.000000	99.365576
1076.000000	99.367414
1075.000000	99.364651
1074.000000	99.363150
1073.000000	99.367739
1072.000000	99.376826
1071.000000	99.384240
1070.000000	99.386655
1069.000000	99.386735
1068.000000	99.388053
1067.000000	99.389928
1066.000000	99.389318
1065.000000	99.385737
1064.000000	99.382059
1063.000000	99.381697
1062.000000	99.386472
1061.000000	99.395796
1060.000000	99.406287
1059.000000	99.413312
1058.000000	99.414666
1057.000000	99.412204
1056.000000	99.409177
1055.000000	99.407103
1054.000000	99.405673
1053.000000	99.403993
1052.000000	99.400859
1051.000000	99.395678
1050.000000	99.390290
1049.000000	99.387925
1048.000000	99.388951
1047.000000	99.389412
1046.000000	99.385509
1045.000000	99.378240
1044.000000	99.372303
1043.000000	99.371475
1042.000000	99.375473
1041.000000	99.380035
1040.000000	99.379639
1039.000000	99.371989
1038.000000	99.360967
1037.000000	99.353471
1036.000000	99.352064
1035.000000	99.352394
1034.000000	99.348659
1033.000000	99.339866
1032.000000	99.329346
1031.000000	99.320318
1030.000000	99.314285
1029.000000	99.312380
1028.000000	99.315152
1027.000000	99.320391
1026.000000	99.323007
1025.000000	99.318597
1024.000000	99.307244
1023.000000	99.293501
1022.000000	99.282198
1021.000000	99.274337
1020.000000	99.268212
1019.000000	99.264438
1018.000000	99.267166
1017.000000	99.278051
1016.000000	99.291408
1015.000000	99.299161
1014.000000	99.300203
1013.000000	99.301008
1012.000000	99.306520
1011.000000	99.314315
1010.000000	99.318716
1009.000000	99.316966
1008.000000	99.310030
1007.000000	99.300905
1006.000000	99.294510
1005.000000	99.295951
1004.000000	99.305776
1003.000000	99.318405
1002.000000	99.327669
1001.000000	99.332731
1000.000000	99.337075
999.000000	99.343606
998.000000	99.352652
997.000000	99.363118
996.000000	99.373114
995.000000	99.380275
994.000000	99.383219
993.000000	99.382440
992.000000	99.379368
991.000000	99.375681
990.000000	99.373361
989.000000	99.373120
988.000000	99.372758
987.000000	99.370296
986.000000	99.369160
985.000000	99.375866
984.000000	99.390324
983.000000	99.402857
982.000000	99.404414
981.000000	99.396545
980.000000	99.387623
979.000000	99.382130
978.000000	99.378527
977.000000	99.375345
976.000000	99.373872
975.000000	99.374767
974.000000	99.376480
973.000000	99.378254
972.000000	99.381506
971.000000	99.387584
970.000000	99.396205
969.000000	99.406470
968.000000	99.417459
967.000000	99.427839
966.000000	99.436719
965.000000	99.444536
964.000000	99.451294
963.000000	99.454801
962.000000	99.452933
961.000000	99.447179
960.000000	99.442102
959.000000	99.442000
958.000000	99.449763
957.000000	99.466802
956.000000	99.490728
955.000000	99.513962
954.000000	99.528572
953.000000	99.533084
952.000000	99.532284
951.000000	99.530619
950.000000	99.528674
949.000000	99.525907
948.000000	99.523252
947.000000	99.522135
946.000000	99.522848
945.000000	99.524559
944.000000	99.525479
943.000000	99.523620
942.000000	99.519636
941.000000	99.518194
940.000000	99.523442
939.000000	99.533340
938.000000	99.541466
937.000000	99.544844
936.000000	99.546626
935.000000	99.550567
934.000000	99.556692
933.000000	99.563861
932.000000	99.572909
931.000000	99.584089
930.000000	99.593618
929.000000	99.596276
928.000000	99.591491
927.000000	99.584949
926.000000	99.583599
925.000000	99.589548
924.000000	99.598439
923.000000	99.603312
922.000000	99.600547
921.000000	99.592113
920.000000	99.582295
919.000000	99.573627
918.000000	99.567275
917.000000	99.565691
916.000000	99.571523
915.000000	99.583858
914.000000	99.598273
913.000000	99.611422
912.000000	99.622789
911.000000	99.631175
910.000000	99.633193
909.000000	99.627873
908.000000	99.620572
907.000000	99.618743
906.000000	99.624349
905.000000	99.632472
904.000000	99.637102
903.000000	99.636367
902.000000	99.632485
901.000000	99.628908
900.000000	99.628128
899.000000	99.631138
898.000000	99.637682
897.000000	99.647417
896.000000	99.660007
895.000000	99.673731
894.000000	99.685038
893.000000	99.691162
892.000000	99.692854
891.000000	99.693084
890.000000	99.692788
889.000000	99.689277
888.000000	99.679545
887.000000	99.663605
886.000000	99.643489
885.000000	99.619389
884.000000	99.588167
883.000000	99.545712
882.000000	99.489410
881.000000	99.418899
880.000000	99.335843
879.000000	99.243701
878.000000	99.146756
877.000000	99.049401
876.000000	98.958129
875.000000	98.884271
874.000000	98.842555
873.000000	98.844177
872.000000	98.891269
871.000000	98.975556
870.000000	99.080381
869.000000	99.185391
868.000000	99.274065
867.000000	99.342168
866.000000	99.398451
865.000000	99.453474
864.000000	99.506332
863.000000	99.544832
862.000000	99.559352
861.000000	99.554857
860.000000	99.547425
859.000000	99.550772
858.000000	99.567098
857.000000	99.588368
856.000000	99.604989
855.000000	99.614150
854.000000	99.620739
853.000000	99.629408
852.000000	99.636446
851.000000	99.633206
850.000000	99.618397
849.000000	99.602512
848.000000	99.597288
847.000000	99.603799
846.000000	99.614390
845.000000	99.622902
844.000000	99.627886
843.000000	99.628418
842.000000	99.623558
841.000000	99.616844
840.000000	99.615355
839.000000	99.621483
838.000000	99.629141
837.000000	99.630627
836.000000	99.624401
835.000000	99.614188
834.000000	99.604255
833.000000	99.598969
832.000000	99.604061
831.000000	99.622457
830.000000	99.647958
829.000000	99.667785
828.000000	99.675054
827.000000	99.676923
826.000000	99.686668
825.000000	99.707130
824.000000	99.724806
823.000000	99.723182
822.000000	99.700824
821.000000	99.673051
820.000000	99.656127
819.000000	99.652836
818.000000	99.654077
817.000000	99.651520
816.000000	99.645678
815.000000	99.642913
814.000000	99.647857
813.000000	99.659496
812.000000	99.672488
811.000000	99.680784
810.000000	99.681338
809.000000	99.675868
808.000000	99.668746
807.000000	99.662921
806.000000	99.658835
805.000000	99.657453
804.000000	99.661868
803.000000	99.673058
802.000000	99.684969
801.000000	99.687430
800.000000	99.676271
799.000000	99.659465
798.000000	99.650801
797.000000	99.657001
796.000000	99.672135
795.000000	99.684647
794.000000	99.688293
793.000000	99.685176
792.000000	99.680256
791.000000	99.676377
790.000000	99.674925
789.000000	99.677809
788.000000	99.685300
787.000000	99.692874
786.000000	99.693452
785.000000	99.684491
784.000000	99.671382
783.000000	99.662317
782.000000	99.660944
781.000000	99.665318
780.000000	99.672742
779.000000	99.683154
778.000000	99.697284
777.000000	99.713439
776.000000	99.727339
775.000000	99.734190
774.000000	99.730815
773.000000	99.718211
772.000000	99.703818
771.000000	99.698706
770.000000	99.707919
769.000000	99.723490
768.000000	99.730872
767.000000	99.724136
766.000000	99.712000
765.000000	99.707190
764.000000	99.713164
763.000000	99.723743
762.000000	99.731931
761.000000	99.734290
760.000000	99.728585
759.000000	99.713345
758.000000	99.691507
757.000000	99.670762
756.000000	99.658362
755.000000	99.656752
754.000000	99.663328
753.000000	99.671371
752.000000	99.672222
751.000000	99.661971
750.000000	99.647820
749.000000	99.643064
748.000000	99.652852
747.000000	99.668289
746.000000	99.676675
745.000000	99.673979
744.000000	99.664661
743.000000	99.653848
742.000000	99.644785
741.000000	99.640711
740.000000	99.642707
739.000000	99.645805
738.000000	99.642480
737.000000	99.631040
736.000000	99.617388
735.000000	99.608104
734.000000	99.604479
733.000000	99.603206
732.000000	99.599356
731.000000	99.588514
730.000000	99.569415
729.000000	99.546000
728.000000	99.523766
727.000000	99.503993
726.000000	99.484731
725.000000	99.466083
724.000000	99.450924
723.000000	99.441226
722.000000	99.437461
721.000000	99.440422
720.000000	99.448797
719.000000	99.455741
718.000000	99.453398
717.000000	99.440744
716.000000	99.422492
715.000000	99.401699
714.000000	99.380310
713.000000	99.366664
712.000000	99.372431
711.000000	99.397553
710.000000	99.426555
709.000000	99.446155
708.000000	99.459824
707.000000	99.477922
706.000000	99.500280
705.000000	99.517687
704.000000	99.526731
703.000000	99.533740
702.000000	99.542977
701.000000	99.549810
700.000000	99.549298
699.000000	99.543417
698.000000	99.538047
697.000000	99.537087
696.000000	99.541650
695.000000	99.551729
694.000000	99.564193
693.000000	99.573444
692.000000	99.577984
691.000000	99.581898
690.000000	99.588602
689.000000	99.595682
688.000000	99.598851
687.000000	99.599810
686.000000	99.604385
685.000000	99.614917
684.000000	99.628465
683.000000	99.640365
682.000000	99.648250
681.000000	99.653210
680.000000	99.657485
679.000000	99.658976
678.000000	99.650938
677.000000	99.634688
676.000000	99.624920
675.000000	99.634818
674.000000	99.656601
673.000000	99.666835
672.000000	99.652829
671.000000	99.623508
670.000000	99.593137
669.000000	99.568378
668.000000	99.564506
667.000000	99.586867
666.000000	99.599658
665.000000	99.601275
664.000000	99.601020
663.000000	99.601255
662.000000	99.605824
661.000000	99.618116
660.000000	99.634760
659.000000	99.647644
658.000000	99.653257
657.000000	99.657276
656.000000	99.663630
655.000000	99.666912
654.000000	99.659232
653.000000	99.639297
652.000000	99.611449
651.000000	99.584110
650.000000	99.570097
649.000000	99.579415
648.000000	99.606275
647.000000	99.629988
646.000000	99.634606
645.000000	99.622934
644.000000	99.608767
643.000000	99.601402
642.000000	99.600684
641.000000	99.603859
640.000000	99.610789
639.000000	99.621421
638.000000	99.632085
637.000000	99.635816
636.000000	99.627030
635.000000	99.609047
634.000000	99.594496
633.000000	99.592601
632.000000	99.597480
631.000000	99.595100
630.000000	99.582610
629.000000	99.574220
628.000000	99.583219
627.000000	99.603286
626.000000	99.614547
625.000000	99.607259
624.000000	99.593627
623.000000	99.592304
622.000000	99.606683
621.000000	99.623242
620.000000	99.629308
619.000000	99.626995
618.000000	99.627072
617.000000	99.632467
616.000000	99.634728
615.000000	99.627884
614.000000	99.617898
613.000000	99.615040
612.000000	99.622130
611.000000	99.634134
610.000000	99.643909
609.000000	99.644037
608.000000	99.628319
607.000000	99.599083
606.000000	99.572106
605.000000	99.563603
604.000000	99.573015
603.000000	99.584913
602.000000	99.588195
601.000000	99.587030
600.000000	99.592202
599.000000	99.607881
598.000000	99.631091
597.000000	99.657948
596.000000	99.684321
595.000000	99.703642
594.000000	99.709998
593.000000	99.704118
592.000000	99.693273
591.000000	99.685370
590.000000	99.682452
589.000000	99.678699
588.000000	99.665157
587.000000	99.638673
586.000000	99.607027
585.000000	99.581576
584.000000	99.565589
583.000000	99.555136
582.000000	99.551016
581.000000	99.560404
580.000000	99.585295
579.000000	99.615469
578.000000	99.638717
577.000000	99.651085
576.000000	99.652554
575.000000	99.642705
574.000000	99.625339
573.000000	99.610307
572.000000	99.605320
571.000000	99.610703
570.000000	99.620943
569.000000	99.627107
568.000000	99.618008
567.000000	99.589355
566.000000	99.556792
565.000000	99.546620
564.000000	99.567793
563.000000	99.601786
562.000000	99.625480
561.000000	99.635434
560.000000	99.641526
559.000000	99.645845
558.000000	99.642484
557.000000	99.631291
556.000000	99.619025
555.000000	99.611127
554.000000	99.611885
553.000000	99.629075
552.000000	99.666784
551.000000	99.713908
550.000000	99.748563
549.000000	99.757793
548.000000	99.745165
547.000000	99.722079
546.000000	99.701875
545.000000	99.696571
544.000000	99.707328
543.000000	99.719940
542.000000	99.719324
541.000000	99.706829
540.000000	99.694169
539.000000	99.684004
538.000000	99.668838
537.000000	99.646297
536.000000	99.623678
535.000000	99.606934
534.000000	99.598001
533.000000	99.600007
532.000000	99.613755
531.000000	99.625599
530.000000	99.612707
529.000000	99.569805
528.000000	99.521651
527.000000	99.501403
526.000000	99.519576
525.000000	99.557709
524.000000	99.592215
523.000000	99.614470
522.000000	99.626198
521.000000	99.628778
520.000000	99.621905
519.000000	99.609064
518.000000	99.602763
517.000000	99.617233
516.000000	99.648327
515.000000	99.669263
514.000000	99.655694
513.000000	99.614996
512.000000	99.582433
511.000000	99.586119
510.000000	99.622635
509.000000	99.670105
508.000000	99.712548
507.000000	99.735109
506.000000	99.716180
505.000000	99.651210
504.000000	99.571078
503.000000	99.523161
502.000000	99.530409
501.000000	99.573248
500.000000	99.621807
499.000000	99.662139
498.000000	99.682331
497.000000	99.667531
496.000000	99.625522
495.000000	99.593491
494.000000	99.597654
493.000000	99.617555
492.000000	99.609469
491.000000	99.560074
490.000000	99.501053
489.000000	99.469426
488.000000	99.474036
487.000000	99.501205
486.000000	99.536500
485.000000	99.576229
484.000000	99.621546
483.000000	99.662234
482.000000	99.674592
481.000000	99.646867
480.000000	99.598858
479.000000	99.564757
478.000000	99.559339
477.000000	99.567044
476.000000	99.569255
475.000000	99.569669
474.000000	99.582102
473.000000	99.602105
472.000000	99.609783
471.000000	99.597679
470.000000	99.578140
469.000000	99.559996
468.000000	99.546657
467.000000	99.551409
466.000000	99.586649
465.000000	99.632908
464.000000	99.644340
463.000000	99.591725
462.000000	99.497438
461.000000	99.422212
460.000000	99.415648
459.000000	99.490777
458.000000	99.614146
457.000000	99.710092
456.000000	99.731801
455.000000	99.706135
454.000000	99.678724
453.000000	99.666305
452.000000	99.667418
451.000000	99.690899
450.000000	99.745921
