PE IR       SUBTECH     SPECTRUM    ASCII       PEDS        4.00        
   -1
Trigon_clear-F001_1.ASC
23/09/08
15:08:07.00
23/09/08
15:20:53.00
uco
Sample 001 By uco Date Friday, September 08 2023
450.000000
#HDR
-1
-1
#GR
cm-1
%T
1.0
0.0
4000.000000
-1.000000
3551
8
99.722939
95.277266
#DATA
4000.000000	99.625220
3999.000000	99.617988
3998.000000	99.615872
3997.000000	99.619661
3996.000000	99.626904
3995.000000	99.633461
3994.000000	99.635678
3993.000000	99.631907
3992.000000	99.623032
3991.000000	99.612034
3990.000000	99.602778
3989.000000	99.597967
3988.000000	99.597398
3987.000000	99.598175
3986.000000	99.597179
3985.000000	99.593926
3984.000000	99.590972
3983.000000	99.591318
3982.000000	99.595234
3981.000000	99.599666
3980.000000	99.600781
3979.000000	99.597174
3978.000000	99.590556
3977.000000	99.584097
3976.000000	99.580681
3975.000000	99.581981
3974.000000	99.587956
3973.000000	99.596301
3972.000000	99.603037
3971.000000	99.604710
3970.000000	99.600791
3969.000000	99.594138
3968.000000	99.588555
3967.000000	99.585933
3966.000000	99.585632
3965.000000	99.586070
3964.000000	99.586438
3963.000000	99.586822
3962.000000	99.587202
3961.000000	99.586755
3960.000000	99.584693
3959.000000	99.581180
3958.000000	99.577177
3957.000000	99.573827
3956.000000	99.571518
3955.000000	99.569624
3954.000000	99.567269
3953.000000	99.564391
3952.000000	99.562165
3951.000000	99.562074
3950.000000	99.564661
3949.000000	99.569014
3948.000000	99.573320
3947.000000	99.576134
3946.000000	99.576979
3945.000000	99.576066
3944.000000	99.573980
3943.000000	99.571887
3942.000000	99.571784
3941.000000	99.574693
3940.000000	99.579336
3939.000000	99.583197
3938.000000	99.584468
3937.000000	99.583694
3936.000000	99.583045
3935.000000	99.584013
3934.000000	99.586073
3933.000000	99.587109
3932.000000	99.585688
3931.000000	99.582028
3930.000000	99.577445
3929.000000	99.572927
3928.000000	99.567887
3927.000000	99.561715
3926.000000	99.555184
3925.000000	99.550424
3924.000000	99.549620
3923.000000	99.552977
3922.000000	99.558276
3921.000000	99.562799
3920.000000	99.565300
3919.000000	99.566508
3918.000000	99.567599
3917.000000	99.568853
3916.000000	99.570305
3915.000000	99.571894
3914.000000	99.572691
3913.000000	99.570720
3912.000000	99.565100
3911.000000	99.557405
3910.000000	99.550537
3909.000000	99.546307
3908.000000	99.545026
3907.000000	99.547052
3906.000000	99.553876
3905.000000	99.566222
3904.000000	99.580484
3903.000000	99.588803
3902.000000	99.585264
3901.000000	99.572196
3900.000000	99.557261
3899.000000	99.546969
3898.000000	99.543060
3897.000000	99.543508
3896.000000	99.546479
3895.000000	99.551707
3894.000000	99.559014
3893.000000	99.567369
3892.000000	99.575153
3891.000000	99.580774
3890.000000	99.583463
3889.000000	99.583285
3888.000000	99.580600
3887.000000	99.574726
3886.000000	99.565552
3885.000000	99.556074
3884.000000	99.549092
3883.000000	99.543742
3882.000000	99.536486
3881.000000	99.526538
3880.000000	99.518871
3879.000000	99.517859
3878.000000	99.521419
3877.000000	99.525220
3876.000000	99.526864
3875.000000	99.527036
3874.000000	99.529088
3873.000000	99.535054
3872.000000	99.542521
3871.000000	99.545998
3870.000000	99.542697
3869.000000	99.536306
3868.000000	99.531666
3867.000000	99.529365
3866.000000	99.526838
3865.000000	99.522886
3864.000000	99.521562
3863.000000	99.527374
3862.000000	99.538264
3861.000000	99.547664
3860.000000	99.550746
3859.000000	99.547414
3858.000000	99.540726
3857.000000	99.533787
3856.000000	99.527634
3855.000000	99.520975
3854.000000	99.515621
3853.000000	99.516523
3852.000000	99.521122
3851.000000	99.525853
3850.000000	99.531052
3849.000000	99.535979
3848.000000	99.538785
3847.000000	99.538240
3846.000000	99.534032
3845.000000	99.527218
3844.000000	99.521285
3843.000000	99.520389
3842.000000	99.526695
3841.000000	99.538935
3840.000000	99.552399
3839.000000	99.561239
3838.000000	99.562836
3837.000000	99.559552
3836.000000	99.555966
3835.000000	99.554204
3834.000000	99.553151
3833.000000	99.550196
3832.000000	99.543051
3831.000000	99.532348
3830.000000	99.521100
3829.000000	99.512075
3828.000000	99.506516
3827.000000	99.504832
3826.000000	99.507085
3825.000000	99.512780
3824.000000	99.520570
3823.000000	99.526363
3822.000000	99.526194
3821.000000	99.521947
3820.000000	99.520303
3819.000000	99.524188
3818.000000	99.529478
3817.000000	99.528796
3816.000000	99.517021
3815.000000	99.500077
3814.000000	99.489342
3813.000000	99.489519
3812.000000	99.497148
3811.000000	99.506910
3810.000000	99.516638
3809.000000	99.526610
3808.000000	99.536080
3807.000000	99.541747
3806.000000	99.541442
3805.000000	99.537112
3804.000000	99.532206
3803.000000	99.527074
3802.000000	99.519184
3801.000000	99.508202
3800.000000	99.498719
3799.000000	99.493047
3798.000000	99.489464
3797.000000	99.485643
3796.000000	99.481870
3795.000000	99.480343
3794.000000	99.482163
3793.000000	99.486226
3792.000000	99.490316
3791.000000	99.493147
3790.000000	99.495491
3789.000000	99.498994
3788.000000	99.503399
3787.000000	99.506195
3786.000000	99.504826
3785.000000	99.499607
3784.000000	99.493921
3783.000000	99.491182
3782.000000	99.491615
3781.000000	99.492943
3780.000000	99.493564
3779.000000	99.494357
3778.000000	99.496949
3777.000000	99.500744
3776.000000	99.503494
3775.000000	99.503431
3774.000000	99.501255
3773.000000	99.499596
3772.000000	99.500614
3771.000000	99.503621
3770.000000	99.506205
3769.000000	99.507776
3768.000000	99.509170
3767.000000	99.510210
3766.000000	99.509156
3765.000000	99.504701
3764.000000	99.498576
3763.000000	99.494826
3762.000000	99.495577
3761.000000	99.499322
3760.000000	99.502864
3759.000000	99.504697
3758.000000	99.505421
3757.000000	99.505763
3756.000000	99.506746
3755.000000	99.510179
3754.000000	99.519077
3753.000000	99.536991
3752.000000	99.563943
3751.000000	99.590827
3750.000000	99.603955
3749.000000	99.600872
3748.000000	99.591029
3747.000000	99.583252
3746.000000	99.578290
3745.000000	99.569824
3744.000000	99.555254
3743.000000	99.539120
3742.000000	99.527740
3741.000000	99.524153
3740.000000	99.525577
3739.000000	99.527156
3738.000000	99.524903
3737.000000	99.515980
3736.000000	99.501581
3735.000000	99.488437
3734.000000	99.484246
3733.000000	99.488268
3732.000000	99.492786
3731.000000	99.493667
3730.000000	99.493662
3729.000000	99.497195
3728.000000	99.503669
3727.000000	99.506623
3726.000000	99.500117
3725.000000	99.485649
3724.000000	99.470571
3723.000000	99.460960
3722.000000	99.458646
3721.000000	99.461803
3720.000000	99.467011
3719.000000	99.472188
3718.000000	99.477067
3717.000000	99.481647
3716.000000	99.485919
3715.000000	99.489434
3714.000000	99.491357
3713.000000	99.490808
3712.000000	99.487278
3711.000000	99.481661
3710.000000	99.476483
3709.000000	99.474366
3708.000000	99.474674
3707.000000	99.475239
3706.000000	99.476021
3705.000000	99.477611
3704.000000	99.478712
3703.000000	99.476628
3702.000000	99.470334
3701.000000	99.463179
3700.000000	99.459423
3699.000000	99.460351
3698.000000	99.464735
3697.000000	99.470246
3696.000000	99.475187
3695.000000	99.479080
3694.000000	99.481350
3693.000000	99.480401
3692.000000	99.475535
3691.000000	99.468790
3690.000000	99.463788
3689.000000	99.462563
3688.000000	99.464089
3687.000000	99.464991
3686.000000	99.462873
3685.000000	99.458350
3684.000000	99.453727
3683.000000	99.451289
3682.000000	99.451184
3681.000000	99.451436
3680.000000	99.450122
3679.000000	99.448130
3678.000000	99.448903
3677.000000	99.453747
3676.000000	99.458262
3675.000000	99.458694
3674.000000	99.456894
3673.000000	99.453890
3672.000000	99.450045
3671.000000	99.446113
3670.000000	99.445310
3669.000000	99.453082
3668.000000	99.468238
3667.000000	99.482702
3666.000000	99.490935
3665.000000	99.491997
3664.000000	99.487824
3663.000000	99.481104
3662.000000	99.474018
3661.000000	99.468202
3660.000000	99.465313
3659.000000	99.466413
3658.000000	99.470199
3657.000000	99.472780
3656.000000	99.471077
3655.000000	99.466265
3654.000000	99.462247
3653.000000	99.461124
3652.000000	99.461694
3651.000000	99.462766
3650.000000	99.464565
3649.000000	99.463870
3648.000000	99.458039
3647.000000	99.453112
3646.000000	99.453616
3645.000000	99.457046
3644.000000	99.459254
3643.000000	99.458724
3642.000000	99.457030
3641.000000	99.457363
3640.000000	99.461058
3639.000000	99.465361
3638.000000	99.466814
3637.000000	99.465374
3636.000000	99.464682
3635.000000	99.468525
3634.000000	99.478100
3633.000000	99.492813
3632.000000	99.511627
3631.000000	99.531265
3630.000000	99.544293
3629.000000	99.544021
3628.000000	99.533507
3627.000000	99.521509
3626.000000	99.511457
3625.000000	99.502632
3624.000000	99.493512
3623.000000	99.484515
3622.000000	99.478631
3621.000000	99.478574
3620.000000	99.483664
3619.000000	99.489952
3618.000000	99.493552
3617.000000	99.494371
3616.000000	99.495779
3615.000000	99.500298
3614.000000	99.507137
3613.000000	99.514941
3612.000000	99.524797
3611.000000	99.537400
3610.000000	99.549264
3609.000000	99.553068
3608.000000	99.544889
3607.000000	99.530258
3606.000000	99.517693
3605.000000	99.509710
3604.000000	99.503016
3603.000000	99.495064
3602.000000	99.487780
3601.000000	99.484924
3600.000000	99.487398
3599.000000	99.492455
3598.000000	99.496423
3597.000000	99.497416
3596.000000	99.496712
3595.000000	99.497477
3594.000000	99.502790
3593.000000	99.513059
3592.000000	99.525332
3591.000000	99.534623
3590.000000	99.536108
3589.000000	99.527582
3588.000000	99.513056
3587.000000	99.501201
3586.000000	99.497511
3585.000000	99.499548
3584.000000	99.501668
3583.000000	99.500744
3582.000000	99.497454
3581.000000	99.494808
3580.000000	99.496016
3579.000000	99.501140
3578.000000	99.506005
3577.000000	99.505309
3576.000000	99.497808
3575.000000	99.487778
3574.000000	99.480852
3573.000000	99.479342
3572.000000	99.481572
3571.000000	99.484865
3570.000000	99.487644
3569.000000	99.489460
3568.000000	99.489979
3567.000000	99.488753
3566.000000	99.486872
3565.000000	99.487373
3564.000000	99.491241
3563.000000	99.496813
3562.000000	99.502136
3561.000000	99.506257
3560.000000	99.508867
3559.000000	99.510246
3558.000000	99.511178
3557.000000	99.512609
3556.000000	99.514589
3555.000000	99.515692
3554.000000	99.513818
3553.000000	99.508616
3552.000000	99.502919
3551.000000	99.500530
3550.000000	99.502224
3549.000000	99.504900
3548.000000	99.504802
3547.000000	99.501323
3546.000000	99.497836
3545.000000	99.498337
3544.000000	99.503507
3543.000000	99.510265
3542.000000	99.514732
3541.000000	99.514972
3540.000000	99.511447
3539.000000	99.506445
3538.000000	99.503134
3537.000000	99.504455
3536.000000	99.511712
3535.000000	99.523298
3534.000000	99.535413
3533.000000	99.543920
3532.000000	99.546312
3531.000000	99.542714
3530.000000	99.535899
3529.000000	99.529844
3528.000000	99.527209
3527.000000	99.527750
3526.000000	99.529412
3525.000000	99.530563
3524.000000	99.530904
3523.000000	99.530695
3522.000000	99.529984
3521.000000	99.529056
3520.000000	99.529210
3519.000000	99.532213
3518.000000	99.538584
3517.000000	99.546343
3516.000000	99.552464
3515.000000	99.555078
3514.000000	99.554546
3513.000000	99.552371
3512.000000	99.549740
3511.000000	99.547271
3510.000000	99.545922
3509.000000	99.546968
3508.000000	99.550622
3507.000000	99.555406
3506.000000	99.559391
3505.000000	99.562042
3504.000000	99.564343
3503.000000	99.567211
3502.000000	99.570117
3501.000000	99.571434
3500.000000	99.570101
3499.000000	99.566855
3498.000000	99.564015
3497.000000	99.563747
3496.000000	99.566613
3495.000000	99.571732
3494.000000	99.578128
3493.000000	99.585479
3492.000000	99.593540
3491.000000	99.601461
3490.000000	99.608125
3489.000000	99.612760
3488.000000	99.614941
3487.000000	99.614265
3486.000000	99.610420
3485.000000	99.603712
3484.000000	99.595773
3483.000000	99.589591
3482.000000	99.588264
3481.000000	99.592681
3480.000000	99.600175
3479.000000	99.606247
3478.000000	99.608027
3477.000000	99.606010
3476.000000	99.602570
3475.000000	99.599511
3474.000000	99.597380
3473.000000	99.596585
3472.000000	99.597935
3471.000000	99.601527
3470.000000	99.605863
3469.000000	99.608865
3468.000000	99.609621
3467.000000	99.608972
3466.000000	99.608401
3465.000000	99.608630
3464.000000	99.609298
3463.000000	99.609542
3462.000000	99.608851
3461.000000	99.607407
3460.000000	99.605904
3459.000000	99.605208
3458.000000	99.606136
3457.000000	99.609276
3456.000000	99.614327
3455.000000	99.619383
3454.000000	99.621991
3453.000000	99.621227
3452.000000	99.618665
3451.000000	99.616463
3450.000000	99.614724
3449.000000	99.611578
3448.000000	99.605952
3447.000000	99.599870
3446.000000	99.597454
3445.000000	99.601350
3444.000000	99.610469
3443.000000	99.620791
3442.000000	99.627954
3441.000000	99.629981
3440.000000	99.628140
3439.000000	99.625363
3438.000000	99.624007
3437.000000	99.624743
3436.000000	99.626612
3435.000000	99.627503
3434.000000	99.625656
3433.000000	99.621513
3432.000000	99.618071
3431.000000	99.618171
3430.000000	99.621518
3429.000000	99.625276
3428.000000	99.627420
3427.000000	99.628361
3426.000000	99.629019
3425.000000	99.628773
3424.000000	99.626204
3423.000000	99.621248
3422.000000	99.615824
3421.000000	99.612503
3420.000000	99.612818
3419.000000	99.616224
3418.000000	99.620140
3417.000000	99.621360
3416.000000	99.618577
3415.000000	99.613995
3414.000000	99.611900
3413.000000	99.614824
3412.000000	99.620932
3411.000000	99.625498
3410.000000	99.625108
3409.000000	99.620369
3408.000000	99.614652
3407.000000	99.610760
3406.000000	99.609198
3405.000000	99.609172
3404.000000	99.610097
3403.000000	99.611465
3402.000000	99.612055
3401.000000	99.610272
3400.000000	99.605609
3399.000000	99.599306
3398.000000	99.593547
3397.000000	99.590279
3396.000000	99.590490
3395.000000	99.593859
3394.000000	99.598815
3393.000000	99.603538
3392.000000	99.607438
3391.000000	99.611300
3390.000000	99.615421
3389.000000	99.618212
3388.000000	99.617698
3387.000000	99.614321
3386.000000	99.611301
3385.000000	99.611320
3384.000000	99.613163
3383.000000	99.612291
3382.000000	99.605003
3381.000000	99.591959
3380.000000	99.578196
3379.000000	99.569795
3378.000000	99.569749
3377.000000	99.575801
3376.000000	99.581809
3375.000000	99.581970
3374.000000	99.574930
3373.000000	99.564649
3372.000000	99.557246
3371.000000	99.556422
3370.000000	99.561051
3369.000000	99.566788
3368.000000	99.569685
3367.000000	99.568348
3366.000000	99.563302
3365.000000	99.555734
3364.000000	99.547629
3363.000000	99.541955
3362.000000	99.540831
3361.000000	99.543108
3360.000000	99.544944
3359.000000	99.543404
3358.000000	99.538846
3357.000000	99.533482
3356.000000	99.528696
3355.000000	99.524675
3354.000000	99.521831
3353.000000	99.521194
3352.000000	99.523252
3351.000000	99.527147
3350.000000	99.530962
3349.000000	99.532239
3348.000000	99.528603
3347.000000	99.519121
3346.000000	99.505533
3345.000000	99.491513
3344.000000	99.480340
3343.000000	99.473219
3342.000000	99.469587
3341.000000	99.468234
3340.000000	99.467921
3339.000000	99.467604
3338.000000	99.466498
3337.000000	99.463872
3336.000000	99.459022
3335.000000	99.452041
3334.000000	99.444459
3333.000000	99.438101
3332.000000	99.433067
3331.000000	99.427717
3330.000000	99.421169
3329.000000	99.415032
3328.000000	99.411884
3327.000000	99.412406
3326.000000	99.414704
3325.000000	99.416100
3324.000000	99.415061
3323.000000	99.411654
3322.000000	99.407002
3321.000000	99.402331
3320.000000	99.397972
3319.000000	99.393304
3318.000000	99.388064
3317.000000	99.383391
3316.000000	99.380928
3315.000000	99.380849
3314.000000	99.381250
3313.000000	99.379491
3312.000000	99.373859
3311.000000	99.364517
3310.000000	99.353779
3309.000000	99.345230
3308.000000	99.341283
3307.000000	99.341088
3306.000000	99.341629
3305.000000	99.341206
3304.000000	99.340930
3303.000000	99.342198
3302.000000	99.343557
3301.000000	99.341379
3300.000000	99.333913
3299.000000	99.323706
3298.000000	99.315493
3297.000000	99.311841
3296.000000	99.311310
3295.000000	99.310731
3294.000000	99.308690
3293.000000	99.306414
3292.000000	99.305714
3291.000000	99.306906
3290.000000	99.308867
3289.000000	99.310339
3288.000000	99.310614
3287.000000	99.309458
3286.000000	99.307131
3285.000000	99.304427
3284.000000	99.302283
3283.000000	99.301457
3282.000000	99.302633
3281.000000	99.306135
3280.000000	99.310723
3279.000000	99.313384
3278.000000	99.311678
3277.000000	99.306380
3276.000000	99.300867
3275.000000	99.297519
3274.000000	99.295780
3273.000000	99.293942
3272.000000	99.291743
3271.000000	99.290498
3270.000000	99.291337
3269.000000	99.294026
3268.000000	99.297083
3267.000000	99.298703
3266.000000	99.298141
3265.000000	99.296582
3264.000000	99.295971
3263.000000	99.296595
3262.000000	99.296549
3261.000000	99.294388
3260.000000	99.291586
3259.000000	99.291337
3258.000000	99.295119
3257.000000	99.301360
3256.000000	99.307300
3255.000000	99.311354
3254.000000	99.313699
3253.000000	99.315435
3252.000000	99.317669
3251.000000	99.320589
3250.000000	99.322896
3249.000000	99.322427
3248.000000	99.317814
3247.000000	99.309804
3246.000000	99.301229
3245.000000	99.295790
3244.000000	99.296246
3243.000000	99.302500
3242.000000	99.310901
3241.000000	99.316155
3240.000000	99.315034
3239.000000	99.308763
3238.000000	99.301547
3237.000000	99.296872
3236.000000	99.295177
3235.000000	99.294745
3234.000000	99.294000
3233.000000	99.292644
3232.000000	99.291376
3231.000000	99.291053
3230.000000	99.291966
3229.000000	99.293302
3228.000000	99.293229
3227.000000	99.290360
3226.000000	99.285656
3225.000000	99.282484
3224.000000	99.284138
3223.000000	99.290933
3222.000000	99.299712
3221.000000	99.305985
3220.000000	99.306278
3219.000000	99.299442
3218.000000	99.287152
3217.000000	99.273886
3216.000000	99.265290
3215.000000	99.264544
3214.000000	99.269330
3213.000000	99.273342
3212.000000	99.271752
3211.000000	99.265640
3210.000000	99.260784
3209.000000	99.262190
3208.000000	99.269639
3207.000000	99.278095
3206.000000	99.282044
3205.000000	99.279515
3204.000000	99.272745
3203.000000	99.265870
3202.000000	99.261993
3201.000000	99.261880
3200.000000	99.264179
3199.000000	99.266439
3198.000000	99.266429
3197.000000	99.263426
3196.000000	99.258617
3195.000000	99.253933
3194.000000	99.250335
3193.000000	99.247311
3192.000000	99.243788
3191.000000	99.239270
3190.000000	99.234171
3189.000000	99.229539
3188.000000	99.226481
3187.000000	99.225517
3186.000000	99.226130
3185.000000	99.227340
3184.000000	99.228876
3183.000000	99.231409
3182.000000	99.235296
3181.000000	99.239245
3180.000000	99.240822
3179.000000	99.238393
3178.000000	99.232635
3177.000000	99.226147
3176.000000	99.221564
3175.000000	99.220017
3174.000000	99.221095
3173.000000	99.223890
3172.000000	99.227597
3171.000000	99.231011
3170.000000	99.232028
3169.000000	99.228575
3168.000000	99.220671
3167.000000	99.211333
3166.000000	99.204948
3165.000000	99.204396
3164.000000	99.209296
3163.000000	99.216580
3162.000000	99.222559
3161.000000	99.225003
3160.000000	99.223936
3159.000000	99.220980
3158.000000	99.217895
3157.000000	99.215559
3156.000000	99.213853
3155.000000	99.212244
3154.000000	99.210513
3153.000000	99.209121
3152.000000	99.208810
3151.000000	99.209842
3150.000000	99.211905
3149.000000	99.214848
3148.000000	99.218920
3147.000000	99.223772
3146.000000	99.227644
3145.000000	99.228343
3144.000000	99.225088
3143.000000	99.219112
3142.000000	99.212672
3141.000000	99.208010
3140.000000	99.206857
3139.000000	99.209687
3138.000000	99.214891
3137.000000	99.219388
3136.000000	99.220659
3135.000000	99.218253
3134.000000	99.213470
3133.000000	99.208230
3132.000000	99.204347
3131.000000	99.202766
3130.000000	99.202776
3129.000000	99.202438
3128.000000	99.200531
3127.000000	99.197780
3126.000000	99.195778
3125.000000	99.195157
3124.000000	99.195303
3123.000000	99.195356
3122.000000	99.194645
3121.000000	99.192475
3120.000000	99.188596
3119.000000	99.184062
3118.000000	99.180851
3117.000000	99.180143
3116.000000	99.181194
3115.000000	99.182280
3114.000000	99.182443
3113.000000	99.181806
3112.000000	99.180391
3111.000000	99.177385
3110.000000	99.172300
3109.000000	99.166575
3108.000000	99.163101
3107.000000	99.163476
3106.000000	99.166299
3105.000000	99.168789
3104.000000	99.169479
3103.000000	99.168790
3102.000000	99.167513
3101.000000	99.166016
3100.000000	99.164693
3099.000000	99.163928
3098.000000	99.163349
3097.000000	99.162103
3096.000000	99.160142
3095.000000	99.158327
3094.000000	99.157020
3093.000000	99.155457
3092.000000	99.153036
3091.000000	99.150302
3090.000000	99.148010
3089.000000	99.145828
3088.000000	99.142748
3087.000000	99.138410
3086.000000	99.133464
3085.000000	99.129127
3084.000000	99.126917
3083.000000	99.128353
3082.000000	99.133594
3081.000000	99.140068
3080.000000	99.143342
3079.000000	99.140439
3078.000000	99.132711
3077.000000	99.125131
3076.000000	99.122342
3075.000000	99.124930
3074.000000	99.129343
3073.000000	99.131360
3072.000000	99.129534
3071.000000	99.125478
3070.000000	99.121587
3069.000000	99.119221
3068.000000	99.118483
3067.000000	99.118478
3066.000000	99.117535
3065.000000	99.114123
3064.000000	99.108243
3063.000000	99.101680
3062.000000	99.096696
3061.000000	99.094682
3060.000000	99.095776
3059.000000	99.099026
3058.000000	99.102728
3057.000000	99.105216
3056.000000	99.105861
3055.000000	99.105028
3054.000000	99.103311
3053.000000	99.101216
3052.000000	99.099386
3051.000000	99.098191
3050.000000	99.096908
3049.000000	99.094463
3048.000000	99.091318
3047.000000	99.089462
3046.000000	99.089704
3045.000000	99.090010
3044.000000	99.087821
3043.000000	99.083576
3042.000000	99.080580
3041.000000	99.081417
3040.000000	99.085467
3039.000000	99.090002
3038.000000	99.092420
3037.000000	99.091004
3036.000000	99.084983
3035.000000	99.075421
3034.000000	99.065893
3033.000000	99.060919
3032.000000	99.062671
3031.000000	99.068968
3030.000000	99.074874
3029.000000	99.076547
3028.000000	99.073620
3027.000000	99.068031
3026.000000	99.061283
3025.000000	99.053680
3024.000000	99.046034
3023.000000	99.040730
3022.000000	99.039759
3021.000000	99.042023
3020.000000	99.043504
3019.000000	99.040434
3018.000000	99.031958
3017.000000	99.020108
3016.000000	99.007838
3015.000000	98.996986
3014.000000	98.987208
3013.000000	98.976618
3012.000000	98.963933
3011.000000	98.950233
3010.000000	98.938130
3009.000000	98.929186
3008.000000	98.922896
3007.000000	98.918334
3006.000000	98.915877
3005.000000	98.916363
3004.000000	98.918915
3003.000000	98.920652
3002.000000	98.919082
3001.000000	98.914721
3000.000000	98.911105
2999.000000	98.912307
2998.000000	98.919618
2997.000000	98.930046
2996.000000	98.937811
2995.000000	98.938171
2994.000000	98.930645
2993.000000	98.918907
2992.000000	98.907688
2991.000000	98.899493
2990.000000	98.893636
2989.000000	98.887385
2988.000000	98.877922
2987.000000	98.864062
2986.000000	98.846934
2985.000000	98.828988
2984.000000	98.811892
2983.000000	98.795252
2982.000000	98.777548
2981.000000	98.758129
2980.000000	98.738112
2979.000000	98.719241
2978.000000	98.702032
2977.000000	98.684956
2976.000000	98.665081
2975.000000	98.639642
2974.000000	98.607482
2973.000000	98.569434
2972.000000	98.527438
2971.000000	98.483131
2970.000000	98.437263
2969.000000	98.389926
2968.000000	98.340862
2967.000000	98.289620
2966.000000	98.236015
2965.000000	98.180848
2964.000000	98.125778
2963.000000	98.072333
2962.000000	98.021241
2961.000000	97.972718
2960.000000	97.926909
2959.000000	97.883809
2958.000000	97.843611
2957.000000	97.807645
2956.000000	97.778680
2955.000000	97.759451
2954.000000	97.750713
2953.000000	97.750942
2952.000000	97.757239
2951.000000	97.765997
2950.000000	97.772709
2949.000000	97.772612
2948.000000	97.762323
2947.000000	97.741020
2946.000000	97.709781
2945.000000	97.669547
2944.000000	97.619838
2943.000000	97.559186
2942.000000	97.487174
2941.000000	97.405800
2940.000000	97.318281
2939.000000	97.226023
2938.000000	97.126829
2937.000000	97.016874
2936.000000	96.894252
2935.000000	96.760781
2934.000000	96.621026
2933.000000	96.480189
2932.000000	96.342066
2931.000000	96.207424
2930.000000	96.074234
2929.000000	95.940525
2928.000000	95.807638
2927.000000	95.680555
2926.000000	95.565082
2925.000000	95.465632
2924.000000	95.385065
2923.000000	95.325599
2922.000000	95.289121
2921.000000	95.277266
2920.000000	95.291998
2919.000000	95.335267
2918.000000	95.408318
2917.000000	95.511585
2916.000000	95.645176
2915.000000	95.807735
2914.000000	95.993028
2913.000000	96.188611
2912.000000	96.379374
2911.000000	96.553935
2910.000000	96.707626
2909.000000	96.840635
2908.000000	96.955148
2907.000000	97.053952
2906.000000	97.140139
2905.000000	97.216246
2904.000000	97.284135
2903.000000	97.345816
2902.000000	97.403967
2901.000000	97.460384
2900.000000	97.515294
2899.000000	97.567324
2898.000000	97.615051
2897.000000	97.658262
2896.000000	97.698216
2895.000000	97.737064
2894.000000	97.776654
2893.000000	97.817560
2892.000000	97.859291
2891.000000	97.901253
2890.000000	97.943046
2889.000000	97.983796
2888.000000	98.021908
2887.000000	98.055901
2886.000000	98.085295
2885.000000	98.110502
2884.000000	98.132226
2883.000000	98.151032
2882.000000	98.166620
2881.000000	98.177084
2880.000000	98.179618
2879.000000	98.173137
2878.000000	98.160084
2877.000000	98.144744
2876.000000	98.129410
2875.000000	98.113076
2874.000000	98.094364
2873.000000	98.074735
2872.000000	98.057506
2871.000000	98.043855
2870.000000	98.031200
2869.000000	98.016108
2868.000000	97.997349
2867.000000	97.974480
2866.000000	97.944138
2865.000000	97.900206
2864.000000	97.838623
2863.000000	97.760700
2862.000000	97.670356
2861.000000	97.569117
2860.000000	97.455895
2859.000000	97.331551
2858.000000	97.201736
2857.000000	97.074433
2856.000000	96.955762
2855.000000	96.848879
2854.000000	96.756771
2853.000000	96.684973
2852.000000	96.642008
2851.000000	96.638331
2850.000000	96.683780
2849.000000	96.783909
2848.000000	96.935708
2847.000000	97.125723
2846.000000	97.332803
2845.000000	97.535278
2844.000000	97.717802
2843.000000	97.874431
2842.000000	98.006569
2841.000000	98.118423
2840.000000	98.214173
2839.000000	98.296905
2838.000000	98.368329
2837.000000	98.428877
2836.000000	98.478864
2835.000000	98.519826
2834.000000	98.554453
2833.000000	98.585024
2832.000000	98.612505
2831.000000	98.637228
2830.000000	98.659721
2829.000000	98.680804
2828.000000	98.701365
2827.000000	98.722139
2826.000000	98.743025
2825.000000	98.762460
2824.000000	98.778423
2823.000000	98.790522
2822.000000	98.800458
2821.000000	98.810018
2820.000000	98.819440
2819.000000	98.828324
2818.000000	98.837156
2817.000000	98.846730
2816.000000	98.856639
2815.000000	98.865672
2814.000000	98.873598
2813.000000	98.881187
2812.000000	98.888297
2811.000000	98.893448
2810.000000	98.896057
2809.000000	98.898106
2808.000000	98.902261
2807.000000	98.908728
2806.000000	98.915045
2805.000000	98.919053
2804.000000	98.921338
2803.000000	98.924458
2802.000000	98.930338
2801.000000	98.938711
2800.000000	98.947567
2799.000000	98.954614
2798.000000	98.958573
2797.000000	98.959756
2796.000000	98.959871
2795.000000	98.961030
2794.000000	98.964359
2793.000000	98.968951
2792.000000	98.972197
2791.000000	98.971819
2790.000000	98.968310
2789.000000	98.965223
2788.000000	98.966301
2787.000000	98.971957
2786.000000	98.978944
2785.000000	98.983693
2784.000000	98.985563
2783.000000	98.986706
2782.000000	98.989556
2781.000000	98.995116
2780.000000	99.002899
2779.000000	99.011252
2778.000000	99.017734
2777.000000	99.020555
2776.000000	99.020336
2775.000000	99.019772
2774.000000	99.021029
2773.000000	99.023961
2772.000000	99.027162
2771.000000	99.029903
2770.000000	99.032219
2769.000000	99.033759
2768.000000	99.033785
2767.000000	99.032355
2766.000000	99.030688
2765.000000	99.030093
2764.000000	99.031059
2763.000000	99.033437
2762.000000	99.036791
2761.000000	99.040119
2760.000000	99.041742
2759.000000	99.040329
2758.000000	99.036506
2757.000000	99.033287
2756.000000	99.034300
2755.000000	99.040733
2754.000000	99.049678
2753.000000	99.055802
2752.000000	99.055360
2751.000000	99.048991
2750.000000	99.040809
2749.000000	99.035126
2748.000000	99.033951
2747.000000	99.036744
2746.000000	99.041609
2745.000000	99.046711
2744.000000	99.051283
2743.000000	99.055555
2742.000000	99.059516
2741.000000	99.061901
2740.000000	99.060953
2739.000000	99.056338
2738.000000	99.049988
2737.000000	99.044916
2736.000000	99.043345
2735.000000	99.045774
2734.000000	99.051162
2733.000000	99.057671
2732.000000	99.063597
2731.000000	99.067944
2730.000000	99.070176
2729.000000	99.069661
2728.000000	99.065975
2727.000000	99.060081
2726.000000	99.054719
2725.000000	99.052898
2724.000000	99.055570
2723.000000	99.060803
2722.000000	99.065374
2721.000000	99.067368
2720.000000	99.067355
2719.000000	99.067055
2718.000000	99.067021
2717.000000	99.066043
2716.000000	99.062978
2715.000000	99.058646
2714.000000	99.055403
2713.000000	99.055045
2712.000000	99.057589
2711.000000	99.061834
2710.000000	99.066330
2709.000000	99.069742
2708.000000	99.071141
2707.000000	99.070616
2706.000000	99.069421
2705.000000	99.069159
2704.000000	99.070697
2703.000000	99.073684
2702.000000	99.076763
2701.000000	99.078434
2700.000000	99.078312
2699.000000	99.077616
2698.000000	99.077838
2697.000000	99.078847
2696.000000	99.078991
2695.000000	99.077460
2694.000000	99.075680
2693.000000	99.075647
2692.000000	99.077323
2691.000000	99.078616
2690.000000	99.077918
2689.000000	99.075929
2688.000000	99.074849
2687.000000	99.076233
2686.000000	99.079717
2685.000000	99.083303
2684.000000	99.084674
2683.000000	99.082730
2682.000000	99.078332
2681.000000	99.073539
2680.000000	99.069981
2679.000000	99.067952
2678.000000	99.066984
2677.000000	99.066881
2676.000000	99.067947
2675.000000	99.070400
2674.000000	99.073898
2673.000000	99.077710
2672.000000	99.081228
2671.000000	99.084260
2670.000000	99.086796
2669.000000	99.088519
2668.000000	99.088774
2667.000000	99.087368
2666.000000	99.085380
2665.000000	99.084676
2664.000000	99.086165
2663.000000	99.088669
2662.000000	99.089972
2661.000000	99.089069
2660.000000	99.087055
2659.000000	99.085628
2658.000000	99.085092
2657.000000	99.084324
2656.000000	99.082730
2655.000000	99.081730
2654.000000	99.083753
2653.000000	99.089574
2652.000000	99.096888
2651.000000	99.102018
2650.000000	99.103301
2649.000000	99.102552
2648.000000	99.102790
2647.000000	99.104791
2646.000000	99.106643
2645.000000	99.106791
2644.000000	99.106360
2643.000000	99.107570
2642.000000	99.110576
2641.000000	99.113277
2640.000000	99.114258
2639.000000	99.114690
2638.000000	99.116877
2637.000000	99.121858
2636.000000	99.128975
2635.000000	99.136849
2634.000000	99.143874
2633.000000	99.148461
2632.000000	99.149936
2631.000000	99.149201
2630.000000	99.147768
2629.000000	99.146174
2628.000000	99.143781
2627.000000	99.140047
2626.000000	99.135629
2625.000000	99.132462
2624.000000	99.132923
2623.000000	99.138218
2622.000000	99.146810
2621.000000	99.154923
2620.000000	99.159591
2619.000000	99.161121
2618.000000	99.162013
2617.000000	99.163886
2616.000000	99.166313
2615.000000	99.168059
2614.000000	99.168110
2613.000000	99.165637
2612.000000	99.160552
2611.000000	99.154740
2610.000000	99.151608
2609.000000	99.153595
2608.000000	99.160332
2607.000000	99.169139
2606.000000	99.176657
2605.000000	99.180394
2604.000000	99.180318
2603.000000	99.179385
2602.000000	99.181038
2601.000000	99.185355
2600.000000	99.188858
2599.000000	99.188911
2598.000000	99.187130
2597.000000	99.187314
2596.000000	99.191010
2595.000000	99.196305
2594.000000	99.199978
2593.000000	99.199287
2592.000000	99.192517
2591.000000	99.180264
2590.000000	99.166725
2589.000000	99.158161
2588.000000	99.158825
2587.000000	99.168369
2586.000000	99.182698
2585.000000	99.196262
2584.000000	99.204089
2583.000000	99.204068
2582.000000	99.198891
2581.000000	99.194768
2580.000000	99.196617
2579.000000	99.203973
2578.000000	99.212100
2577.000000	99.216813
2576.000000	99.217807
2575.000000	99.217766
2574.000000	99.219261
2573.000000	99.222893
2572.000000	99.227623
2571.000000	99.231889
2570.000000	99.234057
2569.000000	99.232461
2568.000000	99.226383
2567.000000	99.217944
2566.000000	99.212497
2565.000000	99.215523
2564.000000	99.227765
2563.000000	99.243524
2562.000000	99.254392
2561.000000	99.255074
2560.000000	99.246264
2559.000000	99.232994
2558.000000	99.221193
2557.000000	99.215049
2556.000000	99.215586
2555.000000	99.220364
2554.000000	99.224950
2553.000000	99.226027
2552.000000	99.224059
2551.000000	99.223035
2550.000000	99.227103
2549.000000	99.236733
2548.000000	99.247906
2547.000000	99.255352
2546.000000	99.256860
2545.000000	99.253987
2544.000000	99.248758
2543.000000	99.241348
2542.000000	99.232264
2541.000000	99.225134
2540.000000	99.224026
2539.000000	99.227543
2538.000000	99.229045
2537.000000	99.224897
2536.000000	99.220105
2535.000000	99.222380
2534.000000	99.231743
2533.000000	99.239919
2532.000000	99.240303
2531.000000	99.235164
2530.000000	99.230972
2529.000000	99.229853
2528.000000	99.228663
2527.000000	99.225129
2526.000000	99.221200
2525.000000	99.219570
2524.000000	99.219642
2523.000000	99.218802
2522.000000	99.216786
2521.000000	99.216664
2520.000000	99.220979
2519.000000	99.228059
2518.000000	99.233253
2517.000000	99.233636
2516.000000	99.230593
2515.000000	99.227800
2514.000000	99.227979
2513.000000	99.232005
2512.000000	99.239118
2511.000000	99.246016
2510.000000	99.247219
2509.000000	99.239493
2508.000000	99.226385
2507.000000	99.215770
2506.000000	99.211921
2505.000000	99.212333
2504.000000	99.212936
2503.000000	99.213548
2502.000000	99.215954
2501.000000	99.219408
2500.000000	99.221751
2499.000000	99.224014
2498.000000	99.230082
2497.000000	99.241003
2496.000000	99.252544
2495.000000	99.259778
2494.000000	99.262524
2493.000000	99.264804
2492.000000	99.269798
2491.000000	99.276431
2490.000000	99.280773
2489.000000	99.280310
2488.000000	99.276631
2487.000000	99.273666
2486.000000	99.273348
2485.000000	99.274065
2484.000000	99.273684
2483.000000	99.272508
2482.000000	99.272038
2481.000000	99.272662
2480.000000	99.274721
2479.000000	99.280327
2478.000000	99.290585
2477.000000	99.301203
2476.000000	99.304794
2475.000000	99.299334
2474.000000	99.291703
2473.000000	99.290670
2472.000000	99.298071
2471.000000	99.308409
2470.000000	99.315402
2469.000000	99.316691
2468.000000	99.313241
2467.000000	99.307189
2466.000000	99.300671
2465.000000	99.295013
2464.000000	99.290252
2463.000000	99.285997
2462.000000	99.282828
2461.000000	99.281976
2460.000000	99.283496
2459.000000	99.285388
2458.000000	99.284666
2457.000000	99.279158
2456.000000	99.269059
2455.000000	99.257855
2454.000000	99.251231
2453.000000	99.253380
2452.000000	99.263139
2451.000000	99.274187
2450.000000	99.280043
2449.000000	99.279071
2448.000000	99.274648
2447.000000	99.271020
2446.000000	99.269531
2445.000000	99.268814
2444.000000	99.267663
2443.000000	99.266819
2442.000000	99.268278
2441.000000	99.273790
2440.000000	99.284087
2439.000000	99.298137
2438.000000	99.312209
2437.000000	99.320771
2436.000000	99.320412
2435.000000	99.313301
2434.000000	99.305543
2433.000000	99.301414
2432.000000	99.299844
2431.000000	99.297041
2430.000000	99.291833
2429.000000	99.287530
2428.000000	99.288416
2427.000000	99.294692
2426.000000	99.301303
2425.000000	99.302337
2424.000000	99.296924
2423.000000	99.290398
2422.000000	99.288951
2421.000000	99.293395
2420.000000	99.298590
2419.000000	99.298616
2418.000000	99.292025
2417.000000	99.282911
2416.000000	99.277739
2415.000000	99.280437
2414.000000	99.289007
2413.000000	99.297016
2412.000000	99.299610
2411.000000	99.297895
2410.000000	99.296545
2409.000000	99.298181
2408.000000	99.301981
2407.000000	99.306853
2406.000000	99.312784
2405.000000	99.318354
2404.000000	99.320041
2403.000000	99.315823
2402.000000	99.307947
2401.000000	99.300811
2400.000000	99.297437
2399.000000	99.298554
2398.000000	99.302974
2397.000000	99.307451
2396.000000	99.308343
2395.000000	99.305400
2394.000000	99.302462
2393.000000	99.302591
2392.000000	99.304377
2391.000000	99.305254
2390.000000	99.306452
2389.000000	99.311185
2388.000000	99.318725
2387.000000	99.324363
2386.000000	99.325605
2385.000000	99.325226
2384.000000	99.326831
2383.000000	99.329808
2382.000000	99.331023
2381.000000	99.329581
2380.000000	99.328300
2379.000000	99.330986
2378.000000	99.339182
2377.000000	99.350893
2376.000000	99.360971
2375.000000	99.363673
2374.000000	99.356749
2373.000000	99.344156
2372.000000	99.334239
2371.000000	99.333921
2370.000000	99.343424
2369.000000	99.356085
2368.000000	99.364567
2367.000000	99.366499
2366.000000	99.363894
2365.000000	99.358648
2364.000000	99.350878
2363.000000	99.341174
2362.000000	99.331733
2361.000000	99.325334
2360.000000	99.324675
2359.000000	99.332364
2358.000000	99.347217
2357.000000	99.361531
2356.000000	99.368278
2355.000000	99.366714
2354.000000	99.359628
2353.000000	99.350117
2352.000000	99.342296
2351.000000	99.339176
2350.000000	99.338703
2349.000000	99.337017
2348.000000	99.331489
2347.000000	99.323374
2346.000000	99.319173
2345.000000	99.324574
2344.000000	99.335227
2343.000000	99.340601
2342.000000	99.339693
2341.000000	99.339321
2340.000000	99.342546
2339.000000	99.345129
2338.000000	99.343022
2337.000000	99.338422
2336.000000	99.335343
2335.000000	99.333157
2334.000000	99.327868
2333.000000	99.319999
2332.000000	99.315113
2331.000000	99.316742
2330.000000	99.321667
2329.000000	99.326728
2328.000000	99.330732
2327.000000	99.332234
2326.000000	99.327561
2325.000000	99.316365
2324.000000	99.304539
2323.000000	99.298986
2322.000000	99.302292
2321.000000	99.312327
2320.000000	99.325238
2319.000000	99.337436
2318.000000	99.346812
2317.000000	99.354759
2316.000000	99.362550
2315.000000	99.367627
2314.000000	99.364441
2313.000000	99.352724
2312.000000	99.339144
2311.000000	99.331008
2310.000000	99.329402
2309.000000	99.332364
2308.000000	99.338713
2307.000000	99.347251
2306.000000	99.354200
2305.000000	99.356700
2304.000000	99.356936
2303.000000	99.359770
2302.000000	99.366187
2301.000000	99.372157
2300.000000	99.372398
2299.000000	99.363870
2298.000000	99.345837
2297.000000	99.321309
2296.000000	99.297972
2295.000000	99.285065
2294.000000	99.286065
2293.000000	99.295869
2292.000000	99.305685
2291.000000	99.310693
2290.000000	99.312571
2289.000000	99.315463
2288.000000	99.320315
2287.000000	99.323177
2286.000000	99.319744
2285.000000	99.310850
2284.000000	99.302083
2283.000000	99.297432
2282.000000	99.296092
2281.000000	99.296866
2280.000000	99.302730
2279.000000	99.316955
2278.000000	99.336167
2277.000000	99.351672
2276.000000	99.358680
2275.000000	99.360833
2274.000000	99.364330
2273.000000	99.370371
2272.000000	99.374501
2271.000000	99.371334
2270.000000	99.359041
2269.000000	99.341385
2268.000000	99.326060
2267.000000	99.318877
2266.000000	99.318883
2265.000000	99.321140
2264.000000	99.323866
2263.000000	99.329596
2262.000000	99.338614
2261.000000	99.345722
2260.000000	99.346265
2259.000000	99.342104
2258.000000	99.338448
2257.000000	99.336974
2256.000000	99.335788
2255.000000	99.334584
2254.000000	99.335793
2253.000000	99.340859
2252.000000	99.349003
2251.000000	99.360048
2250.000000	99.374146
2249.000000	99.387092
2248.000000	99.389613
2247.000000	99.374703
2246.000000	99.345548
2245.000000	99.314585
2244.000000	99.295310
2243.000000	99.295064
2242.000000	99.312573
2241.000000	99.338863
2240.000000	99.361927
2239.000000	99.375013
2238.000000	99.381183
2237.000000	99.387468
2236.000000	99.395249
2235.000000	99.400378
2234.000000	99.402833
2233.000000	99.409963
2232.000000	99.425795
2231.000000	99.441377
2230.000000	99.442203
2229.000000	99.425096
2228.000000	99.402541
2227.000000	99.389287
2226.000000	99.388430
2225.000000	99.391697
2224.000000	99.390033
2223.000000	99.381933
2222.000000	99.373039
2221.000000	99.368980
2220.000000	99.369230
2219.000000	99.369386
2218.000000	99.369413
2217.000000	99.375524
2216.000000	99.391300
2215.000000	99.411461
2214.000000	99.429272
2213.000000	99.445261
2212.000000	99.460921
2211.000000	99.467166
2210.000000	99.449555
2209.000000	99.406810
2208.000000	99.356217
2207.000000	99.319349
2206.000000	99.309113
2205.000000	99.328601
2204.000000	99.368881
2203.000000	99.406103
2202.000000	99.415477
2201.000000	99.397290
2200.000000	99.379715
2199.000000	99.386564
2198.000000	99.411475
2197.000000	99.431729
2196.000000	99.436944
2195.000000	99.430804
2194.000000	99.414609
2193.000000	99.387840
2192.000000	99.362488
2191.000000	99.357384
2190.000000	99.374499
2189.000000	99.394969
2188.000000	99.403508
2187.000000	99.405890
2186.000000	99.415598
2185.000000	99.433783
2184.000000	99.451409
2183.000000	99.464692
2182.000000	99.477814
2181.000000	99.490519
2180.000000	99.490683
2179.000000	99.463192
2178.000000	99.406912
2177.000000	99.343841
2176.000000	99.308230
2175.000000	99.320625
2174.000000	99.371620
2173.000000	99.431408
2172.000000	99.471334
2171.000000	99.475338
2170.000000	99.440567
2169.000000	99.379857
2168.000000	99.320679
2167.000000	99.287974
2166.000000	99.284675
2165.000000	99.294859
2164.000000	99.304593
2163.000000	99.311868
2162.000000	99.316967
2161.000000	99.320340
2160.000000	99.336939
2159.000000	99.394952
2158.000000	99.498857
2157.000000	99.606252
2156.000000	99.666016
2155.000000	99.667275
2154.000000	99.635267
2153.000000	99.595036
2152.000000	99.552560
2151.000000	99.506395
2150.000000	99.465648
2149.000000	99.445660
2148.000000	99.446132
2147.000000	99.446236
2146.000000	99.429714
2145.000000	99.407258
2144.000000	99.402579
2143.000000	99.420696
2142.000000	99.444404
2141.000000	99.460504
2140.000000	99.474340
2139.000000	99.493375
2138.000000	99.510009
2137.000000	99.511127
2136.000000	99.496071
2135.000000	99.475241
2134.000000	99.456855
2133.000000	99.445256
2132.000000	99.445482
2131.000000	99.458498
2130.000000	99.475255
2129.000000	99.484820
2128.000000	99.486981
2127.000000	99.489226
2126.000000	99.492845
2125.000000	99.489798
2124.000000	99.473628
2123.000000	99.446690
2122.000000	99.416965
2121.000000	99.394132
2120.000000	99.387515
2119.000000	99.399094
2118.000000	99.416665
2117.000000	99.421068
2116.000000	99.404678
2115.000000	99.378909
2114.000000	99.361323
2113.000000	99.360117
2112.000000	99.372427
2111.000000	99.391404
2110.000000	99.409971
2109.000000	99.421696
2108.000000	99.424439
2107.000000	99.422804
2106.000000	99.423927
2105.000000	99.430976
2104.000000	99.441166
2103.000000	99.447711
2102.000000	99.443761
2101.000000	99.428786
2100.000000	99.412988
2099.000000	99.410723
2098.000000	99.426174
2097.000000	99.447448
2096.000000	99.457606
2095.000000	99.449761
2094.000000	99.429995
2093.000000	99.409934
2092.000000	99.399540
2091.000000	99.403287
2090.000000	99.417580
2089.000000	99.432254
2088.000000	99.438840
2087.000000	99.438164
2086.000000	99.437031
2085.000000	99.437671
2084.000000	99.433133
2083.000000	99.415094
2082.000000	99.385782
2081.000000	99.359768
2080.000000	99.351935
2079.000000	99.363953
2078.000000	99.384372
2077.000000	99.401062
2076.000000	99.410029
2075.000000	99.412583
2074.000000	99.410740
2073.000000	99.409672
2072.000000	99.418174
2071.000000	99.438918
2070.000000	99.461609
2069.000000	99.473758
2068.000000	99.476755
2067.000000	99.482472
2066.000000	99.494670
2065.000000	99.503341
2064.000000	99.500381
2063.000000	99.491967
2062.000000	99.489483
2061.000000	99.495494
2060.000000	99.502601
2059.000000	99.501618
2058.000000	99.488372
2057.000000	99.466244
2056.000000	99.443433
2055.000000	99.423409
2054.000000	99.399113
2053.000000	99.363941
2052.000000	99.328343
2051.000000	99.316631
2050.000000	99.343618
2049.000000	99.396850
2048.000000	99.445509
2047.000000	99.467251
2046.000000	99.462686
2045.000000	99.449111
2044.000000	99.446899
2043.000000	99.464221
2042.000000	99.487752
2041.000000	99.495025
2040.000000	99.483607
2039.000000	99.479135
2038.000000	99.506528
2037.000000	99.562102
2036.000000	99.620009
2035.000000	99.660238
2034.000000	99.679192
2033.000000	99.678150
2032.000000	99.656968
2031.000000	99.619939
2030.000000	99.579853
2029.000000	99.553393
2028.000000	99.549995
2027.000000	99.561187
2026.000000	99.563554
2025.000000	99.539596
2024.000000	99.497916
2023.000000	99.465708
2022.000000	99.461615
2021.000000	99.483249
2020.000000	99.516254
2019.000000	99.543530
2018.000000	99.546185
2017.000000	99.513045
2016.000000	99.458286
2015.000000	99.412943
2014.000000	99.393967
2013.000000	99.394728
2012.000000	99.403442
2011.000000	99.416760
2010.000000	99.431573
2009.000000	99.438763
2008.000000	99.435593
2007.000000	99.433495
2006.000000	99.443362
2005.000000	99.462729
2004.000000	99.484319
2003.000000	99.505805
2002.000000	99.523312
2001.000000	99.527219
2000.000000	99.514107
1999.000000	99.493445
1998.000000	99.475302
1997.000000	99.461727
1996.000000	99.455742
1995.000000	99.466058
1994.000000	99.491980
1993.000000	99.511812
1992.000000	99.503807
1991.000000	99.478904
1990.000000	99.470855
1989.000000	99.495674
1988.000000	99.537273
1987.000000	99.568368
1986.000000	99.572861
1985.000000	99.550801
1984.000000	99.516660
1983.000000	99.493721
1982.000000	99.495775
1981.000000	99.507642
1980.000000	99.493559
1979.000000	99.435348
1978.000000	99.358939
1977.000000	99.312418
1976.000000	99.315820
1975.000000	99.346905
1974.000000	99.376865
1973.000000	99.401168
1972.000000	99.432890
1971.000000	99.477872
1970.000000	99.524002
1969.000000	99.553918
1968.000000	99.565538
1967.000000	99.575364
1966.000000	99.595203
1965.000000	99.612133
1964.000000	99.604859
1963.000000	99.575813
1962.000000	99.555607
1961.000000	99.571475
1960.000000	99.614046
1959.000000	99.645188
1958.000000	99.637572
1957.000000	99.597841
1956.000000	99.553464
1955.000000	99.526282
1954.000000	99.521330
1953.000000	99.532053
1952.000000	99.547006
1951.000000	99.553160
1950.000000	99.541769
1949.000000	99.517909
1948.000000	99.501702
1947.000000	99.512048
1946.000000	99.546223
1945.000000	99.578451
1944.000000	99.581468
1943.000000	99.551591
1942.000000	99.513887
1941.000000	99.498019
1940.000000	99.509505
1939.000000	99.530885
1938.000000	99.543256
1937.000000	99.541559
1936.000000	99.534614
1935.000000	99.533531
1934.000000	99.541699
1933.000000	99.554210
1932.000000	99.563474
1931.000000	99.564540
1930.000000	99.557027
1929.000000	99.546329
1928.000000	99.542344
1927.000000	99.551936
1926.000000	99.571814
1925.000000	99.590445
1924.000000	99.597215
1923.000000	99.590381
1922.000000	99.577080
1921.000000	99.565810
1920.000000	99.559190
1919.000000	99.553309
1918.000000	99.542286
1917.000000	99.525511
1916.000000	99.510679
1915.000000	99.504882
1914.000000	99.507344
1913.000000	99.512213
1912.000000	99.515924
1911.000000	99.520900
1910.000000	99.530259
1909.000000	99.541107
1908.000000	99.546648
1907.000000	99.543271
1906.000000	99.532995
1905.000000	99.520336
1904.000000	99.508336
1903.000000	99.497660
1902.000000	99.489222
1901.000000	99.486655
1900.000000	99.492655
1899.000000	99.503709
1898.000000	99.513272
1897.000000	99.519352
1896.000000	99.525182
1895.000000	99.531461
1894.000000	99.533198
1893.000000	99.528436
1892.000000	99.524125
1891.000000	99.528517
1890.000000	99.541128
1889.000000	99.552956
1888.000000	99.557856
1887.000000	99.555828
1886.000000	99.547130
1885.000000	99.533340
1884.000000	99.520782
1883.000000	99.516133
1882.000000	99.519447
1881.000000	99.525913
1880.000000	99.531326
1879.000000	99.532617
1878.000000	99.528071
1877.000000	99.521254
1876.000000	99.520831
1875.000000	99.531485
1874.000000	99.548754
1873.000000	99.566263
1872.000000	99.583749
1871.000000	99.601891
1870.000000	99.612785
1869.000000	99.604395
1868.000000	99.580781
1867.000000	99.561612
1866.000000	99.552492
1865.000000	99.544486
1864.000000	99.534668
1863.000000	99.528769
1862.000000	99.528848
1861.000000	99.529352
1860.000000	99.527546
1859.000000	99.528492
1858.000000	99.535311
1857.000000	99.543187
1856.000000	99.547293
1855.000000	99.548072
1854.000000	99.546441
1853.000000	99.540994
1852.000000	99.532803
1851.000000	99.526736
1850.000000	99.526355
1849.000000	99.532334
1848.000000	99.544960
1847.000000	99.563072
1846.000000	99.579245
1845.000000	99.582280
1844.000000	99.570952
1843.000000	99.558411
1842.000000	99.552340
1841.000000	99.548809
1840.000000	99.545047
1839.000000	99.543184
1838.000000	99.544517
1837.000000	99.545946
1836.000000	99.545750
1835.000000	99.547576
1834.000000	99.554330
1833.000000	99.563804
1832.000000	99.572189
1831.000000	99.578742
1830.000000	99.583716
1829.000000	99.585160
1828.000000	99.584504
1827.000000	99.585323
1826.000000	99.587069
1825.000000	99.584988
1824.000000	99.576967
1823.000000	99.568195
1822.000000	99.563403
1821.000000	99.561961
1820.000000	99.562216
1819.000000	99.565700
1818.000000	99.573318
1817.000000	99.580243
1816.000000	99.581362
1815.000000	99.578131
1814.000000	99.573401
1813.000000	99.565662
1812.000000	99.553969
1811.000000	99.546088
1810.000000	99.551101
1809.000000	99.564139
1808.000000	99.572345
1807.000000	99.570441
1806.000000	99.562181
1805.000000	99.553656
1804.000000	99.550139
1803.000000	99.554267
1802.000000	99.562104
1801.000000	99.563108
1800.000000	99.552148
1799.000000	99.538713
1798.000000	99.532518
1797.000000	99.532182
1796.000000	99.533831
1795.000000	99.538765
1794.000000	99.548727
1793.000000	99.558405
1792.000000	99.558979
1791.000000	99.553501
1790.000000	99.551693
1789.000000	99.553627
1788.000000	99.556031
1787.000000	99.558942
1786.000000	99.563169
1785.000000	99.566913
1784.000000	99.568435
1783.000000	99.568795
1782.000000	99.568982
1781.000000	99.567667
1780.000000	99.564281
1779.000000	99.562422
1778.000000	99.566057
1777.000000	99.576766
1776.000000	99.595730
1775.000000	99.622059
1774.000000	99.649033
1773.000000	99.663717
1772.000000	99.654603
1771.000000	99.630892
1770.000000	99.611943
1769.000000	99.598611
1768.000000	99.584648
1767.000000	99.573115
1766.000000	99.570556
1765.000000	99.574960
1764.000000	99.576810
1763.000000	99.565527
1762.000000	99.537718
1761.000000	99.502691
1760.000000	99.473170
1759.000000	99.452898
1758.000000	99.433509
1757.000000	99.401394
1756.000000	99.353851
1755.000000	99.304548
1754.000000	99.264997
1753.000000	99.230255
1752.000000	99.184876
1751.000000	99.119631
1750.000000	99.043921
1749.000000	98.973831
1748.000000	98.914843
1747.000000	98.865487
1746.000000	98.823328
1745.000000	98.785666
1744.000000	98.752267
1743.000000	98.727957
1742.000000	98.718126
1741.000000	98.721570
1740.000000	98.732110
1739.000000	98.747589
1738.000000	98.773124
1737.000000	98.814009
1736.000000	98.872709
1735.000000	98.948694
1734.000000	99.023020
1733.000000	99.066064
1732.000000	99.088948
1731.000000	99.115184
1730.000000	99.149595
1729.000000	99.185371
1728.000000	99.215751
1727.000000	99.238730
1726.000000	99.257119
1725.000000	99.274234
1724.000000	99.288993
1723.000000	99.297270
1722.000000	99.298518
1721.000000	99.295906
1720.000000	99.291358
1719.000000	99.287688
1718.000000	99.292008
1717.000000	99.292265
1716.000000	99.269010
1715.000000	99.229091
1714.000000	99.185879
1713.000000	99.151174
1712.000000	99.132361
1711.000000	99.128766
1710.000000	99.135202
1709.000000	99.145974
1708.000000	99.156167
1707.000000	99.164809
1706.000000	99.174788
1705.000000	99.187381
1704.000000	99.203097
1703.000000	99.220902
1702.000000	99.233568
1701.000000	99.233801
1700.000000	99.236435
1699.000000	99.259343
1698.000000	99.291703
1697.000000	99.310151
1696.000000	99.300615
1695.000000	99.281633
1694.000000	99.274274
1693.000000	99.273108
1692.000000	99.272641
1691.000000	99.273766
1690.000000	99.277866
1689.000000	99.282473
1688.000000	99.284706
1687.000000	99.284682
1686.000000	99.280302
1685.000000	99.262587
1684.000000	99.225883
1683.000000	99.193433
1682.000000	99.184791
1681.000000	99.183728
1680.000000	99.183640
1679.000000	99.187305
1678.000000	99.193938
1677.000000	99.196710
1676.000000	99.190255
1675.000000	99.176975
1674.000000	99.162683
1673.000000	99.149415
1672.000000	99.136399
1671.000000	99.122733
1670.000000	99.104099
1669.000000	99.078575
1668.000000	99.056821
1667.000000	99.045091
1666.000000	99.038352
1665.000000	99.028477
1664.000000	99.009179
1663.000000	98.981044
1662.000000	98.951524
1661.000000	98.928383
1660.000000	98.913719
1659.000000	98.904860
1658.000000	98.897965
1657.000000	98.890530
1656.000000	98.880588
1655.000000	98.864754
1654.000000	98.841813
1653.000000	98.821868
1652.000000	98.820352
1651.000000	98.830369
1650.000000	98.834072
1649.000000	98.834791
1648.000000	98.838218
1647.000000	98.844784
1646.000000	98.845980
1645.000000	98.845989
1644.000000	98.846792
1643.000000	98.848150
1642.000000	98.850919
1641.000000	98.853372
1640.000000	98.854678
1639.000000	98.856190
1638.000000	98.858374
1637.000000	98.859989
1636.000000	98.859595
1635.000000	98.858466
1634.000000	98.862134
1633.000000	98.864831
1632.000000	98.863857
1631.000000	98.863210
1630.000000	98.865185
1629.000000	98.871329
1628.000000	98.884558
1627.000000	98.904920
1626.000000	98.927485
1625.000000	98.948857
1624.000000	98.971724
1623.000000	98.999431
1622.000000	99.028081
1621.000000	99.053898
1620.000000	99.076760
1619.000000	99.097694
1618.000000	99.118961
1617.000000	99.143660
1616.000000	99.174031
1615.000000	99.207508
1614.000000	99.237155
1613.000000	99.260668
1612.000000	99.281644
1611.000000	99.303413
1610.000000	99.325158
1609.000000	99.347016
1608.000000	99.372094
1607.000000	99.398487
1606.000000	99.418998
1605.000000	99.432822
1604.000000	99.447421
1603.000000	99.466976
1602.000000	99.486597
1601.000000	99.500985
1600.000000	99.511074
1599.000000	99.518809
1598.000000	99.524168
1597.000000	99.528343
1596.000000	99.533794
1595.000000	99.539035
1594.000000	99.538461
1593.000000	99.531192
1592.000000	99.522048
1591.000000	99.511505
1590.000000	99.493299
1589.000000	99.465507
1588.000000	99.434710
1587.000000	99.404968
1586.000000	99.371525
1585.000000	99.329253
1584.000000	99.279843
1583.000000	99.225864
1582.000000	99.166163
1581.000000	99.102639
1580.000000	99.043501
1579.000000	98.993881
1578.000000	98.952012
1577.000000	98.917944
1576.000000	98.899520
1575.000000	98.899484
1574.000000	98.908892
1573.000000	98.920434
1572.000000	98.934607
1571.000000	98.955359
1570.000000	98.981005
1569.000000	99.001711
1568.000000	99.015211
1567.000000	99.023988
1566.000000	99.027012
1565.000000	99.025864
1564.000000	99.024642
1563.000000	99.024191
1562.000000	99.019321
1561.000000	99.002772
1560.000000	98.984768
1559.000000	98.984626
1558.000000	98.951820
1557.000000	98.920802
1556.000000	98.897238
1555.000000	98.867767
1554.000000	98.830027
1553.000000	98.787820
1552.000000	98.742331
1551.000000	98.692921
1550.000000	98.641805
1549.000000	98.595208
1548.000000	98.554150
1547.000000	98.510235
1546.000000	98.453257
1545.000000	98.380876
1544.000000	98.303248
1543.000000	98.234932
1542.000000	98.183131
1541.000000	98.138061
1540.000000	98.079856
1539.000000	98.036827
1538.000000	98.045966
1537.000000	98.080716
1536.000000	98.121885
1535.000000	98.173214
1534.000000	98.244484
1533.000000	98.324944
1532.000000	98.388914
1531.000000	98.434641
1530.000000	98.470587
1529.000000	98.502340
1528.000000	98.534102
1527.000000	98.570110
1526.000000	98.608373
1525.000000	98.638670
1524.000000	98.656819
1523.000000	98.671266
1522.000000	98.686273
1521.000000	98.688260
1520.000000	98.674351
1519.000000	98.657140
1518.000000	98.640885
1517.000000	98.626123
1516.000000	98.618393
1515.000000	98.625391
1514.000000	98.642528
1513.000000	98.658498
1512.000000	98.666244
1511.000000	98.666923
1510.000000	98.666214
1509.000000	98.667666
1508.000000	98.675854
1507.000000	98.685649
1506.000000	98.687319
1505.000000	98.695162
1504.000000	98.696742
1503.000000	98.692893
1502.000000	98.691106
1501.000000	98.690417
1500.000000	98.687002
1499.000000	98.682737
1498.000000	98.684977
1497.000000	98.689868
1496.000000	98.684020
1495.000000	98.669458
1494.000000	98.656760
1493.000000	98.647911
1492.000000	98.640304
1491.000000	98.633418
1490.000000	98.626274
1489.000000	98.608080
1488.000000	98.577118
1487.000000	98.547454
1486.000000	98.523869
1485.000000	98.501064
1484.000000	98.476252
1483.000000	98.449516
1482.000000	98.420021
1481.000000	98.385117
1480.000000	98.345135
1479.000000	98.303250
1478.000000	98.258822
1477.000000	98.210123
1476.000000	98.162332
1475.000000	98.124187
1474.000000	98.088016
1473.000000	98.023958
1472.000000	97.918339
1471.000000	97.806944
1470.000000	97.715587
1469.000000	97.638992
1468.000000	97.572370
1467.000000	97.519997
1466.000000	97.488863
1465.000000	97.480180
1464.000000	97.486332
1463.000000	97.495841
1462.000000	97.499575
1461.000000	97.494547
1460.000000	97.485588
1459.000000	97.483490
1458.000000	97.495013
1457.000000	97.502948
1456.000000	97.486662
1455.000000	97.457798
1454.000000	97.429095
1453.000000	97.407355
1452.000000	97.394973
1451.000000	97.390892
1450.000000	97.390928
1449.000000	97.390009
1448.000000	97.384822
1447.000000	97.375775
1446.000000	97.364368
1445.000000	97.349767
1444.000000	97.332771
1443.000000	97.316474
1442.000000	97.302649
1441.000000	97.291877
1440.000000	97.285630
1439.000000	97.284069
1438.000000	97.284352
1437.000000	97.281793
1436.000000	97.273508
1435.000000	97.260508
1434.000000	97.248746
1433.000000	97.243026
1432.000000	97.245241
1431.000000	97.253402
1430.000000	97.263578
1429.000000	97.273268
1428.000000	97.281336
1427.000000	97.286382
1426.000000	97.287462
1425.000000	97.287440
1424.000000	97.290333
1423.000000	97.294154
1422.000000	97.294781
1421.000000	97.290618
1420.000000	97.284412
1419.000000	97.281797
1418.000000	97.283956
1417.000000	97.287127
1416.000000	97.290046
1415.000000	97.296804
1414.000000	97.311855
1413.000000	97.336814
1412.000000	97.369349
1411.000000	97.402456
1410.000000	97.429796
1409.000000	97.450688
1408.000000	97.468343
1407.000000	97.487614
1406.000000	97.513716
1405.000000	97.548635
1404.000000	97.585683
1403.000000	97.614098
1402.000000	97.631701
1401.000000	97.645229
1400.000000	97.661780
1399.000000	97.679643
1398.000000	97.691660
1397.000000	97.697748
1396.000000	97.704348
1395.000000	97.715291
1394.000000	97.729277
1393.000000	97.744249
1392.000000	97.758260
1391.000000	97.772166
1390.000000	97.788892
1389.000000	97.810228
1388.000000	97.833616
1387.000000	97.850091
1386.000000	97.852173
1385.000000	97.844078
1384.000000	97.836016
1383.000000	97.834816
1382.000000	97.840627
1381.000000	97.849045
1380.000000	97.857484
1379.000000	97.868264
1378.000000	97.885060
1377.000000	97.909307
1376.000000	97.940470
1375.000000	97.976597
1374.000000	98.013291
1373.000000	98.046152
1372.000000	98.073268
1371.000000	98.094401
1370.000000	98.111122
1369.000000	98.127777
1368.000000	98.147306
1367.000000	98.167467
1366.000000	98.184687
1365.000000	98.199351
1364.000000	98.216249
1363.000000	98.239620
1362.000000	98.267114
1361.000000	98.293916
1360.000000	98.317809
1359.000000	98.337796
1358.000000	98.353336
1357.000000	98.365400
1356.000000	98.375620
1355.000000	98.384295
1354.000000	98.391019
1353.000000	98.396768
1352.000000	98.403775
1351.000000	98.413420
1350.000000	98.424129
1349.000000	98.433949
1348.000000	98.441752
1347.000000	98.445886
1346.000000	98.445206
1345.000000	98.442360
1344.000000	98.442471
1343.000000	98.447663
1342.000000	98.455208
1341.000000	98.461782
1340.000000	98.466664
1339.000000	98.470251
1338.000000	98.473398
1337.000000	98.477722
1336.000000	98.484070
1335.000000	98.492054
1334.000000	98.500707
1333.000000	98.509644
1332.000000	98.519154
1331.000000	98.529079
1330.000000	98.538955
1329.000000	98.549962
1328.000000	98.564349
1327.000000	98.581915
1326.000000	98.599180
1325.000000	98.613834
1324.000000	98.626287
1323.000000	98.636565
1322.000000	98.642748
1321.000000	98.643578
1320.000000	98.640601
1319.000000	98.636760
1318.000000	98.634057
1317.000000	98.633001
1316.000000	98.633356
1315.000000	98.634806
1314.000000	98.637183
1313.000000	98.640087
1312.000000	98.642746
1311.000000	98.644936
1310.000000	98.647996
1309.000000	98.653703
1308.000000	98.661522
1307.000000	98.668224
1306.000000	98.671016
1305.000000	98.671215
1304.000000	98.672183
1303.000000	98.674932
1302.000000	98.677703
1301.000000	98.679441
1300.000000	98.681561
1299.000000	98.685710
1298.000000	98.691249
1297.000000	98.695787
1296.000000	98.697927
1295.000000	98.698622
1294.000000	98.699785
1293.000000	98.701635
1292.000000	98.701929
1291.000000	98.698398
1290.000000	98.691551
1289.000000	98.684104
1288.000000	98.677874
1287.000000	98.672573
1286.000000	98.667708
1285.000000	98.663860
1284.000000	98.661348
1283.000000	98.659214
1282.000000	98.656392
1281.000000	98.652912
1280.000000	98.649396
1279.000000	98.646072
1278.000000	98.643575
1277.000000	98.643651
1276.000000	98.647687
1275.000000	98.654739
1274.000000	98.661940
1273.000000	98.666599
1272.000000	98.667412
1271.000000	98.664756
1270.000000	98.660890
1269.000000	98.658752
1268.000000	98.658985
1267.000000	98.658375
1266.000000	98.652975
1265.000000	98.642506
1264.000000	98.630795
1263.000000	98.622319
1262.000000	98.619180
1261.000000	98.620898
1260.000000	98.625607
1259.000000	98.630255
1258.000000	98.631191
1257.000000	98.626154
1256.000000	98.616506
1255.000000	98.607080
1254.000000	98.602381
1253.000000	98.602194
1252.000000	98.601936
1251.000000	98.597984
1250.000000	98.591449
1249.000000	98.585599
1248.000000	98.580789
1247.000000	98.574088
1246.000000	98.563807
1245.000000	98.551793
1244.000000	98.540995
1243.000000	98.532842
1242.000000	98.527396
1241.000000	98.524196
1240.000000	98.522282
1239.000000	98.520721
1238.000000	98.519327
1237.000000	98.517567
1236.000000	98.513154
1235.000000	98.504065
1234.000000	98.492501
1233.000000	98.484431
1232.000000	98.484150
1231.000000	98.490805
1230.000000	98.500795
1229.000000	98.511673
1228.000000	98.522697
1227.000000	98.533662
1226.000000	98.544790
1225.000000	98.556757
1224.000000	98.570021
1223.000000	98.584871
1222.000000	98.602248
1221.000000	98.622507
1220.000000	98.642934
1219.000000	98.658719
1218.000000	98.667781
1217.000000	98.672532
1216.000000	98.675918
1215.000000	98.678260
1214.000000	98.679113
1213.000000	98.679494
1212.000000	98.679893
1211.000000	98.678655
1210.000000	98.675142
1209.000000	98.672768
1208.000000	98.675851
1207.000000	98.683950
1206.000000	98.691380
1205.000000	98.692456
1204.000000	98.686119
1203.000000	98.676096
1202.000000	98.667852
1201.000000	98.664644
1200.000000	98.665303
1199.000000	98.666238
1198.000000	98.666120
1197.000000	98.667263
1196.000000	98.671558
1195.000000	98.676834
1194.000000	98.679123
1193.000000	98.677521
1192.000000	98.675043
1191.000000	98.675418
1190.000000	98.680373
1189.000000	98.689201
1188.000000	98.699152
1187.000000	98.706717
1186.000000	98.710262
1185.000000	98.711196
1184.000000	98.711328
1183.000000	98.709880
1182.000000	98.704677
1181.000000	98.696031
1180.000000	98.687820
1179.000000	98.684023
1178.000000	98.685216
1177.000000	98.688867
1176.000000	98.692026
1175.000000	98.693176
1174.000000	98.692243
1173.000000	98.690047
1172.000000	98.688065
1171.000000	98.688412
1170.000000	98.692735
1169.000000	98.700253
1168.000000	98.707588
1167.000000	98.711912
1166.000000	98.714352
1165.000000	98.718951
1164.000000	98.728273
1163.000000	98.741344
1162.000000	98.755680
1161.000000	98.769779
1160.000000	98.783535
1159.000000	98.797994
1158.000000	98.815024
1157.000000	98.835061
1156.000000	98.854641
1155.000000	98.868440
1154.000000	98.874911
1153.000000	98.877860
1152.000000	98.881645
1151.000000	98.887330
1150.000000	98.894769
1149.000000	98.905382
1148.000000	98.920158
1147.000000	98.936867
1146.000000	98.952010
1145.000000	98.964796
1144.000000	98.977274
1143.000000	98.991810
1142.000000	99.010050
1141.000000	99.033118
1140.000000	99.060498
1139.000000	99.089161
1138.000000	99.115202
1137.000000	99.136083
1136.000000	99.151180
1135.000000	99.162211
1134.000000	99.173731
1133.000000	99.190037
1132.000000	99.209821
1131.000000	99.226393
1130.000000	99.235465
1129.000000	99.240436
1128.000000	99.247387
1127.000000	99.257379
1126.000000	99.266813
1125.000000	99.273179
1124.000000	99.276722
1123.000000	99.277446
1122.000000	99.274621
1121.000000	99.269233
1120.000000	99.263393
1119.000000	99.256868
1118.000000	99.246647
1117.000000	99.231177
1116.000000	99.213381
1115.000000	99.198718
1114.000000	99.191018
1113.000000	99.190644
1112.000000	99.195786
1111.000000	99.204362
1110.000000	99.214213
1109.000000	99.222071
1108.000000	99.223895
1107.000000	99.218643
1106.000000	99.210829
1105.000000	99.206481
1104.000000	99.206372
1103.000000	99.205713
1102.000000	99.200840
1101.000000	99.193204
1100.000000	99.185230
1099.000000	99.178328
1098.000000	99.174426
1097.000000	99.177136
1096.000000	99.186745
1095.000000	99.196825
1094.000000	99.200003
1093.000000	99.195892
1092.000000	99.189598
1091.000000	99.183768
1090.000000	99.176346
1089.000000	99.166086
1088.000000	99.156007
1087.000000	99.149494
1086.000000	99.145663
1085.000000	99.140728
1084.000000	99.133355
1083.000000	99.127102
1082.000000	99.126993
1081.000000	99.133648
1080.000000	99.141478
1079.000000	99.143874
1078.000000	99.140231
1077.000000	99.136216
1076.000000	99.136794
1075.000000	99.141611
1074.000000	99.148261
1073.000000	99.157208
1072.000000	99.170556
1071.000000	99.187390
1070.000000	99.203253
1069.000000	99.213873
1068.000000	99.217226
1067.000000	99.212886
1066.000000	99.202466
1065.000000	99.190843
1064.000000	99.184334
1063.000000	99.186308
1062.000000	99.194822
1061.000000	99.204626
1060.000000	99.210913
1059.000000	99.211838
1058.000000	99.208965
1057.000000	99.205553
1056.000000	99.203569
1055.000000	99.202430
1054.000000	99.200620
1053.000000	99.197565
1052.000000	99.193166
1051.000000	99.186891
1050.000000	99.178857
1049.000000	99.171255
1048.000000	99.167007
1047.000000	99.166894
1046.000000	99.168810
1045.000000	99.169902
1044.000000	99.169314
1043.000000	99.169101
1042.000000	99.172341
1041.000000	99.179293
1040.000000	99.185817
1039.000000	99.187256
1038.000000	99.184006
1037.000000	99.181013
1036.000000	99.180608
1035.000000	99.178338
1034.000000	99.168113
1033.000000	99.150386
1032.000000	99.132893
1031.000000	99.123265
1030.000000	99.122412
1029.000000	99.125253
1028.000000	99.126539
1027.000000	99.125029
1026.000000	99.122406
1025.000000	99.119595
1024.000000	99.115787
1023.000000	99.110951
1022.000000	99.107212
1021.000000	99.105815
1020.000000	99.104368
1019.000000	99.099766
1018.000000	99.093404
1017.000000	99.090465
1016.000000	99.093666
1015.000000	99.100476
1014.000000	99.107094
1013.000000	99.112609
1012.000000	99.118044
1011.000000	99.123713
1010.000000	99.128969
1009.000000	99.132762
1008.000000	99.133499
1007.000000	99.130662
1006.000000	99.127797
1005.000000	99.131081
1004.000000	99.142709
1003.000000	99.157358
1002.000000	99.167566
1001.000000	99.171512
1000.000000	99.173705
999.000000	99.179530
998.000000	99.191096
997.000000	99.207296
996.000000	99.224949
995.000000	99.239510
994.000000	99.246516
993.000000	99.244086
992.000000	99.234772
991.000000	99.225401
990.000000	99.223608
989.000000	99.231856
988.000000	99.244447
987.000000	99.252503
986.000000	99.252385
985.000000	99.247766
984.000000	99.243598
983.000000	99.241502
982.000000	99.241452
981.000000	99.243774
980.000000	99.247275
979.000000	99.248683
978.000000	99.247092
977.000000	99.246357
976.000000	99.250013
975.000000	99.255615
974.000000	99.257698
973.000000	99.255224
972.000000	99.252788
971.000000	99.254999
970.000000	99.262140
969.000000	99.271311
968.000000	99.279626
967.000000	99.286174
966.000000	99.292186
965.000000	99.299019
964.000000	99.305552
963.000000	99.309256
962.000000	99.310712
961.000000	99.314781
960.000000	99.325112
959.000000	99.339563
958.000000	99.353114
957.000000	99.363310
956.000000	99.370354
955.000000	99.374019
954.000000	99.374156
953.000000	99.373090
952.000000	99.374370
951.000000	99.379531
950.000000	99.388256
949.000000	99.400229
948.000000	99.413708
947.000000	99.423603
946.000000	99.424942
945.000000	99.418487
944.000000	99.410143
943.000000	99.405278
942.000000	99.405847
941.000000	99.412008
940.000000	99.422658
939.000000	99.434217
938.000000	99.442437
937.000000	99.446549
936.000000	99.449260
935.000000	99.452667
934.000000	99.456875
933.000000	99.462616
932.000000	99.471547
931.000000	99.482647
930.000000	99.491417
929.000000	99.494528
928.000000	99.493709
927.000000	99.493725
926.000000	99.497909
925.000000	99.506409
924.000000	99.516880
923.000000	99.525561
922.000000	99.529045
921.000000	99.526454
920.000000	99.519753
919.000000	99.512063
918.000000	99.506488
917.000000	99.505774
916.000000	99.510818
915.000000	99.518922
914.000000	99.525375
913.000000	99.527794
912.000000	99.527756
911.000000	99.527842
910.000000	99.529087
909.000000	99.531997
908.000000	99.537934
907.000000	99.547315
906.000000	99.557444
905.000000	99.564253
904.000000	99.566438
903.000000	99.566657
902.000000	99.568365
901.000000	99.572351
900.000000	99.576747
899.000000	99.580183
898.000000	99.583813
897.000000	99.590298
896.000000	99.600819
895.000000	99.613681
894.000000	99.625581
893.000000	99.633753
892.000000	99.637268
891.000000	99.637563
890.000000	99.637439
889.000000	99.637203
888.000000	99.631156
887.000000	99.609864
886.000000	99.568411
885.000000	99.511692
884.000000	99.449652
883.000000	99.387811
882.000000	99.322885
881.000000	99.247029
880.000000	99.155288
879.000000	99.049791
878.000000	98.938406
877.000000	98.830117
876.000000	98.731461
875.000000	98.647682
874.000000	98.587878
873.000000	98.566587
872.000000	98.597730
871.000000	98.682708
870.000000	98.803967
869.000000	98.932447
868.000000	99.043107
867.000000	99.126799
866.000000	99.190222
865.000000	99.245484
864.000000	99.298416
863.000000	99.345550
862.000000	99.380691
861.000000	99.403245
860.000000	99.419068
859.000000	99.434215
858.000000	99.449765
857.000000	99.462651
856.000000	99.471235
855.000000	99.479300
854.000000	99.493076
853.000000	99.513154
852.000000	99.530430
851.000000	99.533699
850.000000	99.521983
849.000000	99.506617
848.000000	99.500132
847.000000	99.505575
846.000000	99.517876
845.000000	99.531361
844.000000	99.542209
843.000000	99.547062
842.000000	99.544844
841.000000	99.539796
840.000000	99.538377
839.000000	99.542756
838.000000	99.550282
837.000000	99.558839
836.000000	99.568267
835.000000	99.576164
834.000000	99.577549
833.000000	99.571728
832.000000	99.566035
831.000000	99.568708
830.000000	99.579261
829.000000	99.589583
828.000000	99.594673
827.000000	99.598369
826.000000	99.606173
825.000000	99.615027
824.000000	99.614769
823.000000	99.601396
822.000000	99.585050
821.000000	99.580415
820.000000	99.590256
819.000000	99.602127
818.000000	99.602229
817.000000	99.589644
816.000000	99.575517
815.000000	99.571023
814.000000	99.578693
813.000000	99.593184
812.000000	99.606066
811.000000	99.609560
810.000000	99.600555
809.000000	99.584325
808.000000	99.572474
807.000000	99.574008
806.000000	99.587302
805.000000	99.601598
804.000000	99.607238
803.000000	99.604354
802.000000	99.600993
801.000000	99.602807
800.000000	99.606225
799.000000	99.603856
798.000000	99.595659
797.000000	99.590778
796.000000	99.596430
795.000000	99.608188
794.000000	99.614909
793.000000	99.611507
792.000000	99.603101
791.000000	99.597953
790.000000	99.600672
789.000000	99.612180
788.000000	99.630524
787.000000	99.648572
786.000000	99.654792
785.000000	99.642145
784.000000	99.616531
783.000000	99.593248
782.000000	99.583881
781.000000	99.587566
780.000000	99.595304
779.000000	99.600992
778.000000	99.606649
777.000000	99.617127
776.000000	99.631343
775.000000	99.640371
774.000000	99.635016
773.000000	99.615380
772.000000	99.592662
771.000000	99.580850
770.000000	99.585657
769.000000	99.600739
768.000000	99.614389
767.000000	99.620187
766.000000	99.621171
765.000000	99.624096
764.000000	99.630942
763.000000	99.637074
762.000000	99.636856
761.000000	99.629521
760.000000	99.619662
759.000000	99.613164
758.000000	99.612322
757.000000	99.613588
756.000000	99.610741
755.000000	99.602286
754.000000	99.594718
753.000000	99.595177
752.000000	99.600960
751.000000	99.600928
750.000000	99.589249
749.000000	99.573683
748.000000	99.566858
747.000000	99.572242
746.000000	99.581937
745.000000	99.585871
744.000000	99.579673
743.000000	99.565441
742.000000	99.549614
741.000000	99.539974
740.000000	99.540727
739.000000	99.548929
738.000000	99.556957
737.000000	99.558260
736.000000	99.550196
735.000000	99.534119
734.000000	99.515687
733.000000	99.502331
732.000000	99.495877
731.000000	99.489187
730.000000	99.474459
729.000000	99.453646
728.000000	99.435187
727.000000	99.422177
726.000000	99.410167
725.000000	99.395537
724.000000	99.379369
723.000000	99.363467
722.000000	99.349951
721.000000	99.344959
720.000000	99.354348
719.000000	99.373188
718.000000	99.386311
717.000000	99.381529
716.000000	99.357072
715.000000	99.316770
714.000000	99.268111
713.000000	99.227905
712.000000	99.218037
711.000000	99.245772
710.000000	99.293782
709.000000	99.337088
708.000000	99.364665
707.000000	99.379250
706.000000	99.384926
705.000000	99.385366
704.000000	99.389024
703.000000	99.404364
702.000000	99.429139
701.000000	99.453016
700.000000	99.470978
699.000000	99.484646
698.000000	99.492784
697.000000	99.490723
696.000000	99.481090
695.000000	99.476190
694.000000	99.484306
693.000000	99.500954
692.000000	99.517495
691.000000	99.529873
690.000000	99.536186
689.000000	99.532709
688.000000	99.518379
687.000000	99.499820
686.000000	99.484847
685.000000	99.476227
684.000000	99.475383
683.000000	99.484634
682.000000	99.502240
681.000000	99.520395
680.000000	99.532111
679.000000	99.535106
678.000000	99.527476
677.000000	99.510044
676.000000	99.491789
675.000000	99.485819
674.000000	99.495522
673.000000	99.509566
672.000000	99.513485
671.000000	99.501463
670.000000	99.473560
669.000000	99.431498
668.000000	99.398572
667.000000	99.408410
666.000000	99.434312
665.000000	99.457957
664.000000	99.479142
663.000000	99.494507
662.000000	99.500951
661.000000	99.499950
660.000000	99.496381
659.000000	99.494213
658.000000	99.495515
657.000000	99.503622
656.000000	99.519200
655.000000	99.535692
654.000000	99.542897
653.000000	99.535746
652.000000	99.518082
651.000000	99.501747
650.000000	99.500368
649.000000	99.518169
648.000000	99.542474
647.000000	99.551995
646.000000	99.537232
645.000000	99.509767
644.000000	99.490280
643.000000	99.489998
642.000000	99.503033
641.000000	99.515599
640.000000	99.519554
639.000000	99.516621
638.000000	99.514094
637.000000	99.519434
636.000000	99.537165
635.000000	99.566581
634.000000	99.597446
633.000000	99.610628
632.000000	99.589654
631.000000	99.536364
630.000000	99.475095
629.000000	99.436709
628.000000	99.435771
627.000000	99.461404
626.000000	99.488341
625.000000	99.498206
624.000000	99.493712
623.000000	99.490828
622.000000	99.499000
621.000000	99.513001
620.000000	99.524259
619.000000	99.532170
618.000000	99.537664
617.000000	99.531854
616.000000	99.504442
615.000000	99.463370
614.000000	99.432431
613.000000	99.426904
612.000000	99.440527
611.000000	99.458473
610.000000	99.472313
609.000000	99.478486
608.000000	99.473415
607.000000	99.459023
606.000000	99.447850
605.000000	99.451186
604.000000	99.465899
603.000000	99.479319
602.000000	99.484085
601.000000	99.483248
600.000000	99.486222
599.000000	99.503110
598.000000	99.538446
597.000000	99.583906
596.000000	99.620205
595.000000	99.632684
594.000000	99.624050
593.000000	99.607961
592.000000	99.591759
591.000000	99.572552
590.000000	99.547480
589.000000	99.519826
588.000000	99.496270
587.000000	99.483579
586.000000	99.484023
585.000000	99.488095
584.000000	99.478482
583.000000	99.448970
582.000000	99.417073
581.000000	99.409622
580.000000	99.437533
579.000000	99.487479
578.000000	99.534910
577.000000	99.555667
576.000000	99.532587
575.000000	99.472665
574.000000	99.413906
573.000000	99.394933
572.000000	99.420502
571.000000	99.463681
570.000000	99.494359
569.000000	99.502212
568.000000	99.494156
567.000000	99.484924
566.000000	99.492822
565.000000	99.525075
564.000000	99.563338
563.000000	99.577311
562.000000	99.559837
561.000000	99.535728
560.000000	99.528559
559.000000	99.532725
558.000000	99.527268
557.000000	99.502798
556.000000	99.466310
555.000000	99.432043
554.000000	99.415483
553.000000	99.426494
552.000000	99.461454
551.000000	99.509134
550.000000	99.566068
549.000000	99.634572
548.000000	99.699082
547.000000	99.722939
546.000000	99.686850
545.000000	99.620732
544.000000	99.573669
543.000000	99.561902
542.000000	99.564838
541.000000	99.559409
540.000000	99.540127
539.000000	99.510907
538.000000	99.478719
537.000000	99.455456
536.000000	99.451271
535.000000	99.462048
534.000000	99.475911
533.000000	99.488490
532.000000	99.500654
531.000000	99.502335
530.000000	99.476786
529.000000	99.426647
528.000000	99.382201
527.000000	99.374998
526.000000	99.408422
525.000000	99.461392
524.000000	99.516334
523.000000	99.566520
522.000000	99.599674
521.000000	99.596322
520.000000	99.550192
519.000000	99.481479
518.000000	99.424420
517.000000	99.402129
516.000000	99.415983
515.000000	99.453742
514.000000	99.495298
513.000000	99.517419
512.000000	99.507055
511.000000	99.475018
510.000000	99.452302
509.000000	99.466215
508.000000	99.521555
507.000000	99.594195
506.000000	99.640441
505.000000	99.625960
504.000000	99.548033
503.000000	99.437383
502.000000	99.344720
501.000000	99.307169
500.000000	99.324206
499.000000	99.374629
498.000000	99.437101
497.000000	99.489771
496.000000	99.511511
495.000000	99.494557
494.000000	99.449404
493.000000	99.396108
492.000000	99.352929
491.000000	99.331475
490.000000	99.335926
489.000000	99.358007
488.000000	99.380613
487.000000	99.392585
486.000000	99.402456
485.000000	99.432281
484.000000	99.488608
483.000000	99.542698
482.000000	99.550419
481.000000	99.494812
480.000000	99.402217
479.000000	99.322777
478.000000	99.298802
477.000000	99.334876
476.000000	99.394833
475.000000	99.434275
474.000000	99.438921
473.000000	99.432129
472.000000	99.445112
471.000000	99.473347
470.000000	99.488496
469.000000	99.479084
468.000000	99.463736
467.000000	99.476009
466.000000	99.532635
465.000000	99.611819
464.000000	99.667437
463.000000	99.660906
462.000000	99.592212
461.000000	99.508385
460.000000	99.468235
459.000000	99.505345
458.000000	99.599273
457.000000	99.668929
456.000000	99.656644
455.000000	99.593112
454.000000	99.545183
453.000000	99.547907
452.000000	99.584426
451.000000	99.619934
450.000000	99.645872
