PE IR       SUBTECH     SPECTRUM    ASCII       PEDS        4.00        
   -1
Agneau_UK-1-C002_1.ASC
23/09/13
10:25:29.00
23/09/13
11:33:37.00
uco
Sample 002 By uco Date Wednesday, September 13 2023
450.000000
#HDR
-1
-1
#GR
cm-1
%T
1.0
0.0
4000.000000
-1.000000
3551
8
100.134468
95.722919
#DATA
4000.000000	99.883982
3999.000000	99.882315
3998.000000	99.884571
3997.000000	99.888891
3996.000000	99.892645
3995.000000	99.894404
3994.000000	99.894643
3993.000000	99.878477
3992.000000	99.880185
3991.000000	99.884395
3990.000000	99.890184
3989.000000	99.895490
3988.000000	99.898041
3987.000000	99.896213
3986.000000	99.889955
3985.000000	99.880948
3984.000000	99.871773
3983.000000	99.864655
3982.000000	99.860770
3981.000000	99.860400
3980.000000	99.863404
3979.000000	99.869241
3978.000000	99.876469
3977.000000	99.882628
3976.000000	99.885196
3975.000000	99.883300
3974.000000	99.878624
3973.000000	99.874436
3972.000000	99.873271
3971.000000	99.875349
3970.000000	99.879091
3969.000000	99.882364
3968.000000	99.883143
3967.000000	99.880058
3966.000000	99.873426
3965.000000	99.865933
3964.000000	99.861437
3963.000000	99.862449
3962.000000	99.868516
3961.000000	99.877104
3960.000000	99.885583
3959.000000	99.891659
3958.000000	99.893118
3957.000000	99.888482
3956.000000	99.878420
3955.000000	99.866350
3954.000000	99.856952
3953.000000	99.853554
3952.000000	99.856280
3951.000000	99.862266
3950.000000	99.867709
3949.000000	99.869490
3948.000000	99.866253
3947.000000	99.859355
3946.000000	99.852256
3945.000000	99.848630
3944.000000	99.849993
3943.000000	99.854443
3942.000000	99.858348
3941.000000	99.859446
3940.000000	99.858057
3939.000000	99.855771
3938.000000	99.854317
3937.000000	99.855094
3936.000000	99.858113
3935.000000	99.861521
3934.000000	99.862921
3933.000000	99.861242
3932.000000	99.857348
3931.000000	99.852786
3930.000000	99.848655
3929.000000	99.845733
3928.000000	99.845084
3927.000000	99.847723
3926.000000	99.852482
3925.000000	99.856054
3924.000000	99.856876
3923.000000	99.857659
3922.000000	99.861975
3921.000000	99.869912
3920.000000	99.877873
3919.000000	99.881466
3918.000000	99.877923
3917.000000	99.867959
3916.000000	99.855983
3915.000000	99.847096
3914.000000	99.843543
3913.000000	99.844170
3912.000000	99.846443
3911.000000	99.847766
3910.000000	99.846354
3909.000000	99.841706
3908.000000	99.835306
3907.000000	99.830830
3906.000000	99.832440
3905.000000	99.841073
3904.000000	99.852109
3903.000000	99.858687
3902.000000	99.858528
3901.000000	99.854710
3900.000000	99.850519
3899.000000	99.847776
3898.000000	99.846797
3897.000000	99.846077
3896.000000	99.843138
3895.000000	99.837322
3894.000000	99.832312
3893.000000	99.833422
3892.000000	99.839996
3891.000000	99.843637
3890.000000	99.839697
3889.000000	99.833004
3888.000000	99.830208
3887.000000	99.831828
3886.000000	99.832516
3885.000000	99.829100
3884.000000	99.825916
3883.000000	99.828915
3882.000000	99.838235
3881.000000	99.847320
3880.000000	99.848411
3879.000000	99.841692
3878.000000	99.835050
3877.000000	99.834443
3876.000000	99.838365
3875.000000	99.839984
3874.000000	99.835018
3873.000000	99.827490
3872.000000	99.824435
3871.000000	99.825333
3870.000000	99.823073
3869.000000	99.817293
3868.000000	99.816677
3867.000000	99.824790
3866.000000	99.834331
3865.000000	99.837915
3864.000000	99.837631
3863.000000	99.840987
3862.000000	99.849949
3861.000000	99.858399
3860.000000	99.858117
3859.000000	99.845015
3858.000000	99.821758
3857.000000	99.796920
3856.000000	99.781981
3855.000000	99.783997
3854.000000	99.799160
3853.000000	99.810564
3852.000000	99.812247
3851.000000	99.815884
3850.000000	99.825861
3849.000000	99.836347
3848.000000	99.842786
3847.000000	99.845023
3846.000000	99.845303
3845.000000	99.845534
3844.000000	99.844840
3843.000000	99.841170
3842.000000	99.835902
3841.000000	99.832760
3840.000000	99.832677
3839.000000	99.831746
3838.000000	99.826029
3837.000000	99.817483
3836.000000	99.811874
3835.000000	99.812650
3834.000000	99.819230
3833.000000	99.827507
3832.000000	99.831676
3831.000000	99.829395
3830.000000	99.824210
3829.000000	99.822376
3828.000000	99.826102
3827.000000	99.830749
3826.000000	99.830634
3825.000000	99.826149
3824.000000	99.822400
3823.000000	99.821750
3822.000000	99.821734
3821.000000	99.818569
3820.000000	99.814015
3819.000000	99.815892
3818.000000	99.828168
3817.000000	99.844435
3816.000000	99.852842
3815.000000	99.850965
3814.000000	99.847701
3813.000000	99.848340
3812.000000	99.849530
3811.000000	99.848044
3810.000000	99.847283
3809.000000	99.852533
3808.000000	99.860706
3807.000000	99.860614
3806.000000	99.848678
3805.000000	99.835340
3804.000000	99.831241
3803.000000	99.834812
3802.000000	99.835451
3801.000000	99.828239
3800.000000	99.823144
3799.000000	99.828508
3798.000000	99.839761
3797.000000	99.846689
3796.000000	99.845333
3795.000000	99.841889
3794.000000	99.843880
3793.000000	99.851609
3792.000000	99.859275
3791.000000	99.861916
3790.000000	99.859654
3789.000000	99.856497
3788.000000	99.855826
3787.000000	99.857718
3786.000000	99.859092
3785.000000	99.856142
3784.000000	99.847866
3783.000000	99.837506
3782.000000	99.829821
3781.000000	99.827612
3780.000000	99.830068
3779.000000	99.833741
3778.000000	99.836758
3777.000000	99.839709
3776.000000	99.841508
3775.000000	99.838572
3774.000000	99.830666
3773.000000	99.823859
3772.000000	99.825000
3771.000000	99.834333
3770.000000	99.845654
3769.000000	99.853404
3768.000000	99.856682
3767.000000	99.855847
3766.000000	99.849448
3765.000000	99.837923
3764.000000	99.827131
3763.000000	99.824048
3762.000000	99.829933
3761.000000	99.840082
3760.000000	99.848488
3759.000000	99.850535
3758.000000	99.845113
3757.000000	99.835736
3756.000000	99.827473
3755.000000	99.822313
3754.000000	99.819145
3753.000000	99.817853
3752.000000	99.822336
3751.000000	99.833587
3750.000000	99.842572
3749.000000	99.842141
3748.000000	99.836621
3747.000000	99.834209
3746.000000	99.835846
3745.000000	99.831965
3744.000000	99.817834
3743.000000	99.807953
3742.000000	99.814723
3741.000000	99.833122
3740.000000	99.852137
3739.000000	99.866479
3738.000000	99.876581
3737.000000	99.883533
3736.000000	99.887262
3735.000000	99.889277
3734.000000	99.893326
3733.000000	99.898459
3732.000000	99.897993
3731.000000	99.889394
3730.000000	99.878181
3729.000000	99.871052
3728.000000	99.869198
3727.000000	99.869561
3726.000000	99.870451
3725.000000	99.873506
3724.000000	99.878970
3723.000000	99.884002
3722.000000	99.886217
3721.000000	99.885711
3720.000000	99.884210
3719.000000	99.881886
3718.000000	99.876770
3717.000000	99.867528
3716.000000	99.855543
3715.000000	99.843051
3714.000000	99.830415
3713.000000	99.818170
3712.000000	99.810163
3711.000000	99.810794
3710.000000	99.820430
3709.000000	99.836263
3708.000000	99.853303
3707.000000	99.866135
3706.000000	99.872629
3705.000000	99.874561
3704.000000	99.875986
3703.000000	99.880101
3702.000000	99.886643
3701.000000	99.891870
3700.000000	99.892845
3699.000000	99.889741
3698.000000	99.883278
3697.000000	99.873405
3696.000000	99.861025
3695.000000	99.848191
3694.000000	99.836039
3693.000000	99.825712
3692.000000	99.820880
3691.000000	99.826439
3690.000000	99.840378
3689.000000	99.849938
3688.000000	99.846159
3687.000000	99.835957
3686.000000	99.830199
3685.000000	99.831060
3684.000000	99.834339
3683.000000	99.835937
3682.000000	99.834951
3681.000000	99.830042
3680.000000	99.817903
3679.000000	99.799544
3678.000000	99.784424
3677.000000	99.782573
3676.000000	99.791806
3675.000000	99.798094
3674.000000	99.798163
3673.000000	99.801531
3672.000000	99.810572
3671.000000	99.815488
3670.000000	99.808581
3669.000000	99.797881
3668.000000	99.796961
3667.000000	99.806234
3666.000000	99.816646
3665.000000	99.821441
3664.000000	99.820532
3663.000000	99.817125
3662.000000	99.813621
3661.000000	99.810454
3660.000000	99.807607
3659.000000	99.805958
3658.000000	99.806271
3657.000000	99.806416
3656.000000	99.801450
3655.000000	99.789591
3654.000000	99.774816
3653.000000	99.762178
3652.000000	99.755251
3651.000000	99.758206
3650.000000	99.772334
3649.000000	99.785478
3648.000000	99.783683
3647.000000	99.771911
3646.000000	99.763782
3645.000000	99.765564
3644.000000	99.774677
3643.000000	99.783655
3642.000000	99.786224
3641.000000	99.781795
3640.000000	99.773766
3639.000000	99.764754
3638.000000	99.756303
3637.000000	99.750900
3636.000000	99.750477
3635.000000	99.753057
3634.000000	99.754520
3633.000000	99.754073
3632.000000	99.754782
3631.000000	99.758487
3630.000000	99.761810
3629.000000	99.758168
3628.000000	99.747660
3627.000000	99.740246
3626.000000	99.740563
3625.000000	99.743884
3624.000000	99.744059
3623.000000	99.739742
3622.000000	99.733783
3621.000000	99.728480
3620.000000	99.721712
3619.000000	99.709021
3618.000000	99.691424
3617.000000	99.677165
3616.000000	99.671814
3615.000000	99.672233
3614.000000	99.671098
3613.000000	99.665357
3612.000000	99.659626
3611.000000	99.659385
3610.000000	99.663394
3609.000000	99.665782
3608.000000	99.664251
3607.000000	99.663082
3606.000000	99.667495
3605.000000	99.677036
3604.000000	99.686013
3603.000000	99.688730
3602.000000	99.683305
3601.000000	99.671936
3600.000000	99.659223
3599.000000	99.649088
3598.000000	99.642077
3597.000000	99.636253
3596.000000	99.628860
3595.000000	99.618127
3594.000000	99.605249
3593.000000	99.593633
3592.000000	99.585203
3591.000000	99.579413
3590.000000	99.575293
3589.000000	99.572711
3588.000000	99.570228
3587.000000	99.564345
3586.000000	99.556219
3585.000000	99.550527
3584.000000	99.548179
3583.000000	99.546557
3582.000000	99.543877
3581.000000	99.540053
3580.000000	99.535160
3579.000000	99.529243
3578.000000	99.523786
3577.000000	99.521542
3576.000000	99.523209
3575.000000	99.525626
3574.000000	99.524263
3573.000000	99.517028
3572.000000	99.504164
3571.000000	99.487134
3570.000000	99.468932
3569.000000	99.454689
3568.000000	99.448595
3567.000000	99.449454
3566.000000	99.453783
3565.000000	99.461769
3564.000000	99.472212
3563.000000	99.479845
3562.000000	99.480483
3561.000000	99.474998
3560.000000	99.467434
3559.000000	99.460639
3558.000000	99.454264
3557.000000	99.446700
3556.000000	99.437688
3555.000000	99.429034
3554.000000	99.423028
3553.000000	99.419994
3552.000000	99.417400
3551.000000	99.412656
3550.000000	99.406289
3549.000000	99.400999
3548.000000	99.398349
3547.000000	99.396865
3546.000000	99.393522
3545.000000	99.387502
3544.000000	99.381229
3543.000000	99.377089
3542.000000	99.375112
3541.000000	99.373127
3540.000000	99.368191
3539.000000	99.358632
3538.000000	99.345495
3537.000000	99.332030
3536.000000	99.321110
3535.000000	99.313729
3534.000000	99.309363
3533.000000	99.306470
3532.000000	99.302901
3531.000000	99.297445
3530.000000	99.291364
3529.000000	99.287089
3528.000000	99.285019
3527.000000	99.283308
3526.000000	99.280760
3525.000000	99.277442
3524.000000	99.272695
3523.000000	99.265664
3522.000000	99.258308
3521.000000	99.254587
3520.000000	99.255441
3519.000000	99.257080
3518.000000	99.255341
3517.000000	99.250092
3516.000000	99.243855
3515.000000	99.237730
3514.000000	99.231129
3513.000000	99.224320
3512.000000	99.219027
3511.000000	99.216666
3510.000000	99.216799
3509.000000	99.217243
3508.000000	99.215485
3507.000000	99.210797
3506.000000	99.205251
3505.000000	99.202196
3504.000000	99.202650
3503.000000	99.204003
3502.000000	99.203366
3501.000000	99.200237
3500.000000	99.194617
3499.000000	99.185361
3498.000000	99.172527
3497.000000	99.159660
3496.000000	99.151974
3495.000000	99.152163
3494.000000	99.158699
3493.000000	99.167399
3492.000000	99.173833
3491.000000	99.175574
3490.000000	99.173324
3489.000000	99.168929
3488.000000	99.162116
3487.000000	99.151140
3486.000000	99.137218
3485.000000	99.125791
3484.000000	99.121601
3483.000000	99.123739
3482.000000	99.126848
3481.000000	99.126699
3480.000000	99.123071
3479.000000	99.117906
3478.000000	99.112657
3477.000000	99.107622
3476.000000	99.102614
3475.000000	99.098032
3474.000000	99.095367
3473.000000	99.095687
3472.000000	99.097297
3471.000000	99.096413
3470.000000	99.091299
3469.000000	99.084466
3468.000000	99.079928
3467.000000	99.079331
3466.000000	99.081208
3465.000000	99.082483
3464.000000	99.079568
3463.000000	99.069947
3462.000000	99.054862
3461.000000	99.039495
3460.000000	99.028674
3459.000000	99.022931
3458.000000	99.019751
3457.000000	99.017343
3456.000000	99.015463
3455.000000	99.013975
3454.000000	99.012561
3453.000000	99.011410
3452.000000	99.010685
3451.000000	99.009426
3450.000000	99.006363
3449.000000	99.001674
3448.000000	98.997087
3447.000000	98.994383
3446.000000	98.994223
3445.000000	98.995520
3444.000000	98.995337
3443.000000	98.990532
3442.000000	98.980806
3441.000000	98.969563
3440.000000	98.960625
3439.000000	98.954937
3438.000000	98.951321
3437.000000	98.949095
3436.000000	98.948194
3435.000000	98.947712
3434.000000	98.945933
3433.000000	98.941967
3432.000000	98.936830
3431.000000	98.932969
3430.000000	98.933034
3429.000000	98.937815
3428.000000	98.944355
3427.000000	98.947077
3426.000000	98.942020
3425.000000	98.929963
3424.000000	98.915053
3423.000000	98.901265
3422.000000	98.890709
3421.000000	98.883803
3420.000000	98.879487
3419.000000	98.875935
3418.000000	98.872390
3417.000000	98.870057
3416.000000	98.870527
3415.000000	98.873742
3414.000000	98.877898
3413.000000	98.880656
3412.000000	98.879933
3411.000000	98.874695
3410.000000	98.866071
3409.000000	98.857047
3408.000000	98.850077
3407.000000	98.845393
3406.000000	98.841937
3405.000000	98.838892
3404.000000	98.835441
3403.000000	98.830293
3402.000000	98.822891
3401.000000	98.814457
3400.000000	98.806811
3399.000000	98.800529
3398.000000	98.794989
3397.000000	98.789564
3396.000000	98.783871
3395.000000	98.777490
3394.000000	98.770548
3393.000000	98.764273
3392.000000	98.760138
3391.000000	98.758524
3390.000000	98.758404
3389.000000	98.757961
3388.000000	98.755434
3387.000000	98.750210
3386.000000	98.743581
3385.000000	98.737757
3384.000000	98.733794
3383.000000	98.731194
3382.000000	98.729309
3381.000000	98.727619
3380.000000	98.724431
3379.000000	98.717135
3378.000000	98.705029
3377.000000	98.690785
3376.000000	98.678187
3375.000000	98.669111
3374.000000	98.663151
3373.000000	98.658931
3372.000000	98.654774
3371.000000	98.649038
3370.000000	98.640951
3369.000000	98.630750
3368.000000	98.618725
3367.000000	98.605328
3366.000000	98.592764
3365.000000	98.584749
3364.000000	98.582914
3363.000000	98.584077
3362.000000	98.582263
3361.000000	98.573369
3360.000000	98.557660
3359.000000	98.538832
3358.000000	98.521498
3357.000000	98.508728
3356.000000	98.500531
3355.000000	98.494391
3354.000000	98.487697
3353.000000	98.479525
3352.000000	98.470229
3351.000000	98.460405
3350.000000	98.450745
3349.000000	98.441940
3348.000000	98.434089
3347.000000	98.426763
3346.000000	98.419774
3345.000000	98.413105
3344.000000	98.405801
3343.000000	98.396009
3342.000000	98.382791
3341.000000	98.367051
3340.000000	98.350383
3339.000000	98.333974
3338.000000	98.318854
3337.000000	98.305966
3336.000000	98.295332
3335.000000	98.286027
3334.000000	98.277343
3333.000000	98.269064
3332.000000	98.260409
3331.000000	98.250232
3330.000000	98.238696
3329.000000	98.227385
3328.000000	98.217262
3327.000000	98.207986
3326.000000	98.199715
3325.000000	98.193767
3324.000000	98.190282
3323.000000	98.186682
3322.000000	98.180041
3321.000000	98.170046
3320.000000	98.158558
3319.000000	98.147431
3318.000000	98.137845
3317.000000	98.130595
3316.000000	98.125447
3315.000000	98.120759
3314.000000	98.115202
3313.000000	98.109599
3312.000000	98.105858
3311.000000	98.104478
3310.000000	98.104153
3309.000000	98.103613
3308.000000	98.102808
3307.000000	98.102079
3306.000000	98.100878
3305.000000	98.097671
3304.000000	98.091140
3303.000000	98.081702
3302.000000	98.071815
3301.000000	98.064299
3300.000000	98.060122
3299.000000	98.057984
3298.000000	98.055626
3297.000000	98.050980
3296.000000	98.043073
3295.000000	98.033330
3294.000000	98.025683
3293.000000	98.023556
3292.000000	98.026274
3291.000000	98.029822
3290.000000	98.031300
3289.000000	98.031070
3288.000000	98.030444
3287.000000	98.029440
3286.000000	98.027845
3285.000000	98.026685
3284.000000	98.027333
3283.000000	98.029982
3282.000000	98.033692
3281.000000	98.037124
3280.000000	98.038800
3279.000000	98.038091
3278.000000	98.036542
3277.000000	98.036965
3276.000000	98.040460
3275.000000	98.045413
3274.000000	98.049788
3273.000000	98.052736
3272.000000	98.053583
3271.000000	98.051475
3270.000000	98.047375
3269.000000	98.044510
3268.000000	98.045167
3267.000000	98.048157
3266.000000	98.050872
3265.000000	98.052990
3264.000000	98.056555
3263.000000	98.063013
3262.000000	98.071588
3261.000000	98.080233
3260.000000	98.087102
3259.000000	98.091309
3258.000000	98.093074
3257.000000	98.093325
3256.000000	98.093119
3255.000000	98.093756
3254.000000	98.096868
3253.000000	98.103204
3252.000000	98.111485
3251.000000	98.119759
3250.000000	98.127808
3249.000000	98.136417
3248.000000	98.144176
3247.000000	98.147500
3246.000000	98.145030
3245.000000	98.140456
3244.000000	98.139321
3243.000000	98.143768
3242.000000	98.151384
3241.000000	98.157944
3240.000000	98.160479
3239.000000	98.159031
3238.000000	98.156396
3237.000000	98.155232
3236.000000	98.154930
3235.000000	98.152918
3234.000000	98.149389
3233.000000	98.148358
3232.000000	98.152788
3231.000000	98.160530
3230.000000	98.167092
3229.000000	98.170915
3228.000000	98.173903
3227.000000	98.177919
3226.000000	98.182928
3225.000000	98.188288
3224.000000	98.194097
3223.000000	98.200909
3222.000000	98.208751
3221.000000	98.216196
3220.000000	98.220185
3219.000000	98.218076
3218.000000	98.210874
3217.000000	98.203375
3216.000000	98.200328
3215.000000	98.203127
3214.000000	98.210528
3213.000000	98.220812
3212.000000	98.231760
3211.000000	98.240057
3210.000000	98.243073
3209.000000	98.241236
3208.000000	98.237351
3207.000000	98.233867
3206.000000	98.231875
3205.000000	98.232203
3204.000000	98.235860
3203.000000	98.243229
3202.000000	98.253645
3201.000000	98.265550
3200.000000	98.276362
3199.000000	98.282931
3198.000000	98.283547
3197.000000	98.279714
3196.000000	98.275242
3195.000000	98.273375
3194.000000	98.275002
3193.000000	98.278999
3192.000000	98.283597
3191.000000	98.287871
3190.000000	98.292497
3189.000000	98.298887
3188.000000	98.307384
3187.000000	98.316959
3186.000000	98.326899
3185.000000	98.337764
3184.000000	98.349839
3183.000000	98.361494
3182.000000	98.370044
3181.000000	98.374072
3180.000000	98.374574
3179.000000	98.374388
3178.000000	98.376694
3177.000000	98.382958
3176.000000	98.391644
3175.000000	98.399614
3174.000000	98.405251
3173.000000	98.409402
3172.000000	98.412920
3171.000000	98.414581
3170.000000	98.412752
3169.000000	98.408411
3168.000000	98.405165
3167.000000	98.406272
3166.000000	98.412507
3165.000000	98.422607
3164.000000	98.434846
3163.000000	98.447956
3162.000000	98.461112
3161.000000	98.473417
3160.000000	98.483594
3159.000000	98.490500
3158.000000	98.493863
3157.000000	98.494182
3156.000000	98.492224
3155.000000	98.489508
3154.000000	98.488960
3153.000000	98.493519
3152.000000	98.503337
3151.000000	98.515337
3150.000000	98.526096
3149.000000	98.534520
3148.000000	98.541425
3147.000000	98.547765
3146.000000	98.553955
3145.000000	98.559879
3144.000000	98.564766
3143.000000	98.567816
3142.000000	98.569487
3141.000000	98.571296
3140.000000	98.573834
3139.000000	98.576087
3138.000000	98.577542
3137.000000	98.579906
3136.000000	98.585623
3135.000000	98.595059
3134.000000	98.605755
3133.000000	98.613937
3132.000000	98.616582
3131.000000	98.613204
3130.000000	98.606712
3129.000000	98.601897
3128.000000	98.602076
3127.000000	98.607103
3126.000000	98.614594
3125.000000	98.622081
3124.000000	98.627563
3123.000000	98.629618
3122.000000	98.628408
3121.000000	98.625797
3120.000000	98.623042
3119.000000	98.619133
3118.000000	98.612743
3117.000000	98.605232
3116.000000	98.600085
3115.000000	98.599473
3114.000000	98.602605
3113.000000	98.607264
3112.000000	98.611556
3111.000000	98.613999
3110.000000	98.613374
3109.000000	98.609319
3108.000000	98.602760
3107.000000	98.595414
3106.000000	98.588968
3105.000000	98.584326
3104.000000	98.581178
3103.000000	98.578371
3102.000000	98.575173
3101.000000	98.571985
3100.000000	98.569390
3099.000000	98.566954
3098.000000	98.563761
3097.000000	98.559920
3096.000000	98.556703
3095.000000	98.555034
3094.000000	98.554330
3093.000000	98.552964
3092.000000	98.549499
3091.000000	98.543462
3090.000000	98.535357
3089.000000	98.526303
3088.000000	98.517857
3087.000000	98.511985
3086.000000	98.510410
3085.000000	98.513006
3084.000000	98.516884
3083.000000	98.518239
3082.000000	98.515778
3081.000000	98.511835
3080.000000	98.509513
3079.000000	98.509130
3078.000000	98.508009
3077.000000	98.503492
3076.000000	98.495666
3075.000000	98.487307
3074.000000	98.481619
3073.000000	98.480020
3072.000000	98.481957
3071.000000	98.486301
3070.000000	98.491985
3069.000000	98.496943
3068.000000	98.497856
3067.000000	98.493071
3066.000000	98.485620
3065.000000	98.481439
3064.000000	98.483728
3063.000000	98.490360
3062.000000	98.497281
3061.000000	98.502906
3060.000000	98.508319
3059.000000	98.514735
3058.000000	98.522291
3057.000000	98.530637
3056.000000	98.539253
3055.000000	98.547226
3054.000000	98.553553
3053.000000	98.557747
3052.000000	98.559991
3051.000000	98.561186
3050.000000	98.563101
3049.000000	98.567646
3048.000000	98.575292
3047.000000	98.584618
3046.000000	98.593807
3045.000000	98.602051
3044.000000	98.609346
3043.000000	98.615898
3042.000000	98.622226
3041.000000	98.628902
3040.000000	98.635378
3039.000000	98.639974
3038.000000	98.641900
3037.000000	98.642730
3036.000000	98.644952
3035.000000	98.649446
3034.000000	98.655041
3033.000000	98.660057
3032.000000	98.663424
3031.000000	98.664866
3030.000000	98.665175
3029.000000	98.666353
3028.000000	98.670555
3027.000000	98.678277
3026.000000	98.687592
3025.000000	98.695169
3024.000000	98.698317
3023.000000	98.696835
3022.000000	98.693455
3021.000000	98.692135
3020.000000	98.695062
3019.000000	98.700955
3018.000000	98.706285
3017.000000	98.707961
3016.000000	98.704906
3015.000000	98.697923
3014.000000	98.688959
3013.000000	98.680471
3012.000000	98.674669
3011.000000	98.672501
3010.000000	98.672892
3009.000000	98.672983
3008.000000	98.669948
3007.000000	98.663425
3006.000000	98.656092
3005.000000	98.651147
3004.000000	98.649222
3003.000000	98.648369
3002.000000	98.646850
3001.000000	98.644882
3000.000000	98.643689
2999.000000	98.644085
2998.000000	98.646299
2997.000000	98.649915
2996.000000	98.653068
2995.000000	98.652696
2994.000000	98.646796
2993.000000	98.636319
2992.000000	98.624253
2991.000000	98.612899
2990.000000	98.602280
2989.000000	98.590638
2988.000000	98.576175
2987.000000	98.558781
2986.000000	98.540446
2985.000000	98.523623
2984.000000	98.509031
2983.000000	98.495446
2982.000000	98.481562
2981.000000	98.467136
2980.000000	98.452173
2979.000000	98.436169
2978.000000	98.418909
2977.000000	98.401225
2976.000000	98.383937
2975.000000	98.366358
2974.000000	98.346446
2973.000000	98.322252
2972.000000	98.292987
2971.000000	98.259051
2970.000000	98.221462
2969.000000	98.180958
2968.000000	98.137629
2967.000000	98.091860
2966.000000	98.045496
2965.000000	98.001206
2964.000000	97.960228
2963.000000	97.921547
2962.000000	97.883557
2961.000000	97.845994
2960.000000	97.810021
2959.000000	97.777193
2958.000000	97.748779
2957.000000	97.725483
2956.000000	97.707827
2955.000000	97.697289
2954.000000	97.696431
2953.000000	97.706117
2952.000000	97.722201
2951.000000	97.736773
2950.000000	97.743466
2949.000000	97.740789
2948.000000	97.729977
2947.000000	97.711740
2946.000000	97.686168
2945.000000	97.653799
2944.000000	97.614707
2943.000000	97.567197
2942.000000	97.509456
2941.000000	97.442118
2940.000000	97.367804
2939.000000	97.288305
2938.000000	97.203310
2937.000000	97.111826
2936.000000	97.013576
2935.000000	96.909377
2934.000000	96.801310
2933.000000	96.692486
2932.000000	96.585520
2931.000000	96.480929
2930.000000	96.377780
2929.000000	96.275726
2928.000000	96.176059
2927.000000	96.081472
2926.000000	95.995698
2925.000000	95.922870
2924.000000	95.865641
2923.000000	95.824387
2922.000000	95.799239
2921.000000	95.792522
2920.000000	95.808163
2919.000000	95.848756
2918.000000	95.914911
2917.000000	96.007056
2916.000000	96.125772
2915.000000	96.268900
2914.000000	96.428521
2913.000000	96.591988
2912.000000	96.746636
2911.000000	96.885022
2910.000000	97.006400
2909.000000	97.113561
2908.000000	97.208445
2907.000000	97.290827
2906.000000	97.360785
2905.000000	97.420598
2904.000000	97.473331
2903.000000	97.520707
2902.000000	97.563007
2901.000000	97.601356
2900.000000	97.637928
2899.000000	97.674473
2898.000000	97.711905
2897.000000	97.750860
2896.000000	97.791466
2895.000000	97.832361
2894.000000	97.871382
2893.000000	97.907798
2892.000000	97.942973
2891.000000	97.978318
2890.000000	98.013343
2889.000000	98.046241
2888.000000	98.075629
2887.000000	98.100938
2886.000000	98.121707
2885.000000	98.137496
2884.000000	98.148688
2883.000000	98.156784
2882.000000	98.163515
2881.000000	98.169664
2880.000000	98.174645
2879.000000	98.177086
2878.000000	98.175643
2877.000000	98.169312
2876.000000	98.157511
2875.000000	98.140809
2874.000000	98.121978
2873.000000	98.105379
2872.000000	98.094236
2871.000000	98.088469
2870.000000	98.085508
2869.000000	98.082622
2868.000000	98.077601
2867.000000	98.067798
2866.000000	98.050089
2865.000000	98.022205
2864.000000	97.983092
2863.000000	97.932038
2862.000000	97.868716
2861.000000	97.794516
2860.000000	97.712262
2859.000000	97.623621
2858.000000	97.528042
2857.000000	97.426058
2856.000000	97.323355
2855.000000	97.229905
2854.000000	97.155078
2853.000000	97.103976
2852.000000	97.078699
2851.000000	97.082513
2850.000000	97.121801
2849.000000	97.203449
2848.000000	97.328826
2847.000000	97.488923
2846.000000	97.665167
2845.000000	97.836657
2844.000000	97.988426
2843.000000	98.115262
2842.000000	98.219518
2841.000000	98.306326
2840.000000	98.380590
2839.000000	98.445840
2838.000000	98.503669
2837.000000	98.553560
2836.000000	98.593946
2835.000000	98.624269
2834.000000	98.646406
2833.000000	98.664035
2832.000000	98.680680
2831.000000	98.698270
2830.000000	98.717083
2829.000000	98.736544
2828.000000	98.755745
2827.000000	98.773532
2826.000000	98.788953
2825.000000	98.802164
2824.000000	98.814624
2823.000000	98.827718
2822.000000	98.841092
2821.000000	98.852978
2820.000000	98.862337
2819.000000	98.869991
2818.000000	98.877090
2817.000000	98.883240
2816.000000	98.887431
2815.000000	98.890648
2814.000000	98.896013
2813.000000	98.905292
2812.000000	98.916191
2811.000000	98.924499
2810.000000	98.928689
2809.000000	98.931170
2808.000000	98.934726
2807.000000	98.939185
2806.000000	98.942551
2805.000000	98.944367
2804.000000	98.946538
2803.000000	98.950985
2802.000000	98.957887
2801.000000	98.966395
2800.000000	98.975557
2799.000000	98.983678
2798.000000	98.988013
2797.000000	98.986885
2796.000000	98.982156
2795.000000	98.978194
2794.000000	98.977882
2793.000000	98.980559
2792.000000	98.984212
2791.000000	98.988444
2790.000000	98.994075
2789.000000	99.000567
2788.000000	99.005693
2787.000000	99.008125
2786.000000	99.009073
2785.000000	99.010721
2784.000000	99.013983
2783.000000	99.018539
2782.000000	99.024193
2781.000000	99.030876
2780.000000	99.037667
2779.000000	99.043112
2778.000000	99.046796
2777.000000	99.049717
2776.000000	99.052802
2775.000000	99.055869
2774.000000	99.058455
2773.000000	99.060786
2772.000000	99.063176
2771.000000	99.065117
2770.000000	99.066019
2769.000000	99.066625
2768.000000	99.068596
2767.000000	99.072407
2766.000000	99.076549
2765.000000	99.079518
2764.000000	99.082039
2763.000000	99.086378
2762.000000	99.093386
2761.000000	99.101009
2760.000000	99.106184
2759.000000	99.107771
2758.000000	99.107036
2757.000000	99.105595
2756.000000	99.103944
2755.000000	99.102423
2754.000000	99.102676
2753.000000	99.106816
2752.000000	99.114830
2751.000000	99.123610
2750.000000	99.129250
2749.000000	99.130335
2748.000000	99.128996
2747.000000	99.128898
2746.000000	99.132083
2745.000000	99.137312
2744.000000	99.141336
2743.000000	99.142116
2742.000000	99.140833
2741.000000	99.140349
2740.000000	99.141813
2739.000000	99.143587
2738.000000	99.143728
2737.000000	99.142623
2736.000000	99.142451
2735.000000	99.144640
2734.000000	99.148730
2733.000000	99.153411
2732.000000	99.157762
2731.000000	99.161454
2730.000000	99.164582
2729.000000	99.167563
2728.000000	99.170682
2727.000000	99.173476
2726.000000	99.174945
2725.000000	99.174592
2724.000000	99.173124
2723.000000	99.172077
2722.000000	99.172727
2721.000000	99.175107
2720.000000	99.177833
2719.000000	99.179234
2718.000000	99.179024
2717.000000	99.178696
2716.000000	99.180011
2715.000000	99.183341
2714.000000	99.187695
2713.000000	99.191759
2712.000000	99.194448
2711.000000	99.195101
2710.000000	99.194137
2709.000000	99.193197
2708.000000	99.193737
2707.000000	99.195568
2706.000000	99.197512
2705.000000	99.199217
2704.000000	99.201339
2703.000000	99.204109
2702.000000	99.206794
2701.000000	99.208698
2700.000000	99.209756
2699.000000	99.210004
2698.000000	99.209350
2697.000000	99.208044
2696.000000	99.206598
2695.000000	99.205248
2694.000000	99.204216
2693.000000	99.204211
2692.000000	99.205526
2691.000000	99.206848
2690.000000	99.206493
2689.000000	99.204784
2688.000000	99.203515
2687.000000	99.202839
2686.000000	99.200755
2685.000000	99.196506
2684.000000	99.192481
2683.000000	99.191327
2682.000000	99.192818
2681.000000	99.195241
2680.000000	99.198309
2679.000000	99.202588
2678.000000	99.206943
2677.000000	99.208957
2676.000000	99.207912
2675.000000	99.205692
2674.000000	99.204687
2673.000000	99.206040
2672.000000	99.209589
2671.000000	99.213856
2670.000000	99.216155
2669.000000	99.214533
2668.000000	99.210190
2667.000000	99.206702
2666.000000	99.206355
2665.000000	99.208220
2664.000000	99.210016
2663.000000	99.210530
2662.000000	99.209680
2661.000000	99.207532
2660.000000	99.204283
2659.000000	99.200601
2658.000000	99.197153
2657.000000	99.194202
2656.000000	99.192076
2655.000000	99.191499
2654.000000	99.192890
2653.000000	99.195748
2652.000000	99.199147
2651.000000	99.202532
2650.000000	99.205888
2649.000000	99.209657
2648.000000	99.214696
2647.000000	99.221511
2646.000000	99.228990
2645.000000	99.234526
2644.000000	99.236104
2643.000000	99.234061
2642.000000	99.230546
2641.000000	99.227775
2640.000000	99.227117
2639.000000	99.229075
2638.000000	99.233222
2637.000000	99.238299
2636.000000	99.243143
2635.000000	99.247636
2634.000000	99.252399
2633.000000	99.257555
2632.000000	99.262155
2631.000000	99.264961
2630.000000	99.265725
2629.000000	99.265532
2628.000000	99.265716
2627.000000	99.266432
2626.000000	99.266656
2625.000000	99.265845
2624.000000	99.265119
2623.000000	99.266300
2622.000000	99.270084
2621.000000	99.275779
2620.000000	99.282388
2619.000000	99.289080
2618.000000	99.294868
2617.000000	99.299049
2616.000000	99.302188
2615.000000	99.305668
2614.000000	99.309941
2613.000000	99.314102
2612.000000	99.317623
2611.000000	99.321679
2610.000000	99.327911
2609.000000	99.336162
2608.000000	99.343797
2607.000000	99.347359
2606.000000	99.345183
2605.000000	99.338870
2604.000000	99.332219
2603.000000	99.328251
2602.000000	99.327176
2601.000000	99.327420
2600.000000	99.328042
2599.000000	99.329575
2598.000000	99.333060
2597.000000	99.338913
2596.000000	99.346136
2595.000000	99.351917
2594.000000	99.353008
2593.000000	99.349081
2592.000000	99.344272
2591.000000	99.343744
2590.000000	99.348849
2589.000000	99.356807
2588.000000	99.364345
2587.000000	99.369650
2586.000000	99.371435
2585.000000	99.369289
2584.000000	99.365857
2583.000000	99.365824
2582.000000	99.370623
2581.000000	99.375746
2580.000000	99.375399
2579.000000	99.369368
2578.000000	99.363673
2577.000000	99.364628
2576.000000	99.373345
2575.000000	99.385766
2574.000000	99.396823
2573.000000	99.403912
2572.000000	99.406941
2571.000000	99.406339
2570.000000	99.402314
2569.000000	99.396290
2568.000000	99.391516
2567.000000	99.390592
2566.000000	99.392873
2565.000000	99.395768
2564.000000	99.398314
2563.000000	99.401722
2562.000000	99.406246
2561.000000	99.409426
2560.000000	99.408406
2559.000000	99.403017
2558.000000	99.396008
2557.000000	99.391409
2556.000000	99.392960
2555.000000	99.402179
2554.000000	99.415985
2553.000000	99.426852
2552.000000	99.427644
2551.000000	99.417935
2550.000000	99.405460
2549.000000	99.400066
2548.000000	99.405151
2547.000000	99.414864
2546.000000	99.420279
2545.000000	99.418257
2544.000000	99.413358
2543.000000	99.411524
2542.000000	99.414013
2541.000000	99.418163
2540.000000	99.421705
2539.000000	99.424124
2538.000000	99.425318
2537.000000	99.425554
2536.000000	99.426251
2535.000000	99.428453
2534.000000	99.430620
2533.000000	99.430090
2532.000000	99.426722
2531.000000	99.423140
2530.000000	99.421266
2529.000000	99.420807
2528.000000	99.421357
2527.000000	99.423464
2526.000000	99.426536
2525.000000	99.427764
2524.000000	99.425069
2523.000000	99.420257
2522.000000	99.417914
2521.000000	99.421180
2520.000000	99.429005
2519.000000	99.437081
2518.000000	99.441155
2517.000000	99.440253
2516.000000	99.437341
2515.000000	99.436746
2514.000000	99.440691
2513.000000	99.448114
2512.000000	99.456014
2511.000000	99.461258
2510.000000	99.461976
2509.000000	99.458836
2508.000000	99.455080
2507.000000	99.453981
2506.000000	99.455818
2505.000000	99.458256
2504.000000	99.459816
2503.000000	99.461925
2502.000000	99.466839
2501.000000	99.474096
2500.000000	99.479946
2499.000000	99.480555
2498.000000	99.475862
2497.000000	99.469841
2496.000000	99.466450
2495.000000	99.465760
2494.000000	99.464800
2493.000000	99.461842
2492.000000	99.458056
2491.000000	99.454786
2490.000000	99.451601
2489.000000	99.448362
2488.000000	99.447292
2487.000000	99.450867
2486.000000	99.458743
2485.000000	99.468506
2484.000000	99.478600
2483.000000	99.488542
2482.000000	99.496818
2481.000000	99.500807
2480.000000	99.499277
2479.000000	99.493882
2478.000000	99.487832
2477.000000	99.483460
2476.000000	99.480647
2475.000000	99.477442
2474.000000	99.473023
2473.000000	99.469901
2472.000000	99.471398
2471.000000	99.476515
2470.000000	99.479739
2469.000000	99.477384
2468.000000	99.472034
2467.000000	99.469097
2466.000000	99.471086
2465.000000	99.477118
2464.000000	99.485394
2463.000000	99.492947
2462.000000	99.494893
2461.000000	99.488011
2460.000000	99.475155
2459.000000	99.463078
2458.000000	99.455601
2457.000000	99.451264
2456.000000	99.447663
2455.000000	99.445612
2454.000000	99.448077
2453.000000	99.456511
2452.000000	99.468914
2451.000000	99.481009
2450.000000	99.489412
2449.000000	99.493898
2448.000000	99.496215
2447.000000	99.497079
2446.000000	99.495864
2445.000000	99.493155
2444.000000	99.491056
2443.000000	99.490308
2442.000000	99.489902
2441.000000	99.490386
2440.000000	99.493991
2439.000000	99.499769
2438.000000	99.502518
2437.000000	99.499486
2436.000000	99.494804
2435.000000	99.493835
2434.000000	99.496274
2433.000000	99.498655
2432.000000	99.500794
2431.000000	99.505095
2430.000000	99.511275
2429.000000	99.516310
2428.000000	99.518729
2427.000000	99.519317
2426.000000	99.518663
2425.000000	99.517318
2424.000000	99.516990
2423.000000	99.518181
2422.000000	99.518226
2421.000000	99.515192
2420.000000	99.511878
2419.000000	99.512126
2418.000000	99.514868
2417.000000	99.515955
2416.000000	99.514346
2415.000000	99.512161
2414.000000	99.510073
2413.000000	99.507367
2412.000000	99.505712
2411.000000	99.508055
2410.000000	99.513786
2409.000000	99.518984
2408.000000	99.521416
2407.000000	99.521911
2406.000000	99.521555
2405.000000	99.521385
2404.000000	99.523942
2403.000000	99.530709
2402.000000	99.538355
2401.000000	99.541745
2400.000000	99.540590
2399.000000	99.539203
2398.000000	99.539798
2397.000000	99.540188
2396.000000	99.538481
2395.000000	99.536038
2394.000000	99.534801
2393.000000	99.534746
2392.000000	99.534446
2391.000000	99.531933
2390.000000	99.524888
2389.000000	99.512708
2388.000000	99.498585
2387.000000	99.486612
2386.000000	99.478410
2385.000000	99.474355
2384.000000	99.476698
2383.000000	99.488270
2382.000000	99.507530
2381.000000	99.529446
2380.000000	99.549612
2379.000000	99.564177
2378.000000	99.567722
2377.000000	99.555971
2376.000000	99.531813
2375.000000	99.504674
2374.000000	99.484419
2373.000000	99.477331
2372.000000	99.484965
2371.000000	99.501244
2370.000000	99.514340
2369.000000	99.517551
2368.000000	99.513726
2367.000000	99.507840
2366.000000	99.500540
2365.000000	99.492407
2364.000000	99.487092
2363.000000	99.483660
2362.000000	99.474932
2361.000000	99.457404
2360.000000	99.437183
2359.000000	99.422982
2358.000000	99.419872
2357.000000	99.429894
2356.000000	99.445026
2355.000000	99.453497
2354.000000	99.461540
2353.000000	99.485290
2352.000000	99.514763
2351.000000	99.519019
2350.000000	99.490712
2349.000000	99.452408
2348.000000	99.433061
2347.000000	99.445494
2346.000000	99.468246
2345.000000	99.459884
2344.000000	99.411550
2343.000000	99.360905
2342.000000	99.344225
2341.000000	99.364736
2340.000000	99.397860
2339.000000	99.417663
2338.000000	99.418419
2337.000000	99.410455
2336.000000	99.405259
2335.000000	99.409272
2334.000000	99.426167
2333.000000	99.453811
2332.000000	99.478180
2331.000000	99.482410
2330.000000	99.462539
2329.000000	99.426744
2328.000000	99.385937
2327.000000	99.347919
2326.000000	99.319516
2325.000000	99.305885
2324.000000	99.307552
2323.000000	99.321832
2322.000000	99.341037
2321.000000	99.353389
2320.000000	99.349374
2319.000000	99.329968
2318.000000	99.306662
2317.000000	99.293252
2316.000000	99.299297
2315.000000	99.325159
2314.000000	99.359644
2313.000000	99.385580
2312.000000	99.393862
2311.000000	99.391406
2310.000000	99.391977
2309.000000	99.400649
2308.000000	99.411137
2307.000000	99.415263
2306.000000	99.410630
2305.000000	99.401384
2304.000000	99.394528
2303.000000	99.394839
2302.000000	99.400211
2301.000000	99.403730
2300.000000	99.402425
2299.000000	99.400539
2298.000000	99.402815
2297.000000	99.408670
2296.000000	99.415165
2295.000000	99.421005
2294.000000	99.424080
2293.000000	99.419523
2292.000000	99.405444
2291.000000	99.388087
2290.000000	99.376731
2289.000000	99.375177
2288.000000	99.380683
2287.000000	99.388240
2286.000000	99.392455
2285.000000	99.389492
2284.000000	99.381987
2283.000000	99.378875
2282.000000	99.386422
2281.000000	99.402946
2280.000000	99.425451
2279.000000	99.455204
2278.000000	99.490410
2277.000000	99.519102
2276.000000	99.527860
2275.000000	99.515848
2274.000000	99.494770
2273.000000	99.476814
2272.000000	99.467040
2271.000000	99.463621
2270.000000	99.460230
2269.000000	99.451274
2268.000000	99.439350
2267.000000	99.434536
2266.000000	99.442497
2265.000000	99.458018
2264.000000	99.474532
2263.000000	99.493192
2262.000000	99.515839
2261.000000	99.535330
2260.000000	99.541585
2259.000000	99.534219
2258.000000	99.521629
2257.000000	99.510649
2256.000000	99.503287
2255.000000	99.499957
2254.000000	99.499438
2253.000000	99.498539
2252.000000	99.498040
2251.000000	99.505431
2250.000000	99.525570
2249.000000	99.551736
2248.000000	99.571540
2247.000000	99.579219
2246.000000	99.577025
2245.000000	99.567963
2244.000000	99.553277
2243.000000	99.534888
2242.000000	99.515967
2241.000000	99.500685
2240.000000	99.494634
2239.000000	99.500934
2238.000000	99.514322
2237.000000	99.524919
2236.000000	99.529564
2235.000000	99.532481
2234.000000	99.533757
2233.000000	99.527593
2232.000000	99.514876
2231.000000	99.505206
2230.000000	99.500782
2229.000000	99.491414
2228.000000	99.474456
2227.000000	99.467353
2226.000000	99.488064
2225.000000	99.530709
2224.000000	99.571266
2223.000000	99.590169
2222.000000	99.580037
2221.000000	99.542366
2220.000000	99.491931
2219.000000	99.457106
2218.000000	99.458556
2217.000000	99.486168
2216.000000	99.506592
2215.000000	99.495139
2214.000000	99.455397
2213.000000	99.412305
2212.000000	99.393961
2211.000000	99.414439
2210.000000	99.463755
2209.000000	99.513252
2208.000000	99.536457
2207.000000	99.526301
2206.000000	99.493513
2205.000000	99.457301
2204.000000	99.439462
2203.000000	99.454062
2202.000000	99.492560
2201.000000	99.525947
2200.000000	99.531738
2199.000000	99.515051
2198.000000	99.496673
2197.000000	99.487811
2196.000000	99.484063
2195.000000	99.476955
2194.000000	99.462244
2193.000000	99.441445
2192.000000	99.422713
2191.000000	99.416156
2190.000000	99.423387
2189.000000	99.436547
2188.000000	99.450768
2187.000000	99.470360
2186.000000	99.498231
2185.000000	99.527685
2184.000000	99.551316
2183.000000	99.571164
2182.000000	99.593435
2181.000000	99.618371
2180.000000	99.639294
2179.000000	99.645955
2178.000000	99.629544
2177.000000	99.594882
2176.000000	99.566025
2175.000000	99.565616
2174.000000	99.588717
2173.000000	99.610860
2172.000000	99.619199
2171.000000	99.618478
2170.000000	99.610884
2169.000000	99.593059
2168.000000	99.573884
2167.000000	99.570437
2166.000000	99.579652
2165.000000	99.575934
2164.000000	99.546493
2163.000000	99.509501
2162.000000	99.489829
2161.000000	99.501519
2160.000000	99.558753
2159.000000	99.668427
2158.000000	99.796922
2157.000000	99.888328
2156.000000	99.930843
2155.000000	99.957059
2154.000000	99.978361
2153.000000	99.967711
2152.000000	99.910631
2151.000000	99.835286
2150.000000	99.780574
2149.000000	99.759627
2148.000000	99.764166
2147.000000	99.781052
2146.000000	99.792182
2145.000000	99.778960
2144.000000	99.742839
2143.000000	99.707159
2142.000000	99.688006
2141.000000	99.676171
2140.000000	99.655395
2139.000000	99.626161
2138.000000	99.603139
2137.000000	99.599119
2136.000000	99.617288
2135.000000	99.650085
2134.000000	99.681767
2133.000000	99.700704
2132.000000	99.711134
2131.000000	99.723770
2130.000000	99.735778
2129.000000	99.732010
2128.000000	99.705875
2127.000000	99.667069
2126.000000	99.627788
2125.000000	99.593774
2124.000000	99.571217
2123.000000	99.568829
2122.000000	99.586304
2121.000000	99.609148
2120.000000	99.621573
2119.000000	99.619070
2118.000000	99.605040
2117.000000	99.583267
2116.000000	99.558146
2115.000000	99.535366
2114.000000	99.517694
2113.000000	99.504768
2112.000000	99.499075
2111.000000	99.505519
2110.000000	99.522489
2109.000000	99.540020
2108.000000	99.549757
2107.000000	99.551367
2106.000000	99.547991
2105.000000	99.542750
2104.000000	99.540610
2103.000000	99.544773
2102.000000	99.549641
2101.000000	99.546191
2100.000000	99.535894
2099.000000	99.530561
2098.000000	99.537035
2097.000000	99.551074
2096.000000	99.567368
2095.000000	99.584252
2094.000000	99.596652
2093.000000	99.596992
2092.000000	99.587800
2091.000000	99.583104
2090.000000	99.592888
2089.000000	99.612917
2088.000000	99.630811
2087.000000	99.634740
2086.000000	99.617253
2085.000000	99.582602
2084.000000	99.550801
2083.000000	99.540929
2082.000000	99.548097
2081.000000	99.549315
2080.000000	99.534084
2079.000000	99.515796
2078.000000	99.509699
2077.000000	99.514937
2076.000000	99.524823
2075.000000	99.540021
2074.000000	99.562890
2073.000000	99.588986
2072.000000	99.611559
2071.000000	99.626195
2070.000000	99.627624
2069.000000	99.614376
2068.000000	99.599335
2067.000000	99.600407
2066.000000	99.616483
2065.000000	99.626887
2064.000000	99.619455
2063.000000	99.602436
2062.000000	99.583751
2061.000000	99.559956
2060.000000	99.532610
2059.000000	99.515013
2058.000000	99.513184
2057.000000	99.518141
2056.000000	99.526230
2055.000000	99.548579
2054.000000	99.587744
2053.000000	99.621627
2052.000000	99.626525
2051.000000	99.603486
2050.000000	99.570407
2049.000000	99.541629
2048.000000	99.526398
2047.000000	99.533566
2046.000000	99.562378
2045.000000	99.597798
2044.000000	99.626223
2043.000000	99.645702
2042.000000	99.655528
2041.000000	99.654076
2040.000000	99.653693
2039.000000	99.674577
2038.000000	99.714954
2037.000000	99.748312
2036.000000	99.757879
2035.000000	99.752360
2034.000000	99.739825
2033.000000	99.715760
2032.000000	99.688519
2031.000000	99.682881
2030.000000	99.704639
2029.000000	99.731206
2028.000000	99.748906
2027.000000	99.770905
2026.000000	99.806912
2025.000000	99.843861
2024.000000	99.866966
2023.000000	99.872175
2022.000000	99.851416
2021.000000	99.797949
2020.000000	99.730876
2019.000000	99.681442
2018.000000	99.653159
2017.000000	99.629050
2016.000000	99.617646
2015.000000	99.646920
2014.000000	99.710288
2013.000000	99.764265
2012.000000	99.785790
2011.000000	99.793027
2010.000000	99.801043
2009.000000	99.799809
2008.000000	99.789825
2007.000000	99.794184
2006.000000	99.816535
2005.000000	99.828889
2004.000000	99.817489
2003.000000	99.801512
2002.000000	99.794323
2001.000000	99.784398
2000.000000	99.763540
1999.000000	99.740984
1998.000000	99.721943
1997.000000	99.702138
1996.000000	99.690953
1995.000000	99.707916
1994.000000	99.747053
1993.000000	99.772009
1992.000000	99.762893
1991.000000	99.743379
1990.000000	99.741535
1989.000000	99.755996
1988.000000	99.774669
1987.000000	99.789721
1986.000000	99.783121
1985.000000	99.734126
1984.000000	99.656818
1983.000000	99.596848
1982.000000	99.574564
1981.000000	99.564341
1980.000000	99.545257
1979.000000	99.538403
1978.000000	99.571465
1977.000000	99.635778
1976.000000	99.707853
1975.000000	99.780203
1974.000000	99.840651
1973.000000	99.862170
1972.000000	99.843013
1971.000000	99.818061
1970.000000	99.809008
1969.000000	99.799558
1968.000000	99.777718
1967.000000	99.766470
1966.000000	99.785693
1965.000000	99.817246
1964.000000	99.836623
1963.000000	99.847495
1962.000000	99.863256
1961.000000	99.880831
1960.000000	99.891479
1959.000000	99.898158
1958.000000	99.905658
1957.000000	99.910319
1956.000000	99.909276
1955.000000	99.901845
1954.000000	99.878989
1953.000000	99.831254
1952.000000	99.771094
1951.000000	99.727068
1950.000000	99.711864
1949.000000	99.715811
1948.000000	99.730708
1947.000000	99.756684
1946.000000	99.785104
1945.000000	99.800080
1944.000000	99.800960
1943.000000	99.800437
1942.000000	99.797754
1941.000000	99.783014
1940.000000	99.766235
1939.000000	99.768540
1938.000000	99.787604
1937.000000	99.797455
1936.000000	99.786536
1935.000000	99.772876
1934.000000	99.772241
1933.000000	99.776355
1932.000000	99.775426
1931.000000	99.777314
1930.000000	99.788117
1929.000000	99.798224
1928.000000	99.798940
1927.000000	99.796351
1926.000000	99.796969
1925.000000	99.795365
1924.000000	99.788039
1923.000000	99.780675
1922.000000	99.773614
1921.000000	99.758272
1920.000000	99.735338
1919.000000	99.722246
1918.000000	99.730438
1917.000000	99.747154
1916.000000	99.757175
1915.000000	99.761971
1914.000000	99.767008
1913.000000	99.770646
1912.000000	99.771448
1911.000000	99.772962
1910.000000	99.773294
1909.000000	99.765028
1908.000000	99.750917
1907.000000	99.744679
1906.000000	99.749746
1905.000000	99.753348
1904.000000	99.748834
1903.000000	99.744134
1902.000000	99.744000
1901.000000	99.742445
1900.000000	99.737866
1899.000000	99.740575
1898.000000	99.756248
1897.000000	99.773966
1896.000000	99.781420
1895.000000	99.779842
1894.000000	99.775925
1893.000000	99.771338
1892.000000	99.767316
1891.000000	99.768701
1890.000000	99.774458
1889.000000	99.775042
1888.000000	99.769779
1887.000000	99.768423
1886.000000	99.772025
1885.000000	99.771056
1884.000000	99.762595
1883.000000	99.755574
1882.000000	99.755092
1881.000000	99.756159
1880.000000	99.756102
1879.000000	99.759662
1878.000000	99.767157
1877.000000	99.768460
1876.000000	99.758446
1875.000000	99.747593
1874.000000	99.747265
1873.000000	99.755674
1872.000000	99.765787
1871.000000	99.777263
1870.000000	99.793190
1869.000000	99.809165
1868.000000	99.819811
1867.000000	99.828084
1866.000000	99.831811
1865.000000	99.822718
1864.000000	99.804191
1863.000000	99.790735
1862.000000	99.788840
1861.000000	99.789999
1860.000000	99.786739
1859.000000	99.783213
1858.000000	99.784695
1857.000000	99.789604
1856.000000	99.796435
1855.000000	99.806930
1854.000000	99.816254
1853.000000	99.814552
1852.000000	99.800785
1851.000000	99.785707
1850.000000	99.781932
1849.000000	99.793241
1848.000000	99.815714
1847.000000	99.840459
1846.000000	99.854297
1845.000000	99.844975
1844.000000	99.815185
1843.000000	99.786632
1842.000000	99.774551
1841.000000	99.775413
1840.000000	99.784672
1839.000000	99.803521
1838.000000	99.825537
1837.000000	99.835865
1836.000000	99.831773
1835.000000	99.826118
1834.000000	99.826384
1833.000000	99.827424
1832.000000	99.824576
1831.000000	99.824897
1830.000000	99.833802
1829.000000	99.839780
1828.000000	99.833954
1827.000000	99.821583
1826.000000	99.811639
1825.000000	99.807803
1824.000000	99.808762
1823.000000	99.813959
1822.000000	99.819870
1821.000000	99.821882
1820.000000	99.822958
1819.000000	99.831878
1818.000000	99.848432
1817.000000	99.859359
1816.000000	99.858342
1815.000000	99.852825
1814.000000	99.849084
1813.000000	99.843992
1812.000000	99.835167
1811.000000	99.829744
1810.000000	99.830256
1809.000000	99.827918
1808.000000	99.819876
1807.000000	99.814135
1806.000000	99.813146
1805.000000	99.808010
1804.000000	99.796074
1803.000000	99.788487
1802.000000	99.795295
1801.000000	99.808811
1800.000000	99.815241
1799.000000	99.817531
1798.000000	99.824694
1797.000000	99.836113
1796.000000	99.846892
1795.000000	99.854125
1794.000000	99.856901
1793.000000	99.853395
1792.000000	99.841983
1791.000000	99.830102
1790.000000	99.825350
1789.000000	99.823359
1788.000000	99.819067
1787.000000	99.816009
1786.000000	99.818621
1785.000000	99.824547
1784.000000	99.831622
1783.000000	99.839585
1782.000000	99.846714
1781.000000	99.850666
1780.000000	99.851796
1779.000000	99.856841
1778.000000	99.868183
1777.000000	99.881971
1776.000000	99.895227
1775.000000	99.905689
1774.000000	99.911755
1773.000000	99.910890
1772.000000	99.896876
1771.000000	99.874361
1770.000000	99.854824
1769.000000	99.837335
1768.000000	99.822834
1767.000000	99.819770
1766.000000	99.827785
1765.000000	99.833353
1764.000000	99.826191
1763.000000	99.811237
1762.000000	99.797642
1761.000000	99.784260
1760.000000	99.767312
1759.000000	99.747519
1758.000000	99.724015
1757.000000	99.698582
1756.000000	99.675304
1755.000000	99.657069
1754.000000	99.638806
1753.000000	99.613763
1752.000000	99.588668
1751.000000	99.578170
1750.000000	99.577392
1749.000000	99.560023
1748.000000	99.515679
1747.000000	99.460584
1746.000000	99.414265
1745.000000	99.380534
1744.000000	99.355613
1743.000000	99.339776
1742.000000	99.329635
1741.000000	99.315178
1740.000000	99.299354
1739.000000	99.301570
1738.000000	99.324263
1737.000000	99.346626
1736.000000	99.356319
1735.000000	99.384016
1734.000000	99.455577
1733.000000	99.527755
1732.000000	99.565956
1731.000000	99.582536
1730.000000	99.590023
1729.000000	99.593053
1728.000000	99.593307
1727.000000	99.595036
1726.000000	99.602716
1725.000000	99.614948
1724.000000	99.626864
1723.000000	99.639779
1722.000000	99.652757
1721.000000	99.657670
1720.000000	99.648716
1719.000000	99.638793
1718.000000	99.640614
1717.000000	99.625538
1716.000000	99.571402
1715.000000	99.500147
1714.000000	99.430961
1713.000000	99.368495
1712.000000	99.316973
1711.000000	99.281304
1710.000000	99.262756
1709.000000	99.256417
1708.000000	99.252884
1707.000000	99.247800
1706.000000	99.243831
1705.000000	99.239346
1704.000000	99.233462
1703.000000	99.219498
1702.000000	99.183326
1701.000000	99.129074
1700.000000	99.087073
1699.000000	99.076281
1698.000000	99.067647
1697.000000	99.012501
1696.000000	98.912075
1695.000000	98.823936
1694.000000	98.776760
1693.000000	98.742885
1692.000000	98.701481
1691.000000	98.661617
1690.000000	98.633900
1689.000000	98.614202
1688.000000	98.592922
1687.000000	98.564833
1686.000000	98.524925
1685.000000	98.469797
1684.000000	98.398704
1683.000000	98.329256
1682.000000	98.275969
1681.000000	98.217255
1680.000000	98.145073
1679.000000	98.076118
1678.000000	98.012744
1677.000000	97.938928
1676.000000	97.848314
1675.000000	97.764960
1674.000000	97.710400
1673.000000	97.669997
1672.000000	97.615591
1671.000000	97.541844
1670.000000	97.454866
1669.000000	97.358074
1668.000000	97.263429
1667.000000	97.185702
1666.000000	97.121908
1665.000000	97.055536
1664.000000	96.979119
1663.000000	96.901454
1662.000000	96.829938
1661.000000	96.762838
1660.000000	96.696256
1659.000000	96.636596
1658.000000	96.592845
1657.000000	96.563808
1656.000000	96.531047
1655.000000	96.480199
1654.000000	96.422441
1653.000000	96.361657
1652.000000	96.314211
1651.000000	96.301815
1650.000000	96.296229
1649.000000	96.272345
1648.000000	96.234417
1647.000000	96.188586
1646.000000	96.140125
1645.000000	96.093787
1644.000000	96.055264
1643.000000	96.022927
1642.000000	95.995226
1641.000000	95.972215
1640.000000	95.955463
1639.000000	95.946537
1638.000000	95.939001
1637.000000	95.922123
1636.000000	95.888149
1635.000000	95.844768
1634.000000	95.810957
1633.000000	95.783002
1632.000000	95.753507
1631.000000	95.730570
1630.000000	95.722919
1629.000000	95.729642
1628.000000	95.743828
1627.000000	95.761293
1626.000000	95.781411
1625.000000	95.805693
1624.000000	95.842649
1623.000000	95.899338
1622.000000	95.964205
1621.000000	96.021925
1620.000000	96.069327
1619.000000	96.113767
1618.000000	96.170595
1617.000000	96.250010
1616.000000	96.337496
1615.000000	96.412960
1614.000000	96.475272
1613.000000	96.533504
1612.000000	96.601799
1611.000000	96.688770
1610.000000	96.786875
1609.000000	96.881783
1608.000000	96.968139
1607.000000	97.047200
1606.000000	97.118220
1605.000000	97.182925
1604.000000	97.246363
1603.000000	97.311179
1602.000000	97.371915
1601.000000	97.421679
1600.000000	97.462823
1599.000000	97.503679
1598.000000	97.548562
1597.000000	97.594758
1596.000000	97.638238
1595.000000	97.676131
1594.000000	97.704987
1593.000000	97.723852
1592.000000	97.736698
1591.000000	97.747136
1590.000000	97.753189
1589.000000	97.752084
1588.000000	97.745572
1587.000000	97.737163
1586.000000	97.726108
1585.000000	97.711628
1584.000000	97.694705
1583.000000	97.672208
1582.000000	97.641517
1581.000000	97.608571
1580.000000	97.583330
1579.000000	97.566361
1578.000000	97.549880
1577.000000	97.527240
1576.000000	97.498470
1575.000000	97.468669
1574.000000	97.441249
1573.000000	97.411755
1572.000000	97.375520
1571.000000	97.338896
1570.000000	97.305759
1569.000000	97.270325
1568.000000	97.231863
1567.000000	97.193978
1566.000000	97.155008
1565.000000	97.117181
1564.000000	97.088943
1563.000000	97.068234
1562.000000	97.045166
1561.000000	97.004475
1560.000000	96.969360
1559.000000	96.937429
1558.000000	96.862388
1557.000000	96.784461
1556.000000	96.717219
1555.000000	96.637287
1554.000000	96.558311
1553.000000	96.486703
1552.000000	96.421164
1551.000000	96.357346
1550.000000	96.301921
1549.000000	96.256417
1548.000000	96.217364
1547.000000	96.180716
1546.000000	96.151118
1545.000000	96.135532
1544.000000	96.126640
1543.000000	96.113781
1542.000000	96.098450
1541.000000	96.084593
1540.000000	96.067644
1539.000000	96.051673
1538.000000	96.050349
1537.000000	96.052677
1536.000000	96.046285
1535.000000	96.043417
1534.000000	96.069479
1533.000000	96.120832
1532.000000	96.165034
1531.000000	96.196624
1530.000000	96.223735
1529.000000	96.248704
1528.000000	96.275681
1527.000000	96.313498
1526.000000	96.365885
1525.000000	96.420343
1524.000000	96.462478
1523.000000	96.499546
1522.000000	96.552093
1521.000000	96.608167
1520.000000	96.641602
1519.000000	96.660021
1518.000000	96.680873
1517.000000	96.705660
1516.000000	96.723885
1515.000000	96.733580
1514.000000	96.744745
1513.000000	96.764828
1512.000000	96.802975
1511.000000	96.862760
1510.000000	96.937829
1509.000000	97.019227
1508.000000	97.115285
1507.000000	97.212235
1506.000000	97.262370
1505.000000	97.281020
1504.000000	97.299808
1503.000000	97.322425
1502.000000	97.355103
1501.000000	97.397796
1500.000000	97.447759
1499.000000	97.503416
1498.000000	97.567428
1497.000000	97.629514
1496.000000	97.676580
1495.000000	97.716083
1494.000000	97.755337
1493.000000	97.788563
1492.000000	97.818524
1491.000000	97.868151
1490.000000	97.942599
1489.000000	97.999627
1488.000000	98.013493
1487.000000	98.008840
1486.000000	98.004267
1485.000000	97.998494
1484.000000	97.989991
1483.000000	97.983491
1482.000000	97.983284
1481.000000	97.980152
1480.000000	97.965155
1479.000000	97.942861
1478.000000	97.922902
1477.000000	97.905291
1476.000000	97.884598
1475.000000	97.857533
1474.000000	97.817715
1473.000000	97.745412
1472.000000	97.636306
1471.000000	97.530068
1470.000000	97.450091
1469.000000	97.380509
1468.000000	97.310349
1467.000000	97.245458
1466.000000	97.192902
1465.000000	97.151463
1464.000000	97.118043
1463.000000	97.099157
1462.000000	97.095259
1461.000000	97.095655
1460.000000	97.093286
1459.000000	97.089065
1458.000000	97.082912
1457.000000	97.049129
1456.000000	96.988579
1455.000000	96.943884
1454.000000	96.918938
1453.000000	96.894789
1452.000000	96.870704
1451.000000	96.855542
1450.000000	96.853300
1449.000000	96.856072
1448.000000	96.859937
1447.000000	96.867525
1446.000000	96.879294
1445.000000	96.891577
1444.000000	96.900935
1443.000000	96.913197
1442.000000	96.935066
1441.000000	96.963175
1440.000000	96.986486
1439.000000	97.000137
1438.000000	97.015915
1437.000000	97.052840
1436.000000	97.110060
1435.000000	97.168727
1434.000000	97.216724
1433.000000	97.249396
1432.000000	97.271600
1431.000000	97.295683
1430.000000	97.329775
1429.000000	97.368221
1428.000000	97.401906
1427.000000	97.427645
1426.000000	97.446399
1425.000000	97.464324
1424.000000	97.484225
1423.000000	97.503523
1422.000000	97.517439
1421.000000	97.521721
1420.000000	97.521438
1419.000000	97.525409
1418.000000	97.529748
1417.000000	97.525828
1416.000000	97.513882
1415.000000	97.501637
1414.000000	97.496237
1413.000000	97.494742
1412.000000	97.489222
1411.000000	97.478779
1410.000000	97.468961
1409.000000	97.459464
1408.000000	97.447474
1407.000000	97.436355
1406.000000	97.430495
1405.000000	97.428046
1404.000000	97.423244
1403.000000	97.417264
1402.000000	97.412600
1401.000000	97.408270
1400.000000	97.409577
1399.000000	97.425291
1398.000000	97.451806
1397.000000	97.472632
1396.000000	97.477459
1395.000000	97.470119
1394.000000	97.461207
1393.000000	97.457047
1392.000000	97.456383
1391.000000	97.458113
1390.000000	97.462032
1389.000000	97.466262
1388.000000	97.471118
1387.000000	97.479360
1386.000000	97.488329
1385.000000	97.491166
1384.000000	97.487458
1383.000000	97.487484
1382.000000	97.498839
1381.000000	97.514983
1380.000000	97.528189
1379.000000	97.541849
1378.000000	97.561611
1377.000000	97.585202
1376.000000	97.610711
1375.000000	97.643236
1374.000000	97.683069
1373.000000	97.719711
1372.000000	97.748172
1371.000000	97.774596
1370.000000	97.804423
1369.000000	97.837556
1368.000000	97.870812
1367.000000	97.904269
1366.000000	97.938993
1365.000000	97.973867
1364.000000	98.010536
1363.000000	98.050667
1362.000000	98.085778
1361.000000	98.105360
1360.000000	98.112709
1359.000000	98.119714
1358.000000	98.131920
1357.000000	98.144679
1356.000000	98.152448
1355.000000	98.155654
1354.000000	98.154505
1353.000000	98.143713
1352.000000	98.122373
1351.000000	98.098960
1350.000000	98.079998
1349.000000	98.063625
1348.000000	98.045132
1347.000000	98.024836
1346.000000	98.003600
1345.000000	97.978919
1344.000000	97.950726
1343.000000	97.924785
1342.000000	97.905020
1341.000000	97.888310
1340.000000	97.870014
1339.000000	97.850708
1338.000000	97.833507
1337.000000	97.817980
1336.000000	97.804103
1335.000000	97.796623
1334.000000	97.798685
1333.000000	97.807904
1332.000000	97.823016
1331.000000	97.846400
1330.000000	97.875961
1329.000000	97.902903
1328.000000	97.922499
1327.000000	97.938299
1326.000000	97.952295
1325.000000	97.961070
1324.000000	97.964489
1323.000000	97.970180
1322.000000	97.983074
1321.000000	97.998626
1320.000000	98.011297
1319.000000	98.021860
1318.000000	98.030751
1317.000000	98.033784
1316.000000	98.031531
1315.000000	98.033032
1314.000000	98.043084
1313.000000	98.054248
1312.000000	98.059523
1311.000000	98.063811
1310.000000	98.074149
1309.000000	98.087655
1308.000000	98.098406
1307.000000	98.107738
1306.000000	98.119084
1305.000000	98.130294
1304.000000	98.138622
1303.000000	98.147594
1302.000000	98.160297
1301.000000	98.172540
1300.000000	98.180126
1299.000000	98.186486
1298.000000	98.195264
1297.000000	98.202483
1296.000000	98.204170
1295.000000	98.204376
1294.000000	98.207180
1293.000000	98.207174
1292.000000	98.196757
1291.000000	98.177254
1290.000000	98.154718
1289.000000	98.130669
1288.000000	98.105000
1287.000000	98.081918
1286.000000	98.064489
1285.000000	98.048589
1284.000000	98.029898
1283.000000	98.011337
1282.000000	97.997032
1281.000000	97.985303
1280.000000	97.974325
1279.000000	97.967615
1278.000000	97.967223
1277.000000	97.968326
1276.000000	97.967273
1275.000000	97.967929
1274.000000	97.973821
1273.000000	97.981152
1272.000000	97.985416
1271.000000	97.987286
1270.000000	97.986148
1269.000000	97.976810
1268.000000	97.959303
1267.000000	97.943063
1266.000000	97.934264
1265.000000	97.927198
1264.000000	97.915304
1263.000000	97.901590
1262.000000	97.890323
1261.000000	97.877985
1260.000000	97.861084
1259.000000	97.843629
1258.000000	97.828664
1257.000000	97.811537
1256.000000	97.789706
1255.000000	97.769200
1254.000000	97.753605
1253.000000	97.736050
1252.000000	97.709833
1251.000000	97.678035
1250.000000	97.645424
1249.000000	97.610709
1248.000000	97.574379
1247.000000	97.543970
1246.000000	97.522756
1245.000000	97.502344
1244.000000	97.475067
1243.000000	97.444910
1242.000000	97.418234
1241.000000	97.393542
1240.000000	97.368982
1239.000000	97.349773
1238.000000	97.338730
1237.000000	97.329144
1236.000000	97.316301
1235.000000	97.307288
1234.000000	97.310927
1233.000000	97.326086
1232.000000	97.347880
1231.000000	97.375608
1230.000000	97.407078
1229.000000	97.435881
1228.000000	97.462293
1227.000000	97.496851
1226.000000	97.544367
1225.000000	97.594561
1224.000000	97.637519
1223.000000	97.677876
1222.000000	97.724237
1221.000000	97.774679
1220.000000	97.822545
1219.000000	97.867343
1218.000000	97.910230
1217.000000	97.946901
1216.000000	97.974557
1215.000000	97.998332
1214.000000	98.021781
1213.000000	98.038877
1212.000000	98.043273
1211.000000	98.037664
1210.000000	98.026514
1209.000000	98.008171
1208.000000	97.983012
1207.000000	97.959960
1206.000000	97.945731
1205.000000	97.936121
1204.000000	97.926503
1203.000000	97.921752
1202.000000	97.927139
1201.000000	97.938728
1200.000000	97.951370
1199.000000	97.967549
1198.000000	97.989924
1197.000000	98.014526
1196.000000	98.039789
1195.000000	98.072117
1194.000000	98.113670
1193.000000	98.154113
1192.000000	98.183631
1191.000000	98.205546
1190.000000	98.227831
1189.000000	98.251314
1188.000000	98.274455
1187.000000	98.299963
1186.000000	98.327510
1185.000000	98.349276
1184.000000	98.361555
1183.000000	98.372020
1182.000000	98.387377
1181.000000	98.402788
1180.000000	98.412074
1179.000000	98.418517
1178.000000	98.426584
1177.000000	98.433319
1176.000000	98.436822
1175.000000	98.442816
1174.000000	98.453898
1173.000000	98.462477
1172.000000	98.463006
1171.000000	98.460975
1170.000000	98.461768
1169.000000	98.461353
1168.000000	98.456198
1167.000000	98.451276
1166.000000	98.449857
1165.000000	98.447132
1164.000000	98.442537
1163.000000	98.445598
1162.000000	98.459785
1161.000000	98.473674
1160.000000	98.478487
1159.000000	98.481819
1158.000000	98.493689
1157.000000	98.511756
1156.000000	98.531513
1155.000000	98.557654
1154.000000	98.593123
1153.000000	98.629337
1152.000000	98.659334
1151.000000	98.689100
1150.000000	98.724059
1149.000000	98.756411
1148.000000	98.778284
1147.000000	98.795881
1146.000000	98.818365
1145.000000	98.843812
1144.000000	98.867607
1143.000000	98.892993
1142.000000	98.922009
1141.000000	98.947466
1140.000000	98.965346
1139.000000	98.983899
1138.000000	99.009721
1137.000000	99.036363
1136.000000	99.056863
1135.000000	99.075111
1134.000000	99.094533
1133.000000	99.108812
1132.000000	99.115063
1131.000000	99.122723
1130.000000	99.137431
1129.000000	99.149500
1128.000000	99.150131
1127.000000	99.145868
1126.000000	99.144888
1125.000000	99.143070
1124.000000	99.136822
1123.000000	99.135460
1122.000000	99.146264
1121.000000	99.159472
1120.000000	99.162161
1119.000000	99.155701
1118.000000	99.147428
1117.000000	99.137463
1116.000000	99.125903
1115.000000	99.119586
1114.000000	99.119335
1113.000000	99.113798
1112.000000	99.098145
1111.000000	99.084407
1110.000000	99.081405
1109.000000	99.080236
1108.000000	99.072539
1107.000000	99.066622
1106.000000	99.070261
1105.000000	99.074343
1104.000000	99.069748
1103.000000	99.064821
1102.000000	99.069209
1101.000000	99.074813
1100.000000	99.069962
1099.000000	99.059386
1098.000000	99.052662
1097.000000	99.046705
1096.000000	99.035493
1095.000000	99.024255
1094.000000	99.017935
1093.000000	99.007909
1092.000000	98.985822
1091.000000	98.958491
1090.000000	98.934636
1089.000000	98.909593
1088.000000	98.877333
1087.000000	98.844051
1086.000000	98.815721
1085.000000	98.786270
1084.000000	98.752659
1083.000000	98.727295
1082.000000	98.720285
1081.000000	98.723244
1080.000000	98.725913
1079.000000	98.734146
1078.000000	98.755354
1077.000000	98.780995
1076.000000	98.799575
1075.000000	98.814512
1074.000000	98.833981
1073.000000	98.855543
1072.000000	98.874558
1071.000000	98.894626
1070.000000	98.916601
1069.000000	98.930487
1068.000000	98.931081
1067.000000	98.928381
1066.000000	98.931282
1065.000000	98.934788
1064.000000	98.934238
1063.000000	98.936223
1062.000000	98.943806
1061.000000	98.947312
1060.000000	98.942012
1059.000000	98.938909
1058.000000	98.946264
1057.000000	98.956787
1056.000000	98.963853
1055.000000	98.972649
1054.000000	98.983809
1053.000000	98.985484
1052.000000	98.974862
1051.000000	98.968502
1050.000000	98.976466
1049.000000	98.986343
1048.000000	98.987342
1047.000000	98.988319
1046.000000	98.996967
1045.000000	99.003184
1044.000000	98.998363
1043.000000	98.990864
1042.000000	98.988268
1041.000000	98.983185
1040.000000	98.970180
1039.000000	98.956446
1038.000000	98.942736
1037.000000	98.914825
1036.000000	98.869479
1035.000000	98.827666
1034.000000	98.806075
1033.000000	98.795640
1032.000000	98.783320
1031.000000	98.773498
1030.000000	98.771101
1029.000000	98.766206
1028.000000	98.753412
1027.000000	98.746088
1026.000000	98.752630
1025.000000	98.759031
1024.000000	98.752714
1023.000000	98.743398
1022.000000	98.741916
1021.000000	98.738998
1020.000000	98.724782
1019.000000	98.709865
1018.000000	98.707720
1017.000000	98.714549
1016.000000	98.725488
1015.000000	98.750939
1014.000000	98.797871
1013.000000	98.852194
1012.000000	98.898437
1011.000000	98.940117
1010.000000	98.984511
1009.000000	99.025391
1008.000000	99.056796
1007.000000	99.086025
1006.000000	99.117236
1005.000000	99.140842
1004.000000	99.154213
1003.000000	99.173486
1002.000000	99.208157
1001.000000	99.243805
1000.000000	99.266606
999.000000	99.285950
998.000000	99.314969
997.000000	99.347714
996.000000	99.373708
995.000000	99.396697
994.000000	99.420824
993.000000	99.436158
992.000000	99.436910
991.000000	99.436858
990.000000	99.448867
989.000000	99.465146
988.000000	99.475309
987.000000	99.486128
986.000000	99.505188
985.000000	99.521963
984.000000	99.524513
983.000000	99.519835
982.000000	99.519543
981.000000	99.520363
980.000000	99.515809
979.000000	99.512387
978.000000	99.516782
977.000000	99.521343
976.000000	99.517468
975.000000	99.509660
974.000000	99.503106
973.000000	99.494220
972.000000	99.486118
971.000000	99.494378
970.000000	99.522163
969.000000	99.549053
968.000000	99.560164
967.000000	99.566799
966.000000	99.583099
965.000000	99.602307
964.000000	99.614039
963.000000	99.624094
962.000000	99.638485
961.000000	99.646816
960.000000	99.641639
959.000000	99.636425
958.000000	99.645018
957.000000	99.659905
956.000000	99.668851
955.000000	99.676044
954.000000	99.688528
953.000000	99.699569
952.000000	99.703393
951.000000	99.709326
950.000000	99.722751
949.000000	99.729848
948.000000	99.719307
947.000000	99.702741
946.000000	99.695473
945.000000	99.694062
944.000000	99.690340
943.000000	99.689819
942.000000	99.698505
941.000000	99.708319
940.000000	99.712958
939.000000	99.720253
938.000000	99.732647
937.000000	99.734496
936.000000	99.717155
935.000000	99.697545
934.000000	99.693991
933.000000	99.701979
932.000000	99.711372
931.000000	99.726914
930.000000	99.751412
929.000000	99.768984
928.000000	99.766707
927.000000	99.756314
926.000000	99.754103
925.000000	99.756621
924.000000	99.754814
923.000000	99.754396
922.000000	99.761770
921.000000	99.767261
920.000000	99.762504
919.000000	99.758070
918.000000	99.764701
917.000000	99.773888
916.000000	99.776473
915.000000	99.782437
914.000000	99.802364
913.000000	99.825380
912.000000	99.836020
911.000000	99.837376
910.000000	99.839452
909.000000	99.840435
908.000000	99.837619
907.000000	99.839852
906.000000	99.851044
905.000000	99.858361
904.000000	99.853999
903.000000	99.850675
902.000000	99.858508
901.000000	99.866691
900.000000	99.865324
899.000000	99.864996
898.000000	99.875074
897.000000	99.883629
896.000000	99.878800
895.000000	99.870742
894.000000	99.872650
893.000000	99.879399
892.000000	99.883712
891.000000	99.892340
890.000000	99.907177
889.000000	99.911896
888.000000	99.898089
887.000000	99.882741
886.000000	99.879754
885.000000	99.875946
884.000000	99.857265
883.000000	99.835235
882.000000	99.824163
881.000000	99.814864
880.000000	99.795116
879.000000	99.773551
878.000000	99.757308
877.000000	99.729097
876.000000	99.674486
875.000000	99.612549
874.000000	99.572193
873.000000	99.557367
872.000000	99.559172
871.000000	99.580343
870.000000	99.621919
869.000000	99.665914
868.000000	99.696220
867.000000	99.719567
866.000000	99.745474
865.000000	99.765297
864.000000	99.771384
863.000000	99.775233
862.000000	99.786147
861.000000	99.793073
860.000000	99.788529
859.000000	99.787398
858.000000	99.800877
857.000000	99.814341
856.000000	99.813291
855.000000	99.808453
854.000000	99.812816
853.000000	99.817251
852.000000	99.811723
851.000000	99.807907
850.000000	99.816695
849.000000	99.825712
848.000000	99.822062
847.000000	99.816239
846.000000	99.821375
845.000000	99.831187
844.000000	99.839251
843.000000	99.855723
842.000000	99.883041
841.000000	99.899985
840.000000	99.893270
839.000000	99.881338
838.000000	99.884699
837.000000	99.895740
836.000000	99.899708
835.000000	99.900100
834.000000	99.901490
833.000000	99.893580
832.000000	99.875874
831.000000	99.871452
830.000000	99.891121
829.000000	99.909397
828.000000	99.902033
827.000000	99.881983
826.000000	99.871821
825.000000	99.868746
824.000000	99.864448
823.000000	99.869203
822.000000	99.885817
821.000000	99.891418
820.000000	99.874832
819.000000	99.861104
818.000000	99.871106
817.000000	99.887120
816.000000	99.885806
815.000000	99.876872
814.000000	99.880520
813.000000	99.891187
812.000000	99.892550
811.000000	99.886494
810.000000	99.882184
809.000000	99.877614
808.000000	99.873324
807.000000	99.880779
806.000000	99.897441
805.000000	99.900044
804.000000	99.881933
803.000000	99.868115
802.000000	99.874545
801.000000	99.884680
800.000000	99.885852
799.000000	99.892803
798.000000	99.911233
797.000000	99.915568
796.000000	99.891134
795.000000	99.863842
794.000000	99.859278
793.000000	99.865187
792.000000	99.861739
791.000000	99.855844
790.000000	99.858199
789.000000	99.858534
788.000000	99.851390
787.000000	99.854909
786.000000	99.876570
785.000000	99.891222
784.000000	99.880225
783.000000	99.862089
782.000000	99.858167
781.000000	99.859363
780.000000	99.853922
779.000000	99.855886
778.000000	99.875845
777.000000	99.893185
776.000000	99.888323
775.000000	99.875708
774.000000	99.876002
773.000000	99.882264
772.000000	99.881667
771.000000	99.883077
770.000000	99.894531
769.000000	99.900096
768.000000	99.888216
767.000000	99.877520
766.000000	99.886252
765.000000	99.900815
764.000000	99.901139
763.000000	99.892526
762.000000	99.886822
761.000000	99.878263
760.000000	99.863143
759.000000	99.856969
758.000000	99.866839
757.000000	99.873456
756.000000	99.863929
755.000000	99.854475
754.000000	99.857818
753.000000	99.858861
752.000000	99.847009
751.000000	99.839740
750.000000	99.847886
749.000000	99.850848
748.000000	99.835094
747.000000	99.822896
746.000000	99.832406
745.000000	99.842007
744.000000	99.828091
743.000000	99.807692
742.000000	99.808454
741.000000	99.824037
740.000000	99.832630
739.000000	99.833888
738.000000	99.834793
737.000000	99.825153
736.000000	99.798638
735.000000	99.774191
734.000000	99.766401
733.000000	99.759870
732.000000	99.741192
731.000000	99.728937
730.000000	99.740026
729.000000	99.751972
728.000000	99.735092
727.000000	99.697769
726.000000	99.665514
725.000000	99.641051
724.000000	99.617253
723.000000	99.602387
722.000000	99.600670
721.000000	99.593466
720.000000	99.571670
719.000000	99.559499
718.000000	99.576301
717.000000	99.602800
716.000000	99.612767
715.000000	99.612125
714.000000	99.617916
713.000000	99.623945
712.000000	99.617753
711.000000	99.608067
710.000000	99.605056
709.000000	99.597201
708.000000	99.576070
707.000000	99.560676
706.000000	99.565639
705.000000	99.573514
704.000000	99.568389
703.000000	99.564084
702.000000	99.573079
701.000000	99.578470
700.000000	99.565226
699.000000	99.552619
698.000000	99.561164
697.000000	99.576356
696.000000	99.580315
695.000000	99.585833
694.000000	99.611157
693.000000	99.644094
692.000000	99.659560
691.000000	99.657713
690.000000	99.651415
689.000000	99.642828
688.000000	99.637933
687.000000	99.651753
686.000000	99.677890
685.000000	99.681578
684.000000	99.646908
683.000000	99.606949
682.000000	99.598433
681.000000	99.615947
680.000000	99.633870
679.000000	99.646569
678.000000	99.658830
677.000000	99.655354
676.000000	99.628529
675.000000	99.605241
674.000000	99.605488
673.000000	99.611769
672.000000	99.613913
671.000000	99.649252
670.000000	99.754703
669.000000	99.904201
668.000000	99.958197
667.000000	99.822368
666.000000	99.676863
665.000000	99.590406
664.000000	99.512287
663.000000	99.457321
662.000000	99.450730
661.000000	99.470441
660.000000	99.478514
659.000000	99.480480
658.000000	99.494457
657.000000	99.501108
656.000000	99.489043
655.000000	99.493521
654.000000	99.528943
653.000000	99.545341
652.000000	99.510702
651.000000	99.468191
650.000000	99.463725
649.000000	99.475507
648.000000	99.471627
647.000000	99.469091
646.000000	99.481206
645.000000	99.475945
644.000000	99.437279
643.000000	99.406841
642.000000	99.420731
641.000000	99.454924
640.000000	99.477566
639.000000	99.500256
638.000000	99.528482
637.000000	99.525982
636.000000	99.479500
635.000000	99.437742
634.000000	99.437073
633.000000	99.447459
632.000000	99.436592
631.000000	99.428044
630.000000	99.446968
629.000000	99.467939
628.000000	99.467579
627.000000	99.469528
626.000000	99.487278
625.000000	99.484629
624.000000	99.443787
623.000000	99.410414
622.000000	99.422541
621.000000	99.450941
620.000000	99.457732
619.000000	99.456247
618.000000	99.467622
617.000000	99.474793
616.000000	99.468196
615.000000	99.480301
614.000000	99.522040
613.000000	99.545806
612.000000	99.521773
611.000000	99.491460
610.000000	99.493885
609.000000	99.501652
608.000000	99.482000
607.000000	99.459785
606.000000	99.462656
605.000000	99.468248
604.000000	99.457707
603.000000	99.458510
602.000000	99.483856
601.000000	99.493461
600.000000	99.466280
599.000000	99.445242
598.000000	99.460716
597.000000	99.477044
596.000000	99.466881
595.000000	99.463980
594.000000	99.492603
593.000000	99.513831
592.000000	99.498143
591.000000	99.482392
590.000000	99.494106
589.000000	99.496806
588.000000	99.470117
587.000000	99.462956
586.000000	99.507551
585.000000	99.554816
584.000000	99.558136
583.000000	99.549578
582.000000	99.563950
581.000000	99.563575
580.000000	99.510929
579.000000	99.447512
578.000000	99.427833
577.000000	99.441452
576.000000	99.461879
575.000000	99.500080
574.000000	99.550145
573.000000	99.559556
572.000000	99.513890
571.000000	99.473711
570.000000	99.476049
569.000000	99.473765
568.000000	99.436603
567.000000	99.419669
566.000000	99.458254
565.000000	99.492536
564.000000	99.472080
563.000000	99.439774
562.000000	99.439101
561.000000	99.430438
560.000000	99.379244
559.000000	99.339011
558.000000	99.359120
557.000000	99.397703
556.000000	99.408056
555.000000	99.422555
554.000000	99.465794
553.000000	99.480666
552.000000	99.431469
551.000000	99.385963
550.000000	99.403153
549.000000	99.429361
548.000000	99.409429
547.000000	99.403690
546.000000	99.482966
545.000000	99.589351
544.000000	99.621831
543.000000	99.582480
542.000000	99.531311
541.000000	99.475596
540.000000	99.403917
539.000000	99.359025
538.000000	99.376915
537.000000	99.412907
536.000000	99.412989
535.000000	99.396265
534.000000	99.391159
533.000000	99.367919
532.000000	99.313975
531.000000	99.291547
530.000000	99.335669
529.000000	99.383709
528.000000	99.386833
527.000000	99.399198
526.000000	99.469159
525.000000	99.526977
524.000000	99.498858
523.000000	99.429717
522.000000	99.390084
521.000000	99.372373
520.000000	99.353403
519.000000	99.365442
518.000000	99.417300
517.000000	99.435283
516.000000	99.390925
515.000000	99.368704
514.000000	99.415732
513.000000	99.458666
512.000000	99.441576
511.000000	99.427814
510.000000	99.478579
509.000000	99.540521
508.000000	99.552728
507.000000	99.554074
506.000000	99.579592
505.000000	99.570872
504.000000	99.501035
503.000000	99.466592
502.000000	99.536479
501.000000	99.614013
500.000000	99.599547
499.000000	99.549411
498.000000	99.544709
497.000000	99.552934
496.000000	99.524621
495.000000	99.510209
494.000000	99.560162
493.000000	99.605459
492.000000	99.565367
491.000000	99.485524
490.000000	99.443604
489.000000	99.423391
488.000000	99.402795
487.000000	99.441698
486.000000	99.566781
485.000000	99.676525
484.000000	99.687895
483.000000	99.672224
482.000000	99.702878
481.000000	99.714653
480.000000	99.648612
479.000000	99.586909
478.000000	99.613293
477.000000	99.662504
476.000000	99.644944
475.000000	99.605904
474.000000	99.623695
473.000000	99.660653
472.000000	99.664030
471.000000	99.702630
470.000000	99.813358
469.000000	99.877773
468.000000	99.804293
467.000000	99.683773
466.000000	99.642508
465.000000	99.658391
464.000000	99.672221
463.000000	99.716795
462.000000	99.792673
461.000000	99.790761
460.000000	99.696710
459.000000	99.703465
458.000000	99.929094
457.000000	100.134468
456.000000	100.080722
455.000000	99.913403
454.000000	99.836259
453.000000	99.823181
452.000000	99.776152
451.000000	99.760310
450.000000	99.857373
