PE IR       SUBTECH     SPECTRUM    ASCII       PEDS        4.00        
   -1
Veau_Al-1-C002_1.ASC
23/09/13
10:57:02.00
23/09/13
11:33:37.00
uco
Sample 002 By uco Date Wednesday, September 13 2023
450.000000
#HDR
-1
-1
#GR
cm-1
%T
1.0
0.0
4000.000000
-1.000000
3551
8
99.535211
91.349052
#DATA
4000.000000	99.391325
3999.000000	99.392020
3998.000000	99.397080
3997.000000	99.402125
3996.000000	99.379673
3995.000000	99.374916
3994.000000	99.373230
3993.000000	99.377387
3992.000000	99.386495
3991.000000	99.397095
3990.000000	99.405151
3989.000000	99.407989
3988.000000	99.405087
3987.000000	99.398232
3986.000000	99.390899
3985.000000	99.386233
3984.000000	99.384933
3983.000000	99.385165
3982.000000	99.384675
3981.000000	99.382873
3980.000000	99.380832
3979.000000	99.379791
3978.000000	99.379834
3977.000000	99.379861
3976.000000	99.378445
3975.000000	99.374722
3974.000000	99.369002
3973.000000	99.362782
3972.000000	99.358030
3971.000000	99.355929
3970.000000	99.356216
3969.000000	99.357562
3968.000000	99.358325
3967.000000	99.357539
3966.000000	99.355699
3965.000000	99.354856
3964.000000	99.357469
3963.000000	99.364511
3962.000000	99.374321
3961.000000	99.383344
3960.000000	99.388514
3959.000000	99.388331
3958.000000	99.382781
3957.000000	99.373366
3956.000000	99.362673
3955.000000	99.353665
3954.000000	99.348582
3953.000000	99.348553
3952.000000	99.353824
3951.000000	99.363445
3950.000000	99.375050
3949.000000	99.384831
3948.000000	99.389170
3947.000000	99.386979
3946.000000	99.379613
3945.000000	99.369766
3944.000000	99.360662
3943.000000	99.355062
3942.000000	99.354165
3941.000000	99.355976
3940.000000	99.356511
3939.000000	99.353366
3938.000000	99.348167
3937.000000	99.345639
3936.000000	99.349130
3935.000000	99.357699
3934.000000	99.366903
3933.000000	99.371737
3932.000000	99.370419
3931.000000	99.364974
3930.000000	99.358711
3929.000000	99.353017
3928.000000	99.347338
3927.000000	99.342390
3926.000000	99.340056
3925.000000	99.341153
3924.000000	99.344544
3923.000000	99.348694
3922.000000	99.353202
3921.000000	99.358723
3920.000000	99.365467
3919.000000	99.371865
3918.000000	99.374218
3917.000000	99.369607
3916.000000	99.359594
3915.000000	99.349172
3914.000000	99.342862
3913.000000	99.342087
3912.000000	99.345931
3911.000000	99.351179
3910.000000	99.353703
3909.000000	99.350839
3908.000000	99.342975
3907.000000	99.334337
3906.000000	99.330808
3905.000000	99.336246
3904.000000	99.349157
3903.000000	99.362546
3902.000000	99.369538
3901.000000	99.368968
3900.000000	99.364621
3899.000000	99.362244
3898.000000	99.364325
3897.000000	99.367859
3896.000000	99.368798
3895.000000	99.365357
3894.000000	99.358837
3893.000000	99.351913
3892.000000	99.346779
3891.000000	99.344208
3890.000000	99.344493
3889.000000	99.347818
3888.000000	99.354588
3887.000000	99.363097
3886.000000	99.367763
3885.000000	99.364935
3884.000000	99.357161
3883.000000	99.348875
3882.000000	99.342335
3881.000000	99.337602
3880.000000	99.334423
3879.000000	99.332476
3878.000000	99.329650
3877.000000	99.323920
3876.000000	99.315001
3875.000000	99.304800
3874.000000	99.298466
3873.000000	99.301010
3872.000000	99.311706
3871.000000	99.323485
3870.000000	99.329604
3869.000000	99.331655
3868.000000	99.335481
3867.000000	99.342038
3866.000000	99.346422
3865.000000	99.344003
3864.000000	99.336862
3863.000000	99.332283
3862.000000	99.334695
3861.000000	99.341325
3860.000000	99.345453
3859.000000	99.342911
3858.000000	99.334813
3857.000000	99.327600
3856.000000	99.328600
3855.000000	99.337431
3854.000000	99.345880
3853.000000	99.346778
3852.000000	99.342910
3851.000000	99.339818
3850.000000	99.339193
3849.000000	99.338519
3848.000000	99.336089
3847.000000	99.331432
3846.000000	99.325472
3845.000000	99.319955
3844.000000	99.316162
3843.000000	99.314270
3842.000000	99.314614
3841.000000	99.316451
3840.000000	99.318494
3839.000000	99.320124
3838.000000	99.321343
3837.000000	99.322989
3836.000000	99.324991
3835.000000	99.326272
3834.000000	99.326249
3833.000000	99.324733
3832.000000	99.321670
3831.000000	99.318323
3830.000000	99.315987
3829.000000	99.315642
3828.000000	99.317659
3827.000000	99.321314
3826.000000	99.326499
3825.000000	99.333694
3824.000000	99.342823
3823.000000	99.350322
3822.000000	99.351107
3821.000000	99.345479
3820.000000	99.338542
3819.000000	99.332908
3818.000000	99.329184
3817.000000	99.328219
3816.000000	99.328679
3815.000000	99.329769
3814.000000	99.331179
3813.000000	99.331800
3812.000000	99.331343
3811.000000	99.330070
3810.000000	99.329155
3809.000000	99.329742
3808.000000	99.330793
3807.000000	99.330041
3806.000000	99.327808
3805.000000	99.326177
3804.000000	99.327558
3803.000000	99.330306
3802.000000	99.329130
3801.000000	99.323274
3800.000000	99.319325
3799.000000	99.319289
3798.000000	99.320001
3797.000000	99.317741
3796.000000	99.312284
3795.000000	99.307904
3794.000000	99.308221
3793.000000	99.313338
3792.000000	99.320513
3791.000000	99.326015
3790.000000	99.327264
3789.000000	99.324136
3788.000000	99.317975
3787.000000	99.310956
3786.000000	99.305423
3785.000000	99.303095
3784.000000	99.304415
3783.000000	99.308105
3782.000000	99.311614
3781.000000	99.312816
3780.000000	99.312164
3779.000000	99.311932
3778.000000	99.313475
3777.000000	99.315341
3776.000000	99.315759
3775.000000	99.314927
3774.000000	99.315473
3773.000000	99.320639
3772.000000	99.330444
3771.000000	99.340024
3770.000000	99.343774
3769.000000	99.341368
3768.000000	99.336646
3767.000000	99.333134
3766.000000	99.331327
3765.000000	99.329887
3764.000000	99.328551
3763.000000	99.328284
3762.000000	99.329202
3761.000000	99.329456
3760.000000	99.327652
3759.000000	99.323889
3758.000000	99.320089
3757.000000	99.319448
3756.000000	99.324520
3755.000000	99.335736
3754.000000	99.351534
3753.000000	99.369701
3752.000000	99.388612
3751.000000	99.406311
3750.000000	99.418304
3749.000000	99.419947
3748.000000	99.411301
3747.000000	99.397247
3746.000000	99.380459
3745.000000	99.359831
3744.000000	99.340873
3743.000000	99.333989
3742.000000	99.339458
3741.000000	99.352043
3740.000000	99.367175
3739.000000	99.381597
3738.000000	99.391008
3737.000000	99.392297
3736.000000	99.387248
3735.000000	99.384642
3734.000000	99.392076
3733.000000	99.403917
3732.000000	99.408529
3731.000000	99.402609
3730.000000	99.392680
3729.000000	99.386463
3728.000000	99.385515
3727.000000	99.385288
3726.000000	99.380232
3725.000000	99.369133
3724.000000	99.355101
3723.000000	99.343054
3722.000000	99.337382
3721.000000	99.337643
3720.000000	99.340353
3719.000000	99.342451
3718.000000	99.342872
3717.000000	99.342694
3716.000000	99.344006
3715.000000	99.347706
3714.000000	99.349727
3713.000000	99.341869
3712.000000	99.321746
3711.000000	99.300629
3710.000000	99.292879
3709.000000	99.301410
3708.000000	99.318391
3707.000000	99.334965
3706.000000	99.346892
3705.000000	99.353485
3704.000000	99.356933
3703.000000	99.360689
3702.000000	99.366512
3701.000000	99.371672
3700.000000	99.371579
3699.000000	99.365185
3698.000000	99.355099
3697.000000	99.344205
3696.000000	99.334078
3695.000000	99.324872
3694.000000	99.315687
3693.000000	99.306532
3692.000000	99.300595
3691.000000	99.303489
3690.000000	99.316202
3689.000000	99.330035
3688.000000	99.335302
3687.000000	99.331734
3686.000000	99.324702
3685.000000	99.318800
3684.000000	99.316711
3683.000000	99.318589
3682.000000	99.321926
3681.000000	99.322766
3680.000000	99.318678
3679.000000	99.312519
3678.000000	99.310690
3677.000000	99.314554
3676.000000	99.318697
3675.000000	99.320114
3674.000000	99.322178
3673.000000	99.324611
3672.000000	99.324836
3671.000000	99.317408
3670.000000	99.300104
3669.000000	99.283156
3668.000000	99.277157
3667.000000	99.280178
3666.000000	99.286172
3665.000000	99.290888
3664.000000	99.292382
3663.000000	99.289757
3662.000000	99.282798
3661.000000	99.272890
3660.000000	99.262975
3659.000000	99.256860
3658.000000	99.256359
3657.000000	99.259094
3656.000000	99.260047
3655.000000	99.256189
3654.000000	99.249219
3653.000000	99.243963
3652.000000	99.246271
3651.000000	99.260825
3650.000000	99.283425
3649.000000	99.293294
3648.000000	99.276622
3647.000000	99.248258
3646.000000	99.226525
3645.000000	99.214362
3644.000000	99.207029
3643.000000	99.199940
3642.000000	99.190632
3641.000000	99.178872
3640.000000	99.165350
3639.000000	99.151517
3638.000000	99.140239
3637.000000	99.134483
3636.000000	99.135084
3635.000000	99.140477
3634.000000	99.149189
3633.000000	99.161430
3632.000000	99.177547
3631.000000	99.193764
3630.000000	99.199868
3629.000000	99.187128
3628.000000	99.163674
3627.000000	99.145534
3626.000000	99.136160
3625.000000	99.132361
3624.000000	99.130706
3623.000000	99.129459
3622.000000	99.127975
3621.000000	99.124441
3620.000000	99.115393
3619.000000	99.100178
3618.000000	99.083378
3617.000000	99.070283
3616.000000	99.061847
3615.000000	99.055077
3614.000000	99.046893
3613.000000	99.038572
3612.000000	99.035717
3611.000000	99.040141
3610.000000	99.044738
3609.000000	99.039127
3608.000000	99.021903
3607.000000	99.003547
3606.000000	98.994247
3605.000000	98.994413
3604.000000	98.997483
3603.000000	98.997074
3602.000000	98.990034
3601.000000	98.976602
3600.000000	98.960650
3599.000000	98.947728
3598.000000	98.940100
3597.000000	98.935552
3596.000000	98.929896
3595.000000	98.920267
3594.000000	98.907722
3593.000000	98.895246
3592.000000	98.884467
3591.000000	98.874880
3590.000000	98.865520
3589.000000	98.856534
3588.000000	98.849086
3587.000000	98.843299
3586.000000	98.839187
3585.000000	98.834559
3584.000000	98.825657
3583.000000	98.811644
3582.000000	98.795537
3581.000000	98.780849
3580.000000	98.768895
3579.000000	98.758366
3578.000000	98.747685
3577.000000	98.737503
3576.000000	98.730366
3575.000000	98.727313
3574.000000	98.725450
3573.000000	98.720140
3572.000000	98.708411
3571.000000	98.691230
3570.000000	98.672840
3569.000000	98.659198
3568.000000	98.653035
3567.000000	98.649483
3566.000000	98.642329
3565.000000	98.633420
3564.000000	98.626154
3563.000000	98.620162
3562.000000	98.613716
3561.000000	98.606496
3560.000000	98.599640
3559.000000	98.594161
3558.000000	98.589056
3557.000000	98.582662
3556.000000	98.575228
3555.000000	98.568676
3554.000000	98.563241
3553.000000	98.556353
3552.000000	98.545921
3551.000000	98.533742
3550.000000	98.523666
3549.000000	98.517734
3548.000000	98.515117
3547.000000	98.512533
3546.000000	98.505470
3545.000000	98.491686
3544.000000	98.473656
3543.000000	98.455466
3542.000000	98.439302
3541.000000	98.425119
3540.000000	98.412216
3539.000000	98.400370
3538.000000	98.389215
3537.000000	98.377885
3536.000000	98.365463
3535.000000	98.352050
3534.000000	98.338844
3533.000000	98.327385
3532.000000	98.319259
3531.000000	98.315261
3530.000000	98.314327
3529.000000	98.313795
3528.000000	98.311436
3527.000000	98.306983
3526.000000	98.301050
3525.000000	98.292889
3524.000000	98.280764
3523.000000	98.264820
3522.000000	98.248254
3521.000000	98.234796
3520.000000	98.225681
3519.000000	98.219714
3518.000000	98.214875
3517.000000	98.209578
3516.000000	98.203291
3515.000000	98.196117
3514.000000	98.188456
3513.000000	98.180623
3512.000000	98.172820
3511.000000	98.165315
3510.000000	98.158332
3509.000000	98.151539
3508.000000	98.143993
3507.000000	98.135271
3506.000000	98.126681
3505.000000	98.121153
3504.000000	98.120101
3503.000000	98.120386
3502.000000	98.116408
3501.000000	98.105377
3500.000000	98.089084
3499.000000	98.071159
3498.000000	98.054634
3497.000000	98.041860
3496.000000	98.035431
3495.000000	98.036973
3494.000000	98.044472
3493.000000	98.052090
3492.000000	98.053767
3491.000000	98.047184
3490.000000	98.034313
3489.000000	98.018584
3488.000000	98.002411
3487.000000	97.987331
3486.000000	97.975123
3485.000000	97.967544
3484.000000	97.964748
3483.000000	97.964152
3482.000000	97.961478
3481.000000	97.953766
3480.000000	97.941561
3479.000000	97.928163
3478.000000	97.916947
3477.000000	97.909459
3476.000000	97.905162
3475.000000	97.902342
3474.000000	97.899503
3473.000000	97.896248
3472.000000	97.892734
3471.000000	97.888398
3470.000000	97.882090
3469.000000	97.873707
3468.000000	97.865129
3467.000000	97.858807
3466.000000	97.855026
3465.000000	97.850971
3464.000000	97.842633
3463.000000	97.828041
3462.000000	97.809490
3461.000000	97.792539
3460.000000	97.781832
3459.000000	97.777151
3458.000000	97.774209
3457.000000	97.769781
3456.000000	97.764616
3455.000000	97.760816
3454.000000	97.757879
3453.000000	97.753163
3452.000000	97.745667
3451.000000	97.736899
3450.000000	97.728438
3449.000000	97.720726
3448.000000	97.714346
3447.000000	97.710243
3446.000000	97.707693
3445.000000	97.703421
3444.000000	97.694210
3443.000000	97.679931
3442.000000	97.663632
3441.000000	97.649376
3440.000000	97.639884
3439.000000	97.635318
3438.000000	97.633608
3437.000000	97.632355
3436.000000	97.630487
3435.000000	97.627932
3434.000000	97.624274
3433.000000	97.618732
3432.000000	97.611898
3431.000000	97.605751
3430.000000	97.601649
3429.000000	97.598931
3428.000000	97.595835
3427.000000	97.591034
3426.000000	97.583888
3425.000000	97.574362
3424.000000	97.563428
3423.000000	97.553127
3422.000000	97.545403
3421.000000	97.540633
3420.000000	97.537347
3419.000000	97.533357
3418.000000	97.527504
3417.000000	97.520642
3416.000000	97.515007
3415.000000	97.512094
3414.000000	97.511153
3413.000000	97.510135
3412.000000	97.507637
3411.000000	97.503173
3410.000000	97.496047
3409.000000	97.485425
3408.000000	97.472117
3407.000000	97.459299
3406.000000	97.450314
3405.000000	97.445814
3404.000000	97.443206
3403.000000	97.438875
3402.000000	97.431209
3401.000000	97.421911
3400.000000	97.414783
3399.000000	97.412619
3398.000000	97.414669
3397.000000	97.416929
3396.000000	97.415103
3395.000000	97.407455
3394.000000	97.395515
3393.000000	97.382958
3392.000000	97.373451
3391.000000	97.368123
3390.000000	97.364423
3389.000000	97.358413
3388.000000	97.348951
3387.000000	97.339155
3386.000000	97.332933
3385.000000	97.330412
3384.000000	97.327850
3383.000000	97.321857
3382.000000	97.312568
3381.000000	97.302334
3380.000000	97.292576
3379.000000	97.282515
3378.000000	97.270568
3377.000000	97.256223
3376.000000	97.240616
3375.000000	97.225624
3374.000000	97.212414
3373.000000	97.200734
3372.000000	97.189456
3371.000000	97.177532
3370.000000	97.164252
3369.000000	97.149011
3368.000000	97.131460
3367.000000	97.112201
3366.000000	97.093070
3365.000000	97.076344
3364.000000	97.063246
3363.000000	97.052748
3362.000000	97.041503
3361.000000	97.025421
3360.000000	97.002309
3359.000000	96.973693
3358.000000	96.944274
3357.000000	96.919158
3356.000000	96.900658
3355.000000	96.886829
3354.000000	96.873015
3353.000000	96.855470
3352.000000	96.833925
3351.000000	96.810610
3350.000000	96.787101
3349.000000	96.762907
3348.000000	96.737165
3347.000000	96.710758
3346.000000	96.685738
3345.000000	96.663037
3344.000000	96.641778
3343.000000	96.620702
3342.000000	96.599447
3341.000000	96.578096
3340.000000	96.556365
3339.000000	96.533949
3338.000000	96.511242
3337.000000	96.489095
3336.000000	96.467938
3335.000000	96.447542
3334.000000	96.427497
3333.000000	96.407366
3332.000000	96.386506
3331.000000	96.364629
3330.000000	96.342889
3329.000000	96.323692
3328.000000	96.308527
3327.000000	96.296248
3326.000000	96.284231
3325.000000	96.271033
3324.000000	96.256961
3323.000000	96.241901
3322.000000	96.224210
3321.000000	96.202882
3320.000000	96.180049
3319.000000	96.160035
3318.000000	96.145673
3317.000000	96.135968
3316.000000	96.127475
3315.000000	96.117598
3314.000000	96.106806
3313.000000	96.098319
3312.000000	96.095297
3311.000000	96.097665
3310.000000	96.101589
3309.000000	96.102601
3308.000000	96.099448
3307.000000	96.094406
3306.000000	96.090005
3305.000000	96.086351
3304.000000	96.081612
3303.000000	96.074261
3302.000000	96.064554
3301.000000	96.054375
3300.000000	96.045871
3299.000000	96.039759
3298.000000	96.034812
3297.000000	96.029401
3296.000000	96.023900
3295.000000	96.020878
3294.000000	96.022203
3293.000000	96.026188
3292.000000	96.028165
3291.000000	96.024294
3290.000000	96.015085
3289.000000	96.005169
3288.000000	95.999272
3287.000000	95.998091
3286.000000	95.998325
3285.000000	95.997017
3284.000000	95.995257
3283.000000	95.996685
3282.000000	96.002530
3281.000000	96.009633
3280.000000	96.014012
3279.000000	96.015067
3278.000000	96.015549
3277.000000	96.018412
3276.000000	96.024924
3275.000000	96.035096
3274.000000	96.047820
3273.000000	96.060205
3272.000000	96.068477
3271.000000	96.071021
3270.000000	96.070174
3269.000000	96.069969
3268.000000	96.072204
3267.000000	96.075401
3266.000000	96.077773
3265.000000	96.080480
3264.000000	96.087114
3263.000000	96.099872
3262.000000	96.116780
3261.000000	96.133040
3260.000000	96.144951
3259.000000	96.152430
3258.000000	96.158147
3257.000000	96.165098
3256.000000	96.174934
3255.000000	96.187483
3254.000000	96.200877
3253.000000	96.212632
3252.000000	96.221800
3251.000000	96.230306
3250.000000	96.241510
3249.000000	96.256739
3248.000000	96.273444
3247.000000	96.287138
3246.000000	96.295148
3245.000000	96.298486
3244.000000	96.300277
3243.000000	96.302769
3242.000000	96.306207
3241.000000	96.310207
3240.000000	96.315414
3239.000000	96.323137
3238.000000	96.333339
3237.000000	96.343764
3236.000000	96.351692
3235.000000	96.356646
3234.000000	96.360685
3233.000000	96.365839
3232.000000	96.371793
3231.000000	96.376538
3230.000000	96.379140
3229.000000	96.381008
3228.000000	96.384129
3227.000000	96.388713
3226.000000	96.393354
3225.000000	96.397249
3224.000000	96.401345
3223.000000	96.406908
3222.000000	96.413731
3221.000000	96.420487
3220.000000	96.426455
3219.000000	96.432186
3218.000000	96.438436
3217.000000	96.445269
3216.000000	96.452314
3215.000000	96.459144
3214.000000	96.465193
3213.000000	96.469966
3212.000000	96.473741
3211.000000	96.477573
3210.000000	96.482285
3209.000000	96.487898
3208.000000	96.494077
3207.000000	96.500524
3206.000000	96.506707
3205.000000	96.512207
3204.000000	96.518041
3203.000000	96.526710
3202.000000	96.539688
3201.000000	96.555055
3200.000000	96.568518
3199.000000	96.577055
3198.000000	96.581088
3197.000000	96.583381
3196.000000	96.586614
3195.000000	96.591938
3194.000000	96.598898
3193.000000	96.606146
3192.000000	96.612696
3191.000000	96.618872
3190.000000	96.625757
3189.000000	96.633589
3188.000000	96.641433
3187.000000	96.648929
3186.000000	96.657813
3185.000000	96.670785
3184.000000	96.688501
3183.000000	96.708213
3182.000000	96.725735
3181.000000	96.738805
3180.000000	96.748446
3179.000000	96.757273
3178.000000	96.766776
3177.000000	96.776375
3176.000000	96.784806
3175.000000	96.792008
3174.000000	96.799400
3173.000000	96.808590
3172.000000	96.819950
3171.000000	96.832283
3170.000000	96.843810
3169.000000	96.853472
3168.000000	96.861581
3167.000000	96.869363
3166.000000	96.878084
3165.000000	96.888575
3164.000000	96.901141
3163.000000	96.915485
3162.000000	96.930651
3161.000000	96.945404
3160.000000	96.958860
3159.000000	96.970821
3158.000000	96.981700
3157.000000	96.992118
3156.000000	97.002124
3155.000000	97.010571
3154.000000	97.015889
3153.000000	97.018124
3152.000000	97.019881
3151.000000	97.024445
3150.000000	97.033125
3149.000000	97.045053
3148.000000	97.059234
3147.000000	97.075484
3146.000000	97.093140
3145.000000	97.110033
3144.000000	97.123770
3143.000000	97.133914
3142.000000	97.142237
3141.000000	97.150833
3140.000000	97.160104
3139.000000	97.168471
3138.000000	97.174069
3137.000000	97.177024
3136.000000	97.179967
3135.000000	97.185788
3134.000000	97.194694
3133.000000	97.203938
3132.000000	97.210596
3131.000000	97.213868
3130.000000	97.214833
3129.000000	97.215234
3128.000000	97.217102
3127.000000	97.222136
3126.000000	97.230191
3125.000000	97.238772
3124.000000	97.245037
3123.000000	97.248429
3122.000000	97.250923
3121.000000	97.254828
3120.000000	97.260415
3119.000000	97.265391
3118.000000	97.266538
3117.000000	97.262457
3116.000000	97.255171
3115.000000	97.248764
3114.000000	97.246197
3113.000000	97.247517
3112.000000	97.250712
3111.000000	97.253107
3110.000000	97.252044
3109.000000	97.245776
3108.000000	97.234902
3107.000000	97.222433
3106.000000	97.211918
3105.000000	97.205412
3104.000000	97.202915
3103.000000	97.202689
3102.000000	97.201952
3101.000000	97.198547
3100.000000	97.192692
3099.000000	97.186377
3098.000000	97.180536
3097.000000	97.173729
3096.000000	97.164329
3095.000000	97.153182
3094.000000	97.143022
3093.000000	97.135545
3092.000000	97.130107
3091.000000	97.125055
3090.000000	97.119367
3089.000000	97.112933
3088.000000	97.106239
3087.000000	97.100139
3086.000000	97.095535
3085.000000	97.092776
3084.000000	97.091263
3083.000000	97.089783
3082.000000	97.087327
3081.000000	97.083900
3080.000000	97.080341
3079.000000	97.076952
3078.000000	97.072521
3077.000000	97.065659
3076.000000	97.057144
3075.000000	97.049812
3074.000000	97.045699
3073.000000	97.044407
3072.000000	97.045129
3071.000000	97.048692
3070.000000	97.055928
3069.000000	97.064729
3068.000000	97.070894
3067.000000	97.072371
3066.000000	97.071106
3065.000000	97.070214
3064.000000	97.070819
3063.000000	97.072672
3062.000000	97.076464
3061.000000	97.083926
3060.000000	97.095959
3059.000000	97.111757
3058.000000	97.129497
3057.000000	97.147092
3056.000000	97.162636
3055.000000	97.175225
3054.000000	97.185621
3053.000000	97.195334
3052.000000	97.205172
3051.000000	97.215253
3050.000000	97.226163
3049.000000	97.238945
3048.000000	97.253463
3047.000000	97.267647
3046.000000	97.279222
3045.000000	97.287997
3044.000000	97.296139
3043.000000	97.306283
3042.000000	97.319478
3041.000000	97.334728
3040.000000	97.350162
3039.000000	97.364740
3038.000000	97.378831
3037.000000	97.393184
3036.000000	97.407627
3035.000000	97.421181
3034.000000	97.433248
3033.000000	97.444056
3032.000000	97.453774
3031.000000	97.461932
3030.000000	97.468239
3029.000000	97.473574
3028.000000	97.479654
3027.000000	97.487579
3026.000000	97.497119
3025.000000	97.507370
3024.000000	97.517676
3023.000000	97.527679
3022.000000	97.536799
3021.000000	97.544214
3020.000000	97.549430
3019.000000	97.552697
3018.000000	97.554884
3017.000000	97.557124
3016.000000	97.560441
3015.000000	97.565269
3014.000000	97.570845
3013.000000	97.575370
3012.000000	97.577474
3011.000000	97.577873
3010.000000	97.578892
3009.000000	97.581746
3008.000000	97.584911
3007.000000	97.585999
3006.000000	97.584870
3005.000000	97.583658
3004.000000	97.583625
3003.000000	97.583534
3002.000000	97.581985
3001.000000	97.580029
3000.000000	97.579999
2999.000000	97.582408
2998.000000	97.585370
2997.000000	97.586694
2996.000000	97.584945
2995.000000	97.578897
2994.000000	97.568067
2993.000000	97.554406
2992.000000	97.541572
2991.000000	97.531113
2990.000000	97.520527
2989.000000	97.506294
2988.000000	97.488119
2987.000000	97.468901
2986.000000	97.451196
2985.000000	97.435202
2984.000000	97.420006
2983.000000	97.405167
2982.000000	97.390583
2981.000000	97.375871
2980.000000	97.360527
2979.000000	97.344216
2978.000000	97.326699
2977.000000	97.308040
2976.000000	97.288889
2975.000000	97.269774
2974.000000	97.249766
2973.000000	97.226557
2972.000000	97.198306
2971.000000	97.164835
2970.000000	97.126684
2969.000000	97.083791
2968.000000	97.036184
2967.000000	96.985882
2966.000000	96.936934
2965.000000	96.892698
2964.000000	96.852903
2963.000000	96.814033
2962.000000	96.773007
2961.000000	96.730596
2960.000000	96.690891
2959.000000	96.657437
2958.000000	96.630644
2957.000000	96.609180
2956.000000	96.593192
2955.000000	96.584873
2954.000000	96.585838
2953.000000	96.594629
2952.000000	96.606847
2951.000000	96.617387
2950.000000	96.622580
2949.000000	96.621320
2948.000000	96.614554
2947.000000	96.603350
2946.000000	96.587004
2945.000000	96.563085
2944.000000	96.529360
2943.000000	96.485218
2942.000000	96.431683
2941.000000	96.370887
2940.000000	96.305701
2939.000000	96.238606
2938.000000	96.169822
2937.000000	96.097048
2936.000000	96.017521
2935.000000	95.930190
2934.000000	95.835839
2933.000000	95.736224
2932.000000	95.634098
2931.000000	95.533195
2930.000000	95.436607
2929.000000	95.344851
2928.000000	95.256540
2927.000000	95.171347
2926.000000	95.091555
2925.000000	95.020606
2924.000000	94.960773
2923.000000	94.912974
2922.000000	94.878125
2921.000000	94.857892
2920.000000	94.854805
2919.000000	94.872431
2918.000000	94.915686
2917.000000	94.989579
2916.000000	95.096146
2915.000000	95.231646
2914.000000	95.385985
2913.000000	95.545433
2912.000000	95.697238
2911.000000	95.834046
2910.000000	95.954933
2909.000000	96.062384
2908.000000	96.158408
2907.000000	96.243177
2906.000000	96.316763
2905.000000	96.380613
2904.000000	96.436621
2903.000000	96.485849
2902.000000	96.527819
2901.000000	96.563061
2900.000000	96.594176
2899.000000	96.624987
2898.000000	96.658994
2897.000000	96.697657
2896.000000	96.739749
2895.000000	96.781928
2894.000000	96.820828
2893.000000	96.855253
2892.000000	96.886507
2891.000000	96.916510
2890.000000	96.945816
2889.000000	96.973572
2888.000000	96.998724
2887.000000	97.020501
2886.000000	97.038145
2885.000000	97.051261
2884.000000	97.060907
2883.000000	97.069611
2882.000000	97.079510
2881.000000	97.090400
2880.000000	97.099707
2879.000000	97.104271
2878.000000	97.102073
2877.000000	97.092840
2876.000000	97.077928
2875.000000	97.060031
2874.000000	97.042572
2873.000000	97.028398
2872.000000	97.018507
2871.000000	97.012131
2870.000000	97.008284
2869.000000	97.006909
2868.000000	97.007820
2867.000000	97.008548
2866.000000	97.004191
2865.000000	96.990206
2864.000000	96.964960
2863.000000	96.929258
2862.000000	96.883995
2861.000000	96.829156
2860.000000	96.764776
2859.000000	96.691407
2858.000000	96.609439
2857.000000	96.519350
2856.000000	96.423887
2855.000000	96.329545
2854.000000	96.245314
2853.000000	96.179557
2852.000000	96.138635
2851.000000	96.128664
2850.000000	96.157025
2849.000000	96.230309
2848.000000	96.348861
2847.000000	96.502756
2846.000000	96.673561
2845.000000	96.841352
2844.000000	96.991566
2843.000000	97.118077
2842.000000	97.222058
2841.000000	97.308485
2840.000000	97.382691
2839.000000	97.447849
2838.000000	97.504585
2837.000000	97.552439
2836.000000	97.591414
2835.000000	97.622422
2834.000000	97.647373
2833.000000	97.669259
2832.000000	97.691161
2831.000000	97.714137
2830.000000	97.736526
2829.000000	97.756365
2828.000000	97.773819
2827.000000	97.790183
2826.000000	97.805360
2825.000000	97.818314
2824.000000	97.829864
2823.000000	97.842613
2822.000000	97.857336
2821.000000	97.871414
2820.000000	97.882248
2819.000000	97.890755
2818.000000	97.899709
2817.000000	97.909653
2816.000000	97.918427
2815.000000	97.924572
2814.000000	97.929502
2813.000000	97.935799
2812.000000	97.944455
2811.000000	97.954224
2810.000000	97.962961
2809.000000	97.969168
2808.000000	97.972734
2807.000000	97.974744
2806.000000	97.976653
2805.000000	97.979508
2804.000000	97.983704
2803.000000	97.989048
2802.000000	97.994941
2801.000000	98.000926
2800.000000	98.007249
2799.000000	98.014406
2798.000000	98.021854
2797.000000	98.027833
2796.000000	98.031151
2795.000000	98.032855
2794.000000	98.035515
2793.000000	98.040932
2792.000000	98.048783
2791.000000	98.056987
2790.000000	98.062972
2789.000000	98.065210
2788.000000	98.064517
2787.000000	98.063802
2786.000000	98.065808
2785.000000	98.070949
2784.000000	98.077599
2783.000000	98.084235
2782.000000	98.090675
2781.000000	98.097446
2780.000000	98.104673
2779.000000	98.111792
2778.000000	98.118022
2777.000000	98.123124
2776.000000	98.127929
2775.000000	98.133828
2774.000000	98.141279
2773.000000	98.149001
2772.000000	98.155167
2771.000000	98.159274
2770.000000	98.162399
2769.000000	98.165830
2768.000000	98.170017
2767.000000	98.174606
2766.000000	98.178841
2765.000000	98.182045
2764.000000	98.184420
2763.000000	98.187406
2762.000000	98.192536
2761.000000	98.199716
2760.000000	98.207191
2759.000000	98.213312
2758.000000	98.217766
2757.000000	98.221020
2756.000000	98.223393
2755.000000	98.225242
2754.000000	98.227531
2753.000000	98.231459
2752.000000	98.237339
2751.000000	98.244023
2750.000000	98.249436
2749.000000	98.251858
2748.000000	98.251266
2747.000000	98.249755
2746.000000	98.250192
2745.000000	98.253829
2744.000000	98.259164
2743.000000	98.263493
2742.000000	98.265650
2741.000000	98.267003
2740.000000	98.269732
2739.000000	98.274521
2738.000000	98.280212
2737.000000	98.285461
2736.000000	98.290069
2735.000000	98.294448
2734.000000	98.298388
2733.000000	98.301152
2732.000000	98.302776
2731.000000	98.304551
2730.000000	98.307781
2729.000000	98.312368
2728.000000	98.316866
2727.000000	98.319669
2726.000000	98.320064
2725.000000	98.318739
2724.000000	98.317733
2723.000000	98.319338
2722.000000	98.324231
2721.000000	98.330670
2720.000000	98.336008
2719.000000	98.338985
2718.000000	98.340252
2717.000000	98.341000
2716.000000	98.341812
2715.000000	98.342748
2714.000000	98.343694
2713.000000	98.344313
2712.000000	98.344254
2711.000000	98.343790
2710.000000	98.343992
2709.000000	98.345960
2708.000000	98.350037
2707.000000	98.355729
2706.000000	98.361934
2705.000000	98.367104
2704.000000	98.369872
2703.000000	98.370120
2702.000000	98.369256
2701.000000	98.369018
2700.000000	98.370137
2699.000000	98.372364
2698.000000	98.375326
2697.000000	98.378687
2696.000000	98.381684
2695.000000	98.383492
2694.000000	98.384390
2693.000000	98.385841
2692.000000	98.388806
2691.000000	98.392368
2690.000000	98.394706
2689.000000	98.395195
2688.000000	98.394860
2687.000000	98.394828
2686.000000	98.395150
2685.000000	98.395262
2684.000000	98.394597
2683.000000	98.392290
2682.000000	98.387443
2681.000000	98.380917
2680.000000	98.376219
2679.000000	98.376865
2678.000000	98.382497
2677.000000	98.388839
2676.000000	98.392200
2675.000000	98.393095
2674.000000	98.394795
2673.000000	98.399206
2672.000000	98.405087
2671.000000	98.409657
2670.000000	98.410812
2669.000000	98.408120
2668.000000	98.403035
2667.000000	98.398402
2666.000000	98.396618
2665.000000	98.397636
2664.000000	98.399209
2663.000000	98.399380
2662.000000	98.398314
2661.000000	98.397613
2660.000000	98.398492
2659.000000	98.400888
2658.000000	98.403633
2657.000000	98.404953
2656.000000	98.403563
2655.000000	98.400255
2654.000000	98.398230
2653.000000	98.400822
2652.000000	98.408421
2651.000000	98.418005
2650.000000	98.425944
2649.000000	98.431087
2648.000000	98.435041
2647.000000	98.439790
2646.000000	98.445344
2645.000000	98.449699
2644.000000	98.450911
2643.000000	98.449123
2642.000000	98.446687
2641.000000	98.446544
2640.000000	98.450514
2639.000000	98.458559
2638.000000	98.468800
2637.000000	98.478131
2636.000000	98.483845
2635.000000	98.485570
2634.000000	98.485463
2633.000000	98.486098
2632.000000	98.488500
2631.000000	98.492568
2630.000000	98.498570
2629.000000	98.506951
2628.000000	98.516799
2627.000000	98.525708
2626.000000	98.531443
2625.000000	98.533188
2624.000000	98.531506
2623.000000	98.528399
2622.000000	98.527403
2621.000000	98.531681
2620.000000	98.540781
2619.000000	98.550266
2618.000000	98.555799
2617.000000	98.557297
2616.000000	98.558550
2615.000000	98.563566
2614.000000	98.573728
2613.000000	98.587108
2612.000000	98.599275
2611.000000	98.605913
2610.000000	98.606375
2609.000000	98.604244
2608.000000	98.603109
2607.000000	98.602678
2606.000000	98.600880
2605.000000	98.598621
2604.000000	98.599560
2603.000000	98.605160
2602.000000	98.612695
2601.000000	98.618935
2600.000000	98.623217
2599.000000	98.625823
2598.000000	98.625871
2597.000000	98.622734
2596.000000	98.617970
2595.000000	98.613929
2594.000000	98.611550
2593.000000	98.610770
2592.000000	98.611651
2591.000000	98.613561
2590.000000	98.614809
2589.000000	98.615014
2588.000000	98.616567
2587.000000	98.621464
2586.000000	98.627873
2585.000000	98.632621
2584.000000	98.636444
2583.000000	98.643344
2582.000000	98.653953
2581.000000	98.662752
2580.000000	98.664089
2579.000000	98.659564
2578.000000	98.656937
2577.000000	98.661720
2576.000000	98.671543
2575.000000	98.679415
2574.000000	98.681608
2573.000000	98.680898
2572.000000	98.682000
2571.000000	98.685569
2570.000000	98.688461
2569.000000	98.689236
2568.000000	98.690611
2567.000000	98.695334
2566.000000	98.701906
2565.000000	98.706628
2564.000000	98.708796
2563.000000	98.711347
2562.000000	98.716280
2561.000000	98.721404
2560.000000	98.722293
2559.000000	98.716663
2558.000000	98.706838
2557.000000	98.698917
2556.000000	98.699058
2555.000000	98.708737
2554.000000	98.722800
2553.000000	98.733034
2552.000000	98.734570
2551.000000	98.729262
2550.000000	98.723525
2549.000000	98.723302
2548.000000	98.730041
2547.000000	98.739747
2546.000000	98.745819
2545.000000	98.744217
2544.000000	98.736835
2543.000000	98.729801
2542.000000	98.728494
2541.000000	98.734031
2540.000000	98.743436
2539.000000	98.752096
2538.000000	98.756618
2537.000000	98.757075
2536.000000	98.757083
2535.000000	98.760761
2534.000000	98.768884
2533.000000	98.778030
2532.000000	98.783470
2531.000000	98.782881
2530.000000	98.777623
2529.000000	98.771030
2528.000000	98.765618
2527.000000	98.761541
2526.000000	98.757385
2525.000000	98.752044
2524.000000	98.745664
2523.000000	98.739572
2522.000000	98.736127
2521.000000	98.737917
2520.000000	98.745465
2519.000000	98.755817
2518.000000	98.764926
2517.000000	98.771608
2516.000000	98.777550
2515.000000	98.783336
2514.000000	98.786827
2513.000000	98.786500
2512.000000	98.784403
2511.000000	98.784229
2510.000000	98.787823
2509.000000	98.794645
2508.000000	98.803050
2507.000000	98.810691
2506.000000	98.815246
2505.000000	98.816553
2504.000000	98.816930
2503.000000	98.817948
2502.000000	98.818250
2501.000000	98.816039
2500.000000	98.812063
2499.000000	98.808055
2498.000000	98.803763
2497.000000	98.798195
2496.000000	98.793007
2495.000000	98.791866
2494.000000	98.796147
2493.000000	98.803010
2492.000000	98.807946
2491.000000	98.808256
2490.000000	98.804476
2489.000000	98.799848
2488.000000	98.798078
2487.000000	98.800508
2486.000000	98.805833
2485.000000	98.812725
2484.000000	98.821015
2483.000000	98.829203
2482.000000	98.833365
2481.000000	98.831611
2480.000000	98.828661
2479.000000	98.832744
2478.000000	98.847259
2477.000000	98.866973
2476.000000	98.882117
2475.000000	98.885536
2474.000000	98.877186
2473.000000	98.863936
2472.000000	98.854534
2471.000000	98.852382
2470.000000	98.853142
2469.000000	98.850641
2468.000000	98.844286
2467.000000	98.839086
2466.000000	98.839506
2465.000000	98.845553
2464.000000	98.853867
2463.000000	98.859798
2462.000000	98.858908
2461.000000	98.849766
2460.000000	98.836374
2459.000000	98.825678
2458.000000	98.821616
2457.000000	98.822759
2456.000000	98.825834
2455.000000	98.829643
2454.000000	98.834701
2453.000000	98.840717
2452.000000	98.846092
2451.000000	98.849905
2450.000000	98.853489
2449.000000	98.859068
2448.000000	98.866376
2447.000000	98.871490
2446.000000	98.870700
2445.000000	98.865277
2444.000000	98.860209
2443.000000	98.858094
2442.000000	98.857014
2441.000000	98.855089
2440.000000	98.853529
2439.000000	98.853210
2438.000000	98.851903
2437.000000	98.848239
2436.000000	98.845640
2435.000000	98.848202
2434.000000	98.854385
2433.000000	98.858864
2432.000000	98.859653
2431.000000	98.859783
2430.000000	98.862445
2429.000000	98.867915
2428.000000	98.874867
2427.000000	98.881447
2426.000000	98.885163
2425.000000	98.884676
2424.000000	98.881841
2423.000000	98.879768
2422.000000	98.879381
2421.000000	98.880124
2420.000000	98.882673
2419.000000	98.887646
2418.000000	98.892597
2417.000000	98.894127
2416.000000	98.892905
2415.000000	98.893014
2414.000000	98.896044
2413.000000	98.899103
2412.000000	98.899328
2411.000000	98.897526
2410.000000	98.896552
2409.000000	98.898366
2408.000000	98.903062
2407.000000	98.908580
2406.000000	98.911242
2405.000000	98.908865
2404.000000	98.903690
2403.000000	98.900198
2402.000000	98.900080
2401.000000	98.901404
2400.000000	98.902364
2399.000000	98.903329
2398.000000	98.905081
2397.000000	98.907224
2396.000000	98.908606
2395.000000	98.907681
2394.000000	98.902989
2393.000000	98.895619
2392.000000	98.890473
2391.000000	98.892339
2390.000000	98.900007
2389.000000	98.906422
2388.000000	98.905722
2387.000000	98.898192
2386.000000	98.889673
2385.000000	98.887253
2384.000000	98.895116
2383.000000	98.912720
2382.000000	98.934823
2381.000000	98.955619
2380.000000	98.971386
2379.000000	98.978783
2378.000000	98.973798
2377.000000	98.954602
2376.000000	98.924731
2375.000000	98.891218
2374.000000	98.863064
2373.000000	98.851662
2372.000000	98.865612
2371.000000	98.898120
2370.000000	98.926415
2369.000000	98.932385
2368.000000	98.918080
2367.000000	98.899089
2366.000000	98.887931
2365.000000	98.887557
2364.000000	98.893765
2363.000000	98.896314
2362.000000	98.885381
2361.000000	98.860961
2360.000000	98.832120
2359.000000	98.807869
2358.000000	98.794575
2357.000000	98.798121
2356.000000	98.812682
2355.000000	98.823769
2354.000000	98.833845
2353.000000	98.857480
2352.000000	98.886116
2351.000000	98.891043
2350.000000	98.864134
2349.000000	98.824052
2348.000000	98.796031
2347.000000	98.795251
2346.000000	98.811434
2345.000000	98.813570
2344.000000	98.788522
2343.000000	98.757890
2342.000000	98.745912
2341.000000	98.755842
2340.000000	98.772423
2339.000000	98.780044
2338.000000	98.778364
2337.000000	98.775946
2336.000000	98.776310
2335.000000	98.777890
2334.000000	98.784188
2333.000000	98.801311
2332.000000	98.824366
2331.000000	98.839953
2330.000000	98.839982
2329.000000	98.823794
2328.000000	98.793316
2327.000000	98.753667
2326.000000	98.716983
2325.000000	98.696176
2324.000000	98.695425
2323.000000	98.709978
2322.000000	98.728817
2321.000000	98.738637
2320.000000	98.730397
2319.000000	98.706988
2318.000000	98.682610
2317.000000	98.672419
2316.000000	98.683777
2315.000000	98.713553
2314.000000	98.749232
2313.000000	98.774461
2312.000000	98.780112
2311.000000	98.772606
2310.000000	98.767584
2309.000000	98.773996
2308.000000	98.787918
2307.000000	98.800896
2306.000000	98.809540
2305.000000	98.816239
2304.000000	98.824205
2303.000000	98.834187
2302.000000	98.843803
2301.000000	98.849286
2300.000000	98.849619
2299.000000	98.847909
2298.000000	98.847204
2297.000000	98.846779
2296.000000	98.844290
2295.000000	98.840367
2294.000000	98.837589
2293.000000	98.835625
2292.000000	98.831007
2291.000000	98.822315
2290.000000	98.812666
2289.000000	98.806381
2288.000000	98.805530
2287.000000	98.810224
2286.000000	98.819669
2285.000000	98.831720
2284.000000	98.843390
2283.000000	98.852559
2282.000000	98.859137
2281.000000	98.865303
2280.000000	98.875321
2279.000000	98.892872
2278.000000	98.916095
2277.000000	98.936714
2276.000000	98.946068
2275.000000	98.941514
2274.000000	98.926318
2273.000000	98.905616
2272.000000	98.884870
2271.000000	98.870105
2270.000000	98.866246
2269.000000	98.874948
2268.000000	98.894398
2267.000000	98.919409
2266.000000	98.940874
2265.000000	98.949241
2264.000000	98.943058
2263.000000	98.932023
2262.000000	98.927865
2261.000000	98.933351
2260.000000	98.942346
2259.000000	98.948526
2258.000000	98.950465
2257.000000	98.950357
2256.000000	98.951758
2255.000000	98.957206
2254.000000	98.964673
2253.000000	98.967948
2252.000000	98.964446
2251.000000	98.961051
2250.000000	98.967517
2249.000000	98.985037
2248.000000	99.004535
2247.000000	99.016803
2246.000000	99.020870
2245.000000	99.021098
2244.000000	99.019849
2243.000000	99.015373
2242.000000	99.006543
2241.000000	98.997189
2240.000000	98.992834
2239.000000	98.992403
2238.000000	98.987090
2237.000000	98.971571
2236.000000	98.953485
2235.000000	98.945709
2234.000000	98.950707
2233.000000	98.959669
2232.000000	98.966203
2231.000000	98.971885
2230.000000	98.976818
2229.000000	98.975387
2228.000000	98.967136
2227.000000	98.963127
2226.000000	98.973785
2225.000000	98.995294
2224.000000	99.013604
2223.000000	99.017289
2222.000000	99.002990
2221.000000	98.976272
2220.000000	98.953250
2219.000000	98.952456
2218.000000	98.975707
2217.000000	99.001729
2216.000000	99.006905
2215.000000	98.988133
2214.000000	98.958000
2213.000000	98.925887
2212.000000	98.895848
2211.000000	98.876740
2210.000000	98.878431
2209.000000	98.896706
2208.000000	98.914457
2207.000000	98.921490
2206.000000	98.923708
2205.000000	98.930008
2204.000000	98.940057
2203.000000	98.949286
2202.000000	98.957474
2201.000000	98.966746
2200.000000	98.977295
2199.000000	98.990070
2198.000000	99.007715
2197.000000	99.026919
2196.000000	99.034595
2195.000000	99.020175
2194.000000	98.992272
2193.000000	98.977039
2192.000000	98.994788
2191.000000	99.037910
2190.000000	99.075009
2189.000000	99.078424
2188.000000	99.048641
2187.000000	99.011875
2186.000000	98.995907
2185.000000	99.010642
2184.000000	99.047138
2183.000000	99.087761
2182.000000	99.115399
2181.000000	99.120546
2180.000000	99.107303
2179.000000	99.090037
2178.000000	99.079760
2177.000000	99.074967
2176.000000	99.067092
2175.000000	99.053264
2174.000000	99.042059
2173.000000	99.046395
2172.000000	99.070208
2171.000000	99.101240
2170.000000	99.117814
2169.000000	99.106591
2168.000000	99.076679
2167.000000	99.052870
2166.000000	99.053038
2165.000000	99.072712
2164.000000	99.089591
2163.000000	99.083318
2162.000000	99.055750
2161.000000	99.038968
2160.000000	99.078899
2159.000000	99.193051
2158.000000	99.340899
2157.000000	99.454574
2156.000000	99.499363
2155.000000	99.486673
2154.000000	99.441534
2153.000000	99.383264
2152.000000	99.328180
2151.000000	99.288758
2150.000000	99.267578
2149.000000	99.260388
2148.000000	99.265849
2147.000000	99.284923
2146.000000	99.310108
2145.000000	99.324203
2144.000000	99.314752
2143.000000	99.285289
2142.000000	99.250128
2141.000000	99.222102
2140.000000	99.205427
2139.000000	99.196685
2138.000000	99.191480
2137.000000	99.190337
2136.000000	99.196471
2135.000000	99.207038
2134.000000	99.211652
2133.000000	99.203896
2132.000000	99.190192
2131.000000	99.181894
2130.000000	99.181350
2129.000000	99.180322
2128.000000	99.169471
2127.000000	99.145307
2126.000000	99.110641
2125.000000	99.073728
2124.000000	99.045677
2123.000000	99.033421
2122.000000	99.034852
2121.000000	99.043011
2120.000000	99.052855
2119.000000	99.060760
2118.000000	99.060528
2117.000000	99.046294
2116.000000	99.019883
2115.000000	98.990881
2114.000000	98.969255
2113.000000	98.960799
2112.000000	98.967557
2111.000000	98.987141
2110.000000	99.011433
2109.000000	99.030718
2108.000000	99.040710
2107.000000	99.043071
2106.000000	99.039593
2105.000000	99.029833
2104.000000	99.014147
2103.000000	98.995168
2102.000000	98.976610
2101.000000	98.963674
2100.000000	98.962549
2099.000000	98.975554
2098.000000	98.997924
2097.000000	99.022349
2096.000000	99.044444
2095.000000	99.059783
2094.000000	99.060309
2093.000000	99.041861
2092.000000	99.013217
2091.000000	98.990022
2090.000000	98.980493
2089.000000	98.981909
2088.000000	98.988136
2087.000000	98.993544
2086.000000	98.991483
2085.000000	98.978671
2084.000000	98.962316
2083.000000	98.954673
2082.000000	98.958321
2081.000000	98.963484
2080.000000	98.961075
2079.000000	98.952135
2078.000000	98.943729
2077.000000	98.942836
2076.000000	98.955994
2075.000000	98.986281
2074.000000	99.027049
2073.000000	99.064294
2072.000000	99.087941
2071.000000	99.097135
2070.000000	99.094559
2069.000000	99.084000
2068.000000	99.075115
2067.000000	99.080286
2066.000000	99.101362
2065.000000	99.124482
2064.000000	99.133138
2063.000000	99.123402
2062.000000	99.103935
2061.000000	99.087225
2060.000000	99.081353
2059.000000	99.083321
2058.000000	99.080510
2057.000000	99.064079
2056.000000	99.039652
2055.000000	99.018643
2054.000000	99.002656
2053.000000	98.986412
2052.000000	98.972811
2051.000000	98.972031
2050.000000	98.984113
2049.000000	98.994237
2048.000000	98.993049
2047.000000	98.992338
2046.000000	99.009906
2045.000000	99.048728
2044.000000	99.100690
2043.000000	99.159572
2042.000000	99.218345
2041.000000	99.261226
2040.000000	99.272251
2039.000000	99.250164
2038.000000	99.209259
2037.000000	99.170862
2036.000000	99.152115
2035.000000	99.152313
2034.000000	99.151002
2033.000000	99.129816
2032.000000	99.097336
2031.000000	99.082762
2030.000000	99.108273
2029.000000	99.175757
2028.000000	99.269841
2027.000000	99.359824
2026.000000	99.406227
2025.000000	99.388967
2024.000000	99.333012
2023.000000	99.287024
2022.000000	99.274886
2021.000000	99.283322
2020.000000	99.291824
2019.000000	99.295334
2018.000000	99.298223
2017.000000	99.305620
2016.000000	99.322161
2015.000000	99.341897
2014.000000	99.343571
2013.000000	99.314959
2012.000000	99.276900
2011.000000	99.262039
2010.000000	99.274236
2009.000000	99.292184
2008.000000	99.309708
2007.000000	99.341774
2006.000000	99.385802
2005.000000	99.410684
2004.000000	99.396499
2003.000000	99.361362
2002.000000	99.337950
2001.000000	99.342196
2000.000000	99.367884
1999.000000	99.394424
1998.000000	99.398857
1997.000000	99.372723
1996.000000	99.331435
1995.000000	99.298528
1994.000000	99.282856
1993.000000	99.277491
1992.000000	99.273743
1991.000000	99.265779
1990.000000	99.246168
1989.000000	99.214282
1988.000000	99.186912
1987.000000	99.182293
1986.000000	99.195012
1985.000000	99.203071
1984.000000	99.196249
1983.000000	99.181025
1982.000000	99.161525
1981.000000	99.139004
1980.000000	99.128354
1979.000000	99.149087
1978.000000	99.198531
1977.000000	99.255773
1976.000000	99.314836
1975.000000	99.382882
1974.000000	99.442320
1973.000000	99.455199
1972.000000	99.415737
1971.000000	99.362992
1970.000000	99.329077
1969.000000	99.303927
1968.000000	99.264300
1967.000000	99.217016
1966.000000	99.194084
1965.000000	99.217139
1964.000000	99.282787
1963.000000	99.369400
1962.000000	99.443813
1961.000000	99.474594
1960.000000	99.455838
1959.000000	99.411989
1958.000000	99.373468
1957.000000	99.356062
1956.000000	99.360293
1955.000000	99.373987
1954.000000	99.375937
1953.000000	99.352427
1952.000000	99.314991
1951.000000	99.290807
1950.000000	99.290718
1949.000000	99.300482
1948.000000	99.305465
1947.000000	99.306898
1946.000000	99.309024
1945.000000	99.305945
1944.000000	99.291140
1943.000000	99.270105
1942.000000	99.254687
1941.000000	99.251475
1940.000000	99.260297
1939.000000	99.276875
1938.000000	99.292560
1937.000000	99.297551
1936.000000	99.291109
1935.000000	99.283405
1934.000000	99.283485
1933.000000	99.289755
1932.000000	99.295778
1931.000000	99.299434
1930.000000	99.298130
1929.000000	99.289177
1928.000000	99.276759
1927.000000	99.268994
1926.000000	99.267005
1925.000000	99.262073
1924.000000	99.251148
1923.000000	99.242692
1922.000000	99.242324
1921.000000	99.245799
1920.000000	99.248572
1919.000000	99.252557
1918.000000	99.256148
1917.000000	99.249858
1916.000000	99.233214
1915.000000	99.218163
1914.000000	99.214301
1913.000000	99.220227
1912.000000	99.227862
1911.000000	99.233021
1910.000000	99.235911
1909.000000	99.239216
1908.000000	99.246461
1907.000000	99.257647
1906.000000	99.266702
1905.000000	99.265663
1904.000000	99.257335
1903.000000	99.252720
1902.000000	99.254964
1901.000000	99.259091
1900.000000	99.262834
1899.000000	99.269194
1898.000000	99.278553
1897.000000	99.283754
1896.000000	99.279886
1895.000000	99.271551
1894.000000	99.265679
1893.000000	99.265014
1892.000000	99.269141
1891.000000	99.276197
1890.000000	99.281287
1889.000000	99.279345
1888.000000	99.273410
1887.000000	99.269383
1886.000000	99.265942
1885.000000	99.259358
1884.000000	99.253043
1883.000000	99.254777
1882.000000	99.264930
1881.000000	99.277262
1880.000000	99.287148
1879.000000	99.291779
1878.000000	99.287901
1877.000000	99.274151
1876.000000	99.257050
1875.000000	99.249098
1874.000000	99.256235
1873.000000	99.272635
1872.000000	99.288983
1871.000000	99.300117
1870.000000	99.305269
1869.000000	99.306194
1868.000000	99.308074
1867.000000	99.311714
1866.000000	99.305771
1865.000000	99.283625
1864.000000	99.258267
1863.000000	99.249325
1862.000000	99.261292
1861.000000	99.280334
1860.000000	99.291620
1859.000000	99.291748
1858.000000	99.284674
1857.000000	99.277629
1856.000000	99.279509
1855.000000	99.293769
1854.000000	99.311470
1853.000000	99.320985
1852.000000	99.320155
1851.000000	99.311756
1850.000000	99.301311
1849.000000	99.298209
1848.000000	99.311459
1847.000000	99.337372
1846.000000	99.357773
1845.000000	99.355969
1844.000000	99.336224
1843.000000	99.321762
1842.000000	99.321792
1841.000000	99.324865
1840.000000	99.322654
1839.000000	99.318212
1838.000000	99.315287
1837.000000	99.312254
1836.000000	99.311492
1835.000000	99.319412
1834.000000	99.335524
1833.000000	99.353123
1832.000000	99.364934
1831.000000	99.367472
1830.000000	99.363427
1829.000000	99.356409
1828.000000	99.349089
1827.000000	99.342097
1826.000000	99.335089
1825.000000	99.328709
1824.000000	99.325216
1823.000000	99.327560
1822.000000	99.332548
1821.000000	99.334430
1820.000000	99.332368
1819.000000	99.331238
1818.000000	99.333875
1817.000000	99.335727
1816.000000	99.336957
1815.000000	99.342665
1814.000000	99.351344
1813.000000	99.355101
1812.000000	99.349679
1811.000000	99.343732
1810.000000	99.342962
1809.000000	99.338557
1808.000000	99.327190
1807.000000	99.317868
1806.000000	99.314745
1805.000000	99.310786
1804.000000	99.304946
1803.000000	99.307952
1802.000000	99.326648
1801.000000	99.349536
1800.000000	99.358311
1799.000000	99.353434
1798.000000	99.346338
1797.000000	99.344237
1796.000000	99.351213
1795.000000	99.365173
1794.000000	99.377557
1793.000000	99.377419
1792.000000	99.362194
1791.000000	99.346706
1790.000000	99.340178
1789.000000	99.334603
1788.000000	99.325176
1787.000000	99.317081
1786.000000	99.315166
1785.000000	99.317602
1784.000000	99.324303
1783.000000	99.333118
1782.000000	99.336264
1781.000000	99.332704
1780.000000	99.329390
1779.000000	99.336575
1778.000000	99.354966
1777.000000	99.377402
1776.000000	99.397893
1775.000000	99.410012
1774.000000	99.413714
1773.000000	99.414887
1772.000000	99.414787
1771.000000	99.411500
1770.000000	99.398846
1769.000000	99.370319
1768.000000	99.340180
1767.000000	99.332798
1766.000000	99.349554
1765.000000	99.366681
1764.000000	99.365808
1763.000000	99.350394
1762.000000	99.334924
1761.000000	99.327471
1760.000000	99.324724
1759.000000	99.320943
1758.000000	99.308922
1757.000000	99.289383
1756.000000	99.269545
1755.000000	99.250746
1754.000000	99.224949
1753.000000	99.189579
1752.000000	99.159234
1751.000000	99.149067
1750.000000	99.152101
1749.000000	99.141534
1748.000000	99.105200
1747.000000	99.055966
1746.000000	99.012153
1745.000000	98.979332
1744.000000	98.953610
1743.000000	98.937347
1742.000000	98.931124
1741.000000	98.921004
1740.000000	98.900826
1739.000000	98.892298
1738.000000	98.907783
1737.000000	98.922472
1736.000000	98.916901
1735.000000	98.913476
1734.000000	98.936438
1733.000000	98.977092
1732.000000	99.021391
1731.000000	99.054958
1730.000000	99.067014
1729.000000	99.068598
1728.000000	99.074213
1727.000000	99.084881
1726.000000	99.095857
1725.000000	99.102237
1724.000000	99.099347
1723.000000	99.095838
1722.000000	99.098806
1721.000000	99.093747
1720.000000	99.056143
1719.000000	98.988940
1718.000000	98.932356
1717.000000	98.901925
1716.000000	98.879078
1715.000000	98.852671
1714.000000	98.811780
1713.000000	98.753575
1712.000000	98.692774
1711.000000	98.644339
1710.000000	98.613402
1709.000000	98.598785
1708.000000	98.590864
1707.000000	98.575396
1706.000000	98.550347
1705.000000	98.524032
1704.000000	98.504396
1703.000000	98.480540
1702.000000	98.441456
1701.000000	98.373365
1700.000000	98.274093
1699.000000	98.181412
1698.000000	98.088866
1697.000000	97.952454
1696.000000	97.798532
1695.000000	97.704812
1694.000000	97.681191
1693.000000	97.660539
1692.000000	97.598919
1691.000000	97.515420
1690.000000	97.443305
1689.000000	97.383195
1688.000000	97.310313
1687.000000	97.209743
1686.000000	97.098994
1685.000000	96.990705
1684.000000	96.893065
1683.000000	96.823261
1682.000000	96.752712
1681.000000	96.637790
1680.000000	96.489553
1679.000000	96.349525
1678.000000	96.227452
1677.000000	96.097220
1676.000000	95.937462
1675.000000	95.764388
1674.000000	95.610943
1673.000000	95.476489
1672.000000	95.332515
1671.000000	95.170238
1670.000000	94.994368
1669.000000	94.805802
1668.000000	94.613814
1667.000000	94.435879
1666.000000	94.276680
1665.000000	94.121565
1664.000000	93.957301
1663.000000	93.788288
1662.000000	93.623178
1661.000000	93.460991
1660.000000	93.297984
1659.000000	93.143928
1658.000000	93.012732
1657.000000	92.889759
1656.000000	92.738196
1655.000000	92.551976
1654.000000	92.400808
1653.000000	92.347096
1652.000000	92.340166
1651.000000	92.339814
1650.000000	92.331046
1649.000000	92.275562
1648.000000	92.199320
1647.000000	92.156582
1646.000000	92.141396
1645.000000	92.106676
1644.000000	92.050454
1643.000000	91.989903
1642.000000	91.930602
1641.000000	91.878723
1640.000000	91.833408
1639.000000	91.785582
1638.000000	91.731374
1637.000000	91.687838
1636.000000	91.677499
1635.000000	91.678638
1634.000000	91.650967
1633.000000	91.585432
1632.000000	91.498256
1631.000000	91.416462
1630.000000	91.364189
1629.000000	91.349052
1628.000000	91.363672
1627.000000	91.391589
1626.000000	91.420644
1625.000000	91.459427
1624.000000	91.534825
1623.000000	91.658782
1622.000000	91.792193
1621.000000	91.887818
1620.000000	91.937149
1619.000000	91.968202
1618.000000	92.046783
1617.000000	92.234361
1616.000000	92.492913
1615.000000	92.720007
1614.000000	92.878601
1613.000000	92.997910
1612.000000	93.122801
1611.000000	93.277428
1610.000000	93.449011
1609.000000	93.618889
1608.000000	93.784769
1607.000000	93.944839
1606.000000	94.089958
1605.000000	94.223851
1604.000000	94.358927
1603.000000	94.497226
1602.000000	94.629920
1601.000000	94.752654
1600.000000	94.869349
1599.000000	94.979206
1598.000000	95.077480
1597.000000	95.166229
1596.000000	95.252738
1595.000000	95.335892
1594.000000	95.405755
1593.000000	95.461096
1592.000000	95.511155
1591.000000	95.558240
1590.000000	95.593851
1589.000000	95.615118
1588.000000	95.628014
1587.000000	95.635019
1586.000000	95.631912
1585.000000	95.620973
1584.000000	95.607133
1583.000000	95.580280
1582.000000	95.531917
1581.000000	95.474514
1580.000000	95.418612
1579.000000	95.348459
1578.000000	95.251446
1577.000000	95.153360
1576.000000	95.096578
1575.000000	95.079723
1574.000000	95.063445
1573.000000	95.019764
1572.000000	94.946350
1571.000000	94.860084
1570.000000	94.767573
1569.000000	94.668220
1568.000000	94.564384
1567.000000	94.451704
1566.000000	94.327249
1565.000000	94.201175
1564.000000	94.084136
1563.000000	93.958848
1562.000000	93.806703
1561.000000	93.646963
1560.000000	93.526929
1559.000000	93.481816
1558.000000	93.442007
1557.000000	93.343036
1556.000000	93.206131
1555.000000	93.048858
1554.000000	92.903067
1553.000000	92.783039
1552.000000	92.677699
1551.000000	92.576762
1550.000000	92.492660
1549.000000	92.429860
1548.000000	92.373928
1547.000000	92.314054
1546.000000	92.262531
1545.000000	92.241168
1544.000000	92.242548
1543.000000	92.234379
1542.000000	92.205642
1541.000000	92.191837
1540.000000	92.242700
1539.000000	92.328832
1538.000000	92.396537
1537.000000	92.439414
1536.000000	92.460063
1535.000000	92.487702
1534.000000	92.575797
1533.000000	92.716001
1532.000000	92.827879
1531.000000	92.887723
1530.000000	92.933323
1529.000000	92.992076
1528.000000	93.074738
1527.000000	93.187758
1526.000000	93.323465
1525.000000	93.444773
1524.000000	93.519020
1523.000000	93.568680
1522.000000	93.664722
1521.000000	93.815335
1520.000000	93.945624
1519.000000	94.026262
1518.000000	94.088952
1517.000000	94.167275
1516.000000	94.256483
1515.000000	94.326353
1514.000000	94.377635
1513.000000	94.434007
1512.000000	94.511135
1511.000000	94.601515
1510.000000	94.684304
1509.000000	94.756520
1508.000000	94.858988
1507.000000	95.034685
1506.000000	95.220356
1505.000000	95.342233
1504.000000	95.418946
1503.000000	95.477660
1502.000000	95.535550
1501.000000	95.608239
1500.000000	95.694918
1499.000000	95.777136
1498.000000	95.855118
1497.000000	95.940085
1496.000000	96.031474
1495.000000	96.128091
1494.000000	96.224419
1493.000000	96.306300
1492.000000	96.374003
1491.000000	96.453389
1490.000000	96.559791
1489.000000	96.654930
1488.000000	96.701247
1487.000000	96.716865
1486.000000	96.722026
1485.000000	96.718697
1484.000000	96.709079
1483.000000	96.697909
1482.000000	96.692388
1481.000000	96.686984
1480.000000	96.670509
1479.000000	96.642686
1478.000000	96.612221
1477.000000	96.580637
1476.000000	96.541917
1475.000000	96.493297
1474.000000	96.433396
1473.000000	96.349402
1472.000000	96.232748
1471.000000	96.108736
1470.000000	95.995434
1469.000000	95.883940
1468.000000	95.773121
1467.000000	95.675769
1466.000000	95.598944
1465.000000	95.535783
1464.000000	95.472948
1463.000000	95.410632
1462.000000	95.356198
1461.000000	95.303909
1460.000000	95.240997
1459.000000	95.165315
1458.000000	95.097268
1457.000000	95.039085
1456.000000	94.976891
1455.000000	94.925472
1454.000000	94.886065
1453.000000	94.843626
1452.000000	94.807135
1451.000000	94.790112
1450.000000	94.791789
1449.000000	94.803512
1448.000000	94.826880
1447.000000	94.862808
1446.000000	94.902204
1445.000000	94.941471
1444.000000	94.982126
1443.000000	95.029109
1442.000000	95.085965
1441.000000	95.148171
1440.000000	95.203446
1439.000000	95.248502
1438.000000	95.307877
1437.000000	95.411607
1436.000000	95.539838
1435.000000	95.640144
1434.000000	95.700643
1433.000000	95.740867
1432.000000	95.781649
1431.000000	95.832374
1430.000000	95.887974
1429.000000	95.935764
1428.000000	95.965317
1427.000000	95.974832
1426.000000	95.971297
1425.000000	95.974742
1424.000000	95.994778
1423.000000	96.014767
1422.000000	96.016615
1421.000000	96.006626
1420.000000	96.009507
1419.000000	96.039043
1418.000000	96.082724
1417.000000	96.116878
1416.000000	96.128653
1415.000000	96.122096
1414.000000	96.110929
1413.000000	96.103410
1412.000000	96.096147
1411.000000	96.082737
1410.000000	96.064616
1409.000000	96.044305
1408.000000	96.020964
1407.000000	95.996227
1406.000000	95.975291
1405.000000	95.963481
1404.000000	95.955705
1403.000000	95.944284
1402.000000	95.931062
1401.000000	95.923832
1400.000000	95.930329
1399.000000	95.947364
1398.000000	95.961052
1397.000000	95.961636
1396.000000	95.951940
1395.000000	95.939108
1394.000000	95.928883
1393.000000	95.923985
1392.000000	95.918646
1391.000000	95.905694
1390.000000	95.884563
1389.000000	95.861882
1388.000000	95.847214
1387.000000	95.843559
1386.000000	95.843252
1385.000000	95.837278
1384.000000	95.823916
1383.000000	95.811228
1382.000000	95.808133
1381.000000	95.812041
1380.000000	95.815627
1379.000000	95.817281
1378.000000	95.820591
1377.000000	95.829783
1376.000000	95.850911
1375.000000	95.890336
1374.000000	95.944332
1373.000000	95.996677
1372.000000	96.036441
1371.000000	96.067581
1370.000000	96.100337
1369.000000	96.145642
1368.000000	96.204824
1367.000000	96.268087
1366.000000	96.326724
1365.000000	96.382158
1364.000000	96.445695
1363.000000	96.523831
1362.000000	96.601844
1361.000000	96.659268
1360.000000	96.694124
1359.000000	96.716557
1358.000000	96.733457
1357.000000	96.745420
1356.000000	96.750780
1355.000000	96.748511
1354.000000	96.737542
1353.000000	96.715062
1352.000000	96.681707
1351.000000	96.643374
1350.000000	96.603806
1349.000000	96.563341
1348.000000	96.518694
1347.000000	96.466665
1346.000000	96.407659
1345.000000	96.346122
1344.000000	96.286886
1343.000000	96.231373
1342.000000	96.178857
1341.000000	96.131488
1340.000000	96.093499
1339.000000	96.063970
1338.000000	96.039334
1337.000000	96.021325
1336.000000	96.016079
1335.000000	96.027825
1334.000000	96.054238
1333.000000	96.089031
1332.000000	96.128558
1331.000000	96.172480
1330.000000	96.220033
1329.000000	96.269142
1328.000000	96.317781
1327.000000	96.362269
1326.000000	96.397011
1325.000000	96.420947
1324.000000	96.438554
1323.000000	96.454245
1322.000000	96.468307
1321.000000	96.479355
1320.000000	96.488008
1319.000000	96.495804
1318.000000	96.502265
1317.000000	96.506027
1316.000000	96.509083
1315.000000	96.517026
1314.000000	96.534216
1313.000000	96.559296
1312.000000	96.587188
1311.000000	96.614479
1310.000000	96.641098
1309.000000	96.666993
1308.000000	96.690160
1307.000000	96.708293
1306.000000	96.720867
1305.000000	96.730405
1304.000000	96.739896
1303.000000	96.750906
1302.000000	96.763098
1301.000000	96.774900
1300.000000	96.785087
1299.000000	96.794087
1298.000000	96.802503
1297.000000	96.808061
1296.000000	96.806499
1295.000000	96.796128
1294.000000	96.780134
1293.000000	96.761667
1292.000000	96.738386
1291.000000	96.704924
1290.000000	96.659918
1289.000000	96.608518
1288.000000	96.558143
1287.000000	96.513580
1286.000000	96.475706
1285.000000	96.442457
1284.000000	96.410574
1283.000000	96.378647
1282.000000	96.349264
1281.000000	96.327533
1280.000000	96.317197
1279.000000	96.317557
1278.000000	96.324279
1277.000000	96.332468
1276.000000	96.339179
1275.000000	96.344009
1274.000000	96.348247
1273.000000	96.353044
1272.000000	96.357377
1271.000000	96.358097
1270.000000	96.352596
1269.000000	96.341027
1268.000000	96.324958
1267.000000	96.304758
1266.000000	96.280212
1265.000000	96.252525
1264.000000	96.224335
1263.000000	96.197899
1262.000000	96.173484
1261.000000	96.149877
1260.000000	96.125392
1259.000000	96.097600
1258.000000	96.063855
1257.000000	96.023008
1256.000000	95.977066
1255.000000	95.930035
1254.000000	95.884238
1253.000000	95.838350
1252.000000	95.789461
1251.000000	95.736017
1250.000000	95.677823
1249.000000	95.614779
1248.000000	95.547621
1247.000000	95.479571
1246.000000	95.415395
1245.000000	95.357279
1244.000000	95.302565
1243.000000	95.246713
1242.000000	95.188688
1241.000000	95.133093
1240.000000	95.086966
1239.000000	95.054012
1238.000000	95.031323
1237.000000	95.013336
1236.000000	94.998878
1235.000000	94.993215
1234.000000	95.003400
1233.000000	95.032212
1232.000000	95.077514
1231.000000	95.134968
1230.000000	95.200510
1229.000000	95.272401
1228.000000	95.351644
1227.000000	95.440488
1226.000000	95.539098
1225.000000	95.643669
1224.000000	95.748344
1223.000000	95.848704
1222.000000	95.943904
1221.000000	96.035805
1220.000000	96.125886
1219.000000	96.212234
1218.000000	96.289744
1217.000000	96.353011
1216.000000	96.399784
1215.000000	96.432706
1214.000000	96.456590
1213.000000	96.473412
1212.000000	96.479649
1211.000000	96.470075
1210.000000	96.444187
1209.000000	96.406856
1208.000000	96.364433
1207.000000	96.322535
1206.000000	96.286840
1205.000000	96.262668
1204.000000	96.252356
1203.000000	96.254473
1202.000000	96.267260
1201.000000	96.292260
1200.000000	96.332043
1199.000000	96.384948
1198.000000	96.444076
1197.000000	96.502819
1196.000000	96.560654
1195.000000	96.621952
1194.000000	96.689574
1193.000000	96.760217
1192.000000	96.826330
1191.000000	96.882954
1190.000000	96.932685
1189.000000	96.982669
1188.000000	97.036121
1187.000000	97.087955
1186.000000	97.129600
1185.000000	97.157652
1184.000000	97.176281
1183.000000	97.192135
1182.000000	97.208376
1181.000000	97.223193
1180.000000	97.233550
1179.000000	97.239504
1178.000000	97.244724
1177.000000	97.252885
1176.000000	97.264381
1175.000000	97.277333
1174.000000	97.290834
1173.000000	97.305673
1172.000000	97.321489
1171.000000	97.335007
1170.000000	97.342651
1169.000000	97.343991
1168.000000	97.341223
1167.000000	97.335889
1166.000000	97.327675
1165.000000	97.316953
1164.000000	97.307355
1163.000000	97.304367
1162.000000	97.310423
1161.000000	97.322104
1160.000000	97.333661
1159.000000	97.343817
1158.000000	97.358039
1157.000000	97.382481
1156.000000	97.416922
1155.000000	97.455513
1154.000000	97.494165
1153.000000	97.534641
1152.000000	97.579963
1151.000000	97.628165
1150.000000	97.672833
1149.000000	97.709178
1148.000000	97.737855
1147.000000	97.763449
1146.000000	97.790668
1145.000000	97.821454
1144.000000	97.854092
1143.000000	97.884281
1142.000000	97.908046
1141.000000	97.924194
1140.000000	97.934651
1139.000000	97.943169
1138.000000	97.953139
1137.000000	97.965475
1136.000000	97.978283
1135.000000	97.989121
1134.000000	97.997017
1133.000000	98.001086
1132.000000	97.998754
1131.000000	97.988000
1130.000000	97.971278
1129.000000	97.954590
1128.000000	97.941764
1127.000000	97.931694
1126.000000	97.921414
1125.000000	97.909648
1124.000000	97.896903
1123.000000	97.884469
1122.000000	97.874379
1121.000000	97.867910
1120.000000	97.862341
1119.000000	97.851343
1118.000000	97.831125
1117.000000	97.805436
1116.000000	97.782184
1115.000000	97.764993
1114.000000	97.749566
1113.000000	97.728621
1112.000000	97.699750
1111.000000	97.667778
1110.000000	97.640059
1109.000000	97.620045
1108.000000	97.605104
1107.000000	97.590416
1106.000000	97.573402
1105.000000	97.554476
1104.000000	97.535477
1103.000000	97.517932
1102.000000	97.502236
1101.000000	97.486446
1100.000000	97.467586
1099.000000	97.446342
1098.000000	97.426329
1097.000000	97.410033
1096.000000	97.395372
1095.000000	97.378675
1094.000000	97.358766
1093.000000	97.335282
1092.000000	97.304361
1091.000000	97.260613
1090.000000	97.203620
1089.000000	97.139334
1088.000000	97.073644
1087.000000	97.007075
1086.000000	96.937332
1085.000000	96.865110
1084.000000	96.796139
1083.000000	96.738253
1082.000000	96.697341
1081.000000	96.675002
1080.000000	96.670232
1079.000000	96.682889
1078.000000	96.714180
1077.000000	96.762546
1076.000000	96.819157
1075.000000	96.871462
1074.000000	96.913026
1073.000000	96.947814
1072.000000	96.983031
1071.000000	97.019526
1070.000000	97.051181
1069.000000	97.071876
1068.000000	97.080508
1067.000000	97.080214
1066.000000	97.075955
1065.000000	97.072311
1064.000000	97.071315
1063.000000	97.071955
1062.000000	97.072029
1061.000000	97.070066
1060.000000	97.065265
1059.000000	97.058303
1058.000000	97.053898
1057.000000	97.059936
1056.000000	97.080035
1055.000000	97.107693
1054.000000	97.131768
1053.000000	97.148266
1052.000000	97.163887
1051.000000	97.186656
1050.000000	97.215942
1049.000000	97.243745
1048.000000	97.263527
1047.000000	97.275711
1046.000000	97.285907
1045.000000	97.299430
1044.000000	97.316874
1043.000000	97.333918
1042.000000	97.345142
1041.000000	97.347936
1040.000000	97.341887
1039.000000	97.325393
1038.000000	97.295933
1037.000000	97.253846
1036.000000	97.203892
1035.000000	97.152106
1034.000000	97.102966
1033.000000	97.060950
1032.000000	97.032566
1031.000000	97.023231
1030.000000	97.031866
1029.000000	97.051776
1028.000000	97.077371
1027.000000	97.108164
1026.000000	97.144844
1025.000000	97.183398
1024.000000	97.215797
1023.000000	97.236392
1022.000000	97.246372
1021.000000	97.251867
1020.000000	97.259371
1019.000000	97.273442
1018.000000	97.296404
1017.000000	97.328071
1016.000000	97.366693
1015.000000	97.411835
1014.000000	97.465893
1013.000000	97.530072
1012.000000	97.599155
1011.000000	97.663839
1010.000000	97.719708
1009.000000	97.771869
1008.000000	97.828372
1007.000000	97.890892
1006.000000	97.954054
1005.000000	98.012046
1004.000000	98.063429
1003.000000	98.110737
1002.000000	98.158327
1001.000000	98.210543
1000.000000	98.269189
999.000000	98.331570
998.000000	98.392026
997.000000	98.445989
996.000000	98.492330
995.000000	98.532805
994.000000	98.570318
993.000000	98.607101
992.000000	98.643547
991.000000	98.678601
990.000000	98.711564
989.000000	98.742675
988.000000	98.771763
987.000000	98.797705
986.000000	98.819315
985.000000	98.835556
984.000000	98.844523
983.000000	98.844230
982.000000	98.835627
981.000000	98.822976
980.000000	98.810200
979.000000	98.797879
978.000000	98.784357
977.000000	98.768018
976.000000	98.747467
975.000000	98.721991
974.000000	98.694182
973.000000	98.671120
972.000000	98.660567
971.000000	98.665681
970.000000	98.683896
969.000000	98.710342
968.000000	98.741139
967.000000	98.773447
966.000000	98.804311
965.000000	98.830710
964.000000	98.851337
963.000000	98.868217
962.000000	98.885419
961.000000	98.904998
960.000000	98.924840
959.000000	98.942008
958.000000	98.957130
957.000000	98.973233
956.000000	98.990554
955.000000	99.005707
954.000000	99.016673
953.000000	99.025568
952.000000	99.035109
951.000000	99.044550
950.000000	99.050708
949.000000	99.051260
948.000000	99.045830
947.000000	99.036043
946.000000	99.025663
945.000000	99.018380
944.000000	99.013902
943.000000	99.007992
942.000000	98.998089
941.000000	98.987153
940.000000	98.980229
939.000000	98.979053
938.000000	98.981930
937.000000	98.987392
936.000000	98.995890
935.000000	99.008868
934.000000	99.027872
933.000000	99.053834
932.000000	99.085142
931.000000	99.116791
930.000000	99.142930
929.000000	99.160287
928.000000	99.169061
927.000000	99.172051
926.000000	99.173856
925.000000	99.179015
924.000000	99.188924
923.000000	99.200885
922.000000	99.211287
921.000000	99.219204
920.000000	99.226495
919.000000	99.235577
918.000000	99.247648
917.000000	99.261669
916.000000	99.274745
915.000000	99.285243
914.000000	99.295992
913.000000	99.312133
912.000000	99.334855
911.000000	99.359520
910.000000	99.380498
909.000000	99.395299
908.000000	99.403008
907.000000	99.402593
906.000000	99.395547
905.000000	99.387015
904.000000	99.381199
903.000000	99.377600
902.000000	99.374494
901.000000	99.373461
900.000000	99.376738
899.000000	99.381774
898.000000	99.382675
897.000000	99.377157
896.000000	99.368818
895.000000	99.363100
894.000000	99.363722
893.000000	99.372519
892.000000	99.388766
891.000000	99.407318
890.000000	99.420049
889.000000	99.421481
888.000000	99.412989
887.000000	99.401320
886.000000	99.393039
885.000000	99.389199
884.000000	99.384785
883.000000	99.374155
882.000000	99.357101
881.000000	99.338070
880.000000	99.318888
879.000000	99.295771
878.000000	99.265721
877.000000	99.232832
876.000000	99.205296
875.000000	99.188387
874.000000	99.183978
873.000000	99.193969
872.000000	99.218636
871.000000	99.251884
870.000000	99.283480
869.000000	99.307399
868.000000	99.324626
867.000000	99.338015
866.000000	99.348435
865.000000	99.356734
864.000000	99.364996
863.000000	99.373524
862.000000	99.379113
861.000000	99.378799
860.000000	99.373528
859.000000	99.366292
858.000000	99.358592
857.000000	99.350462
856.000000	99.342692
855.000000	99.336865
854.000000	99.333159
853.000000	99.329172
852.000000	99.321486
851.000000	99.309433
850.000000	99.298044
849.000000	99.295763
848.000000	99.306653
847.000000	99.325018
846.000000	99.340655
845.000000	99.349707
844.000000	99.357397
843.000000	99.369269
842.000000	99.383141
841.000000	99.392079
840.000000	99.392609
839.000000	99.387349
838.000000	99.381580
837.000000	99.380037
836.000000	99.385663
835.000000	99.397705
834.000000	99.410411
833.000000	99.416571
832.000000	99.414164
831.000000	99.408347
830.000000	99.405969
829.000000	99.408535
828.000000	99.410876
827.000000	99.406656
826.000000	99.395302
825.000000	99.383844
824.000000	99.381081
823.000000	99.388631
822.000000	99.398522
821.000000	99.401040
820.000000	99.394371
819.000000	99.384672
818.000000	99.376993
817.000000	99.369502
816.000000	99.358691
815.000000	99.347969
814.000000	99.346707
813.000000	99.358915
812.000000	99.375726
811.000000	99.382512
810.000000	99.373846
809.000000	99.359387
808.000000	99.353518
807.000000	99.360963
806.000000	99.374007
805.000000	99.382338
804.000000	99.382791
803.000000	99.379212
802.000000	99.376955
801.000000	99.380317
800.000000	99.392314
799.000000	99.411632
798.000000	99.428924
797.000000	99.430980
796.000000	99.412636
795.000000	99.384056
794.000000	99.363622
793.000000	99.362475
792.000000	99.375664
791.000000	99.387270
790.000000	99.384232
789.000000	99.366911
788.000000	99.347800
787.000000	99.339803
786.000000	99.344931
785.000000	99.354448
784.000000	99.359424
783.000000	99.358960
782.000000	99.357865
781.000000	99.359689
780.000000	99.364848
779.000000	99.373131
778.000000	99.383662
777.000000	99.392695
776.000000	99.395415
775.000000	99.390850
774.000000	99.382240
773.000000	99.372504
772.000000	99.362937
771.000000	99.356865
770.000000	99.359479
769.000000	99.371035
768.000000	99.384212
767.000000	99.392423
766.000000	99.398029
765.000000	99.407370
764.000000	99.419341
763.000000	99.424807
762.000000	99.417881
761.000000	99.402996
760.000000	99.389324
759.000000	99.381888
758.000000	99.380203
757.000000	99.382012
756.000000	99.384889
755.000000	99.385788
754.000000	99.382681
753.000000	99.377335
752.000000	99.374368
751.000000	99.376741
750.000000	99.382616
749.000000	99.387169
748.000000	99.387144
747.000000	99.383118
746.000000	99.377667
745.000000	99.372882
744.000000	99.371029
743.000000	99.375729
742.000000	99.388093
741.000000	99.400909
740.000000	99.401516
739.000000	99.384438
738.000000	99.358432
737.000000	99.337839
736.000000	99.329430
735.000000	99.330544
734.000000	99.335845
733.000000	99.339637
732.000000	99.334750
731.000000	99.318082
730.000000	99.296623
729.000000	99.278442
728.000000	99.260712
727.000000	99.234097
726.000000	99.196448
725.000000	99.157130
724.000000	99.126200
723.000000	99.103990
722.000000	99.083507
721.000000	99.060812
720.000000	99.041482
719.000000	99.036353
718.000000	99.051601
717.000000	99.080944
716.000000	99.106060
715.000000	99.110689
714.000000	99.096773
713.000000	99.080702
712.000000	99.072753
711.000000	99.066011
710.000000	99.048012
709.000000	99.015834
708.000000	98.977120
707.000000	98.943453
706.000000	98.922532
705.000000	98.915631
704.000000	98.920254
703.000000	98.930382
702.000000	98.938323
701.000000	98.937677
700.000000	98.924545
699.000000	98.903828
698.000000	98.887595
697.000000	98.882737
696.000000	98.883671
695.000000	98.879029
694.000000	98.871061
693.000000	98.875235
692.000000	98.893414
691.000000	98.907220
690.000000	98.900160
689.000000	98.879447
688.000000	98.867594
687.000000	98.873029
686.000000	98.885720
685.000000	98.892843
684.000000	98.887088
683.000000	98.871063
682.000000	98.856872
681.000000	98.852681
680.000000	98.846448
679.000000	98.819683
678.000000	98.779317
677.000000	98.746601
676.000000	98.727153
675.000000	98.710786
674.000000	98.692130
673.000000	98.680381
672.000000	98.689509
671.000000	98.735751
670.000000	98.831636
669.000000	98.971011
668.000000	99.048165
667.000000	98.947886
666.000000	98.796510
665.000000	98.672985
664.000000	98.570874
663.000000	98.510032
662.000000	98.501454
661.000000	98.529232
660.000000	98.559389
659.000000	98.571294
658.000000	98.564468
657.000000	98.543209
656.000000	98.520760
655.000000	98.518137
654.000000	98.530696
653.000000	98.524305
652.000000	98.486655
651.000000	98.447382
650.000000	98.435443
649.000000	98.442669
648.000000	98.449697
647.000000	98.454944
646.000000	98.459271
645.000000	98.456528
644.000000	98.449991
643.000000	98.452514
642.000000	98.465414
641.000000	98.474340
640.000000	98.473850
639.000000	98.476570
638.000000	98.485902
637.000000	98.486073
636.000000	98.471063
635.000000	98.454560
634.000000	98.444081
633.000000	98.430468
632.000000	98.410470
631.000000	98.397868
630.000000	98.399126
629.000000	98.398949
628.000000	98.384841
627.000000	98.364464
626.000000	98.344134
625.000000	98.316918
624.000000	98.284606
623.000000	98.267303
622.000000	98.277141
621.000000	98.298027
620.000000	98.305357
619.000000	98.294380
618.000000	98.278301
617.000000	98.270269
616.000000	98.276449
615.000000	98.296681
614.000000	98.320315
613.000000	98.331213
612.000000	98.327407
611.000000	98.325953
610.000000	98.337974
609.000000	98.352818
608.000000	98.358790
607.000000	98.364052
606.000000	98.380630
605.000000	98.402330
604.000000	98.412409
603.000000	98.405407
602.000000	98.391327
601.000000	98.382208
600.000000	98.384358
599.000000	98.396996
598.000000	98.413821
597.000000	98.428789
596.000000	98.444051
595.000000	98.467533
594.000000	98.499350
593.000000	98.526790
592.000000	98.536340
591.000000	98.527975
590.000000	98.513440
589.000000	98.504525
588.000000	98.506612
587.000000	98.520162
586.000000	98.544143
585.000000	98.576868
584.000000	98.613786
583.000000	98.642549
582.000000	98.648556
581.000000	98.630142
580.000000	98.603492
579.000000	98.583609
578.000000	98.570565
577.000000	98.563348
576.000000	98.573310
575.000000	98.607522
574.000000	98.646524
573.000000	98.661619
572.000000	98.647076
571.000000	98.617799
570.000000	98.580925
569.000000	98.529362
568.000000	98.464349
567.000000	98.403593
566.000000	98.358959
565.000000	98.324207
564.000000	98.292660
563.000000	98.266976
562.000000	98.247017
561.000000	98.224985
560.000000	98.201529
559.000000	98.189257
558.000000	98.190251
557.000000	98.189582
556.000000	98.182477
555.000000	98.185689
554.000000	98.207065
553.000000	98.226907
552.000000	98.227328
551.000000	98.218907
550.000000	98.219634
549.000000	98.227312
548.000000	98.235921
547.000000	98.260159
546.000000	98.316625
545.000000	98.392202
544.000000	98.455503
543.000000	98.489954
542.000000	98.495631
541.000000	98.471841
540.000000	98.422057
539.000000	98.366428
538.000000	98.325856
537.000000	98.296520
536.000000	98.258003
535.000000	98.201254
534.000000	98.133869
533.000000	98.061464
532.000000	97.989151
531.000000	97.932640
530.000000	97.905576
529.000000	97.904475
528.000000	97.923919
527.000000	97.968623
526.000000	98.029671
525.000000	98.068963
524.000000	98.060391
523.000000	98.029406
522.000000	98.023144
521.000000	98.057217
520.000000	98.109333
519.000000	98.155715
518.000000	98.192843
517.000000	98.224558
516.000000	98.251662
515.000000	98.278923
514.000000	98.312134
513.000000	98.348959
512.000000	98.386088
511.000000	98.425704
510.000000	98.464344
509.000000	98.485864
508.000000	98.484887
507.000000	98.478911
506.000000	98.480605
505.000000	98.479287
504.000000	98.471765
503.000000	98.489908
502.000000	98.559544
501.000000	98.646074
500.000000	98.693736
499.000000	98.696313
498.000000	98.685853
497.000000	98.675891
496.000000	98.653519
495.000000	98.618681
494.000000	98.593004
493.000000	98.583792
492.000000	98.571671
491.000000	98.545547
490.000000	98.527849
489.000000	98.546662
488.000000	98.607131
487.000000	98.695030
486.000000	98.789057
485.000000	98.867674
484.000000	98.917212
483.000000	98.932637
482.000000	98.910325
481.000000	98.856905
480.000000	98.809404
479.000000	98.823580
478.000000	98.919856
477.000000	99.042362
476.000000	99.105175
475.000000	99.079857
474.000000	99.016882
473.000000	98.985912
472.000000	99.006683
471.000000	99.038591
470.000000	99.039836
469.000000	98.998093
468.000000	98.919659
467.000000	98.832630
466.000000	98.787373
465.000000	98.821943
464.000000	98.934392
463.000000	99.082159
462.000000	99.198277
461.000000	99.246273
460.000000	99.261562
459.000000	99.318117
458.000000	99.438938
457.000000	99.535211
456.000000	99.519438
455.000000	99.428178
454.000000	99.343141
453.000000	99.301127
452.000000	99.296116
451.000000	99.327451
450.000000	99.407034
