PE IR       SUBTECH     SPECTRUM    ASCII       PEDS        4.00        
   -1
Veau_UK-1-C002_1.ASC
23/09/13
10:33:44.00
23/09/13
11:33:37.00
uco
Sample 002 By uco Date Wednesday, September 13 2023
450.000000
#HDR
-1
-1
#GR
cm-1
%T
1.0
0.0
4000.000000
-1.000000
3551
8
99.361469
93.284026
#DATA
4000.000000	99.259462
3999.000000	99.259365
3998.000000	99.263937
3997.000000	99.268737
3996.000000	99.270163
3995.000000	99.268227
3994.000000	99.265583
3993.000000	99.264724
3992.000000	99.266079
3991.000000	99.268491
3990.000000	99.270692
3989.000000	99.272083
3988.000000	99.272304
3987.000000	99.270758
3986.000000	99.266957
3985.000000	99.261159
3984.000000	99.254431
3983.000000	99.248230
3982.000000	99.244028
3981.000000	99.243025
3980.000000	99.245788
3979.000000	99.251799
3978.000000	99.259230
3977.000000	99.265338
3976.000000	99.267572
3975.000000	99.264873
3974.000000	99.258358
3973.000000	99.250737
3972.000000	99.244823
3971.000000	99.242076
3970.000000	99.242106
3969.000000	99.243222
3968.000000	99.243480
3967.000000	99.241919
3966.000000	99.239283
3965.000000	99.237529
3964.000000	99.238302
3963.000000	99.241741
3962.000000	99.246538
3961.000000	99.250727
3960.000000	99.252588
3959.000000	99.250838
3958.000000	99.244966
3957.000000	99.235966
3956.000000	99.225992
3955.000000	99.217365
3954.000000	99.212012
3953.000000	99.211729
3952.000000	99.218021
3951.000000	99.230596
3950.000000	99.246149
3949.000000	99.258973
3948.000000	99.264169
3947.000000	99.260867
3946.000000	99.252057
3945.000000	99.242135
3944.000000	99.234487
3943.000000	99.229977
3942.000000	99.227215
3941.000000	99.223740
3940.000000	99.218060
3939.000000	99.211215
3938.000000	99.206535
3937.000000	99.207654
3936.000000	99.215210
3935.000000	99.225781
3934.000000	99.234013
3933.000000	99.235658
3932.000000	99.230432
3931.000000	99.222010
3930.000000	99.215341
3929.000000	99.213357
3928.000000	99.215813
3927.000000	99.221207
3926.000000	99.227385
3925.000000	99.231437
3924.000000	99.231610
3923.000000	99.229377
3922.000000	99.228070
3921.000000	99.229719
3920.000000	99.233317
3919.000000	99.235938
3918.000000	99.234942
3917.000000	99.229962
3916.000000	99.223026
3915.000000	99.216140
3914.000000	99.209836
3913.000000	99.203616
3912.000000	99.197727
3911.000000	99.193142
3910.000000	99.190662
3909.000000	99.190394
3908.000000	99.192220
3907.000000	99.197111
3906.000000	99.206932
3905.000000	99.221508
3904.000000	99.235753
3903.000000	99.242086
3902.000000	99.237623
3901.000000	99.227330
3900.000000	99.218437
3899.000000	99.215122
3898.000000	99.216939
3897.000000	99.220291
3896.000000	99.221996
3895.000000	99.221292
3894.000000	99.219970
3893.000000	99.220429
3892.000000	99.222491
3891.000000	99.223085
3890.000000	99.220913
3889.000000	99.218133
3888.000000	99.217571
3887.000000	99.219707
3886.000000	99.222061
3885.000000	99.222173
3884.000000	99.220127
3883.000000	99.216850
3882.000000	99.211568
3881.000000	99.202807
3880.000000	99.191387
3879.000000	99.181067
3878.000000	99.174824
3877.000000	99.173189
3876.000000	99.175565
3875.000000	99.181221
3874.000000	99.189486
3873.000000	99.199212
3872.000000	99.207650
3871.000000	99.209861
3870.000000	99.203249
3869.000000	99.193566
3868.000000	99.189758
3867.000000	99.193987
3866.000000	99.201131
3865.000000	99.205350
3864.000000	99.206248
3863.000000	99.208188
3862.000000	99.214424
3861.000000	99.223523
3860.000000	99.230721
3859.000000	99.232186
3858.000000	99.227365
3857.000000	99.218723
3856.000000	99.209953
3855.000000	99.204132
3854.000000	99.204122
3853.000000	99.207312
3852.000000	99.207749
3851.000000	99.205569
3850.000000	99.203587
3849.000000	99.202388
3848.000000	99.202127
3847.000000	99.203058
3846.000000	99.205009
3845.000000	99.206961
3844.000000	99.207354
3843.000000	99.205229
3842.000000	99.202265
3841.000000	99.201074
3840.000000	99.201624
3839.000000	99.201238
3838.000000	99.198742
3837.000000	99.196272
3836.000000	99.195581
3835.000000	99.195600
3834.000000	99.194845
3833.000000	99.193036
3832.000000	99.190296
3831.000000	99.187423
3830.000000	99.186072
3829.000000	99.188342
3828.000000	99.194921
3827.000000	99.203148
3826.000000	99.208393
3825.000000	99.207822
3824.000000	99.202215
3823.000000	99.194010
3822.000000	99.187303
3821.000000	99.185668
3820.000000	99.188117
3819.000000	99.191572
3818.000000	99.195510
3817.000000	99.201209
3816.000000	99.207853
3815.000000	99.213329
3814.000000	99.216669
3813.000000	99.218316
3812.000000	99.218475
3811.000000	99.217164
3810.000000	99.215593
3809.000000	99.215307
3808.000000	99.215701
3807.000000	99.213993
3806.000000	99.209615
3805.000000	99.205456
3804.000000	99.204034
3803.000000	99.204061
3802.000000	99.202992
3801.000000	99.202127
3800.000000	99.205979
3799.000000	99.213965
3798.000000	99.220817
3797.000000	99.221560
3796.000000	99.215593
3795.000000	99.207148
3794.000000	99.200924
3793.000000	99.198659
3792.000000	99.199214
3791.000000	99.200497
3790.000000	99.200948
3789.000000	99.199766
3788.000000	99.196169
3787.000000	99.190190
3786.000000	99.183781
3785.000000	99.179892
3784.000000	99.179673
3783.000000	99.181593
3782.000000	99.183774
3781.000000	99.186438
3780.000000	99.191162
3779.000000	99.197851
3778.000000	99.204139
3777.000000	99.207691
3776.000000	99.207699
3775.000000	99.204686
3774.000000	99.201043
3773.000000	99.200488
3772.000000	99.205356
3771.000000	99.213919
3770.000000	99.221737
3769.000000	99.226323
3768.000000	99.228097
3767.000000	99.227807
3766.000000	99.225000
3765.000000	99.219384
3764.000000	99.212612
3763.000000	99.207258
3762.000000	99.204609
3761.000000	99.204316
3760.000000	99.205620
3759.000000	99.208232
3758.000000	99.212739
3757.000000	99.219969
3756.000000	99.229617
3755.000000	99.240061
3754.000000	99.250271
3753.000000	99.260700
3752.000000	99.271085
3751.000000	99.277548
3750.000000	99.276713
3749.000000	99.272207
3748.000000	99.269290
3747.000000	99.268362
3746.000000	99.264356
3745.000000	99.251540
3744.000000	99.234902
3743.000000	99.227721
3742.000000	99.234474
3741.000000	99.249406
3740.000000	99.263779
3739.000000	99.271558
3738.000000	99.271161
3737.000000	99.265613
3736.000000	99.260287
3735.000000	99.259229
3734.000000	99.263724
3733.000000	99.270104
3732.000000	99.272006
3731.000000	99.267495
3730.000000	99.260649
3729.000000	99.256859
3728.000000	99.257440
3727.000000	99.259384
3726.000000	99.259536
3725.000000	99.258249
3724.000000	99.257545
3723.000000	99.258019
3722.000000	99.259862
3721.000000	99.262770
3720.000000	99.265225
3719.000000	99.264985
3718.000000	99.261485
3717.000000	99.257010
3716.000000	99.254927
3715.000000	99.255722
3714.000000	99.254623
3713.000000	99.244767
3712.000000	99.225385
3711.000000	99.207223
3710.000000	99.203588
3709.000000	99.217492
3708.000000	99.240217
3707.000000	99.260179
3706.000000	99.271405
3705.000000	99.274262
3704.000000	99.272529
3703.000000	99.269534
3702.000000	99.266440
3701.000000	99.262927
3700.000000	99.258638
3699.000000	99.253900
3698.000000	99.249685
3697.000000	99.246762
3696.000000	99.244992
3695.000000	99.242909
3694.000000	99.238509
3693.000000	99.231937
3692.000000	99.227079
3691.000000	99.229831
3690.000000	99.241294
3689.000000	99.253380
3688.000000	99.256815
3687.000000	99.251784
3686.000000	99.245333
3685.000000	99.242732
3684.000000	99.244353
3683.000000	99.247415
3682.000000	99.249797
3681.000000	99.251420
3680.000000	99.252754
3679.000000	99.254482
3678.000000	99.258669
3677.000000	99.266306
3676.000000	99.272725
3675.000000	99.271883
3674.000000	99.267138
3673.000000	99.264161
3672.000000	99.261598
3671.000000	99.252310
3670.000000	99.234238
3669.000000	99.219038
3668.000000	99.218474
3667.000000	99.229496
3666.000000	99.242530
3665.000000	99.251444
3664.000000	99.255358
3663.000000	99.255856
3662.000000	99.254506
3661.000000	99.252427
3660.000000	99.250348
3659.000000	99.248660
3658.000000	99.247347
3657.000000	99.245766
3656.000000	99.242927
3655.000000	99.238711
3654.000000	99.234627
3653.000000	99.232987
3652.000000	99.236225
3651.000000	99.246329
3650.000000	99.260124
3649.000000	99.265168
3648.000000	99.254587
3647.000000	99.238903
3646.000000	99.230040
3645.000000	99.229775
3644.000000	99.233715
3643.000000	99.236967
3642.000000	99.236956
3641.000000	99.233806
3640.000000	99.227981
3639.000000	99.218755
3638.000000	99.206470
3637.000000	99.193991
3636.000000	99.184951
3635.000000	99.181324
3634.000000	99.183579
3633.000000	99.191301
3632.000000	99.202127
3631.000000	99.210253
3630.000000	99.207925
3629.000000	99.192077
3628.000000	99.172951
3627.000000	99.164240
3626.000000	99.166581
3625.000000	99.173374
3624.000000	99.178892
3623.000000	99.181350
3622.000000	99.182560
3621.000000	99.184502
3620.000000	99.185117
3619.000000	99.180116
3618.000000	99.170273
3617.000000	99.161918
3616.000000	99.158602
3615.000000	99.157260
3614.000000	99.152492
3613.000000	99.143140
3612.000000	99.134089
3611.000000	99.129415
3610.000000	99.126895
3609.000000	99.120878
3608.000000	99.110102
3607.000000	99.101024
3606.000000	99.101180
3605.000000	99.111090
3604.000000	99.124020
3603.000000	99.131872
3602.000000	99.131027
3601.000000	99.123951
3600.000000	99.116061
3599.000000	99.110829
3598.000000	99.107041
3597.000000	99.100742
3596.000000	99.088823
3595.000000	99.071531
3594.000000	99.053726
3593.000000	99.041316
3592.000000	99.035628
3591.000000	99.033306
3590.000000	99.030605
3589.000000	99.025866
3588.000000	99.018395
3587.000000	99.008428
3586.000000	99.000537
3585.000000	98.998128
3584.000000	98.997974
3583.000000	98.994736
3582.000000	98.987288
3581.000000	98.978728
3580.000000	98.972147
3579.000000	98.967440
3578.000000	98.963150
3577.000000	98.959480
3576.000000	98.957625
3575.000000	98.957434
3574.000000	98.956864
3573.000000	98.953944
3572.000000	98.947272
3571.000000	98.936664
3570.000000	98.924421
3569.000000	98.915665
3568.000000	98.913481
3567.000000	98.913887
3566.000000	98.911544
3565.000000	98.907800
3564.000000	98.904449
3563.000000	98.899710
3562.000000	98.892360
3561.000000	98.884410
3560.000000	98.878351
3559.000000	98.873811
3558.000000	98.867990
3557.000000	98.859305
3556.000000	98.849195
3555.000000	98.840864
3554.000000	98.836397
3553.000000	98.834772
3552.000000	98.832457
3551.000000	98.826941
3550.000000	98.819548
3549.000000	98.814087
3548.000000	98.813180
3547.000000	98.815399
3546.000000	98.816097
3545.000000	98.811886
3544.000000	98.803491
3543.000000	98.793261
3542.000000	98.782419
3541.000000	98.770853
3540.000000	98.758198
3539.000000	98.745163
3538.000000	98.733568
3537.000000	98.724706
3536.000000	98.717572
3535.000000	98.710035
3534.000000	98.701706
3533.000000	98.694074
3532.000000	98.688449
3531.000000	98.684850
3530.000000	98.682712
3529.000000	98.681167
3528.000000	98.678531
3527.000000	98.673407
3526.000000	98.666772
3525.000000	98.660799
3524.000000	98.655499
3523.000000	98.648744
3522.000000	98.639824
3521.000000	98.630424
3520.000000	98.621575
3519.000000	98.612343
3518.000000	98.602302
3517.000000	98.593053
3516.000000	98.586005
3515.000000	98.579917
3514.000000	98.572697
3513.000000	98.564550
3512.000000	98.558159
3511.000000	98.556162
3510.000000	98.558705
3509.000000	98.562529
3508.000000	98.562522
3507.000000	98.555782
3506.000000	98.544882
3505.000000	98.536486
3504.000000	98.535401
3503.000000	98.540011
3502.000000	98.544714
3501.000000	98.545366
3500.000000	98.540919
3499.000000	98.532255
3498.000000	98.521837
3497.000000	98.512750
3496.000000	98.506327
3495.000000	98.501379
3494.000000	98.496516
3493.000000	98.491976
3492.000000	98.488175
3491.000000	98.484126
3490.000000	98.478411
3489.000000	98.470544
3488.000000	98.460788
3487.000000	98.450288
3486.000000	98.441998
3485.000000	98.439312
3484.000000	98.442252
3483.000000	98.446101
3482.000000	98.445578
3481.000000	98.440052
3480.000000	98.432921
3479.000000	98.426881
3478.000000	98.421747
3477.000000	98.416291
3476.000000	98.410121
3475.000000	98.403935
3474.000000	98.398931
3473.000000	98.395633
3472.000000	98.392704
3471.000000	98.387741
3470.000000	98.380220
3469.000000	98.372822
3468.000000	98.368936
3467.000000	98.369334
3466.000000	98.371564
3465.000000	98.371866
3464.000000	98.367218
3463.000000	98.356871
3462.000000	98.343111
3461.000000	98.329519
3460.000000	98.317652
3459.000000	98.306398
3458.000000	98.295159
3457.000000	98.286266
3456.000000	98.282975
3455.000000	98.285728
3454.000000	98.291399
3453.000000	98.295270
3452.000000	98.293586
3451.000000	98.285604
3450.000000	98.274618
3449.000000	98.266020
3448.000000	98.262970
3447.000000	98.264019
3446.000000	98.265672
3445.000000	98.265694
3444.000000	98.262794
3443.000000	98.255578
3442.000000	98.244229
3441.000000	98.232063
3440.000000	98.222892
3439.000000	98.217296
3438.000000	98.213259
3437.000000	98.209923
3436.000000	98.208574
3435.000000	98.209858
3434.000000	98.211853
3433.000000	98.211484
3432.000000	98.207458
3431.000000	98.201214
3430.000000	98.195573
3429.000000	98.192263
3428.000000	98.190239
3427.000000	98.186548
3426.000000	98.179000
3425.000000	98.167832
3424.000000	98.154832
3423.000000	98.141855
3422.000000	98.130499
3421.000000	98.121951
3420.000000	98.116113
3419.000000	98.111558
3418.000000	98.107195
3417.000000	98.103362
3416.000000	98.100888
3415.000000	98.099769
3414.000000	98.099011
3413.000000	98.096796
3412.000000	98.090551
3411.000000	98.078591
3410.000000	98.062792
3409.000000	98.048400
3408.000000	98.039776
3407.000000	98.037030
3406.000000	98.037363
3405.000000	98.038272
3404.000000	98.038178
3403.000000	98.035296
3402.000000	98.028256
3401.000000	98.017715
3400.000000	98.006307
3399.000000	97.996960
3398.000000	97.991572
3397.000000	97.990186
3396.000000	97.990399
3395.000000	97.988400
3394.000000	97.982069
3393.000000	97.972963
3392.000000	97.964310
3391.000000	97.957222
3390.000000	97.949721
3389.000000	97.939547
3388.000000	97.927256
3387.000000	97.916381
3386.000000	97.910495
3385.000000	97.909667
3384.000000	97.910018
3383.000000	97.907493
3382.000000	97.901920
3381.000000	97.896261
3380.000000	97.892097
3379.000000	97.887290
3378.000000	97.878723
3377.000000	97.866232
3376.000000	97.853225
3375.000000	97.844000
3374.000000	97.840445
3373.000000	97.840303
3372.000000	97.838410
3371.000000	97.830774
3370.000000	97.817965
3369.000000	97.803904
3368.000000	97.791497
3367.000000	97.780812
3366.000000	97.771415
3365.000000	97.764273
3364.000000	97.760183
3363.000000	97.757876
3362.000000	97.754777
3361.000000	97.748759
3360.000000	97.738674
3359.000000	97.724711
3358.000000	97.709221
3357.000000	97.695937
3356.000000	97.686920
3355.000000	97.680708
3354.000000	97.674299
3353.000000	97.666248
3352.000000	97.656866
3351.000000	97.646243
3350.000000	97.633465
3349.000000	97.617913
3348.000000	97.600787
3347.000000	97.585114
3346.000000	97.573810
3345.000000	97.567054
3344.000000	97.561688
3343.000000	97.553930
3342.000000	97.542653
3341.000000	97.529278
3340.000000	97.515262
3339.000000	97.501233
3338.000000	97.488094
3337.000000	97.476834
3336.000000	97.466924
3335.000000	97.456677
3334.000000	97.445634
3333.000000	97.434859
3332.000000	97.424374
3331.000000	97.412458
3330.000000	97.398390
3329.000000	97.384191
3328.000000	97.372521
3327.000000	97.364198
3326.000000	97.358605
3325.000000	97.354936
3324.000000	97.351715
3323.000000	97.346285
3322.000000	97.336542
3321.000000	97.322827
3320.000000	97.307453
3319.000000	97.293135
3318.000000	97.282103
3317.000000	97.275180
3316.000000	97.270735
3315.000000	97.265711
3314.000000	97.259022
3313.000000	97.253204
3312.000000	97.251496
3311.000000	97.253851
3310.000000	97.256615
3309.000000	97.255762
3308.000000	97.250057
3307.000000	97.241682
3306.000000	97.234109
3305.000000	97.228874
3304.000000	97.224147
3303.000000	97.217008
3302.000000	97.206945
3301.000000	97.196073
3300.000000	97.186069
3299.000000	97.176592
3298.000000	97.166920
3297.000000	97.157181
3296.000000	97.147619
3295.000000	97.138384
3294.000000	97.130724
3293.000000	97.126549
3292.000000	97.125771
3291.000000	97.125759
3290.000000	97.124472
3289.000000	97.122523
3288.000000	97.121046
3287.000000	97.119217
3286.000000	97.115651
3285.000000	97.111125
3284.000000	97.108341
3283.000000	97.109315
3282.000000	97.113548
3281.000000	97.118223
3280.000000	97.119841
3279.000000	97.116943
3278.000000	97.111999
3277.000000	97.109587
3276.000000	97.111925
3275.000000	97.116974
3274.000000	97.121020
3273.000000	97.121505
3272.000000	97.117480
3271.000000	97.109880
3270.000000	97.102512
3269.000000	97.100307
3268.000000	97.104689
3267.000000	97.111932
3266.000000	97.117431
3265.000000	97.120387
3264.000000	97.122882
3263.000000	97.126208
3262.000000	97.130076
3261.000000	97.134288
3260.000000	97.138979
3259.000000	97.143585
3258.000000	97.147224
3257.000000	97.150000
3256.000000	97.152901
3255.000000	97.156770
3254.000000	97.162020
3253.000000	97.168663
3252.000000	97.176041
3251.000000	97.183282
3250.000000	97.190643
3249.000000	97.199143
3248.000000	97.208023
3247.000000	97.214072
3246.000000	97.214766
3245.000000	97.211325
3244.000000	97.207595
3243.000000	97.206648
3242.000000	97.209419
3241.000000	97.215229
3240.000000	97.222103
3239.000000	97.227489
3238.000000	97.230086
3237.000000	97.230711
3236.000000	97.230846
3235.000000	97.231451
3234.000000	97.233740
3233.000000	97.239107
3232.000000	97.246871
3231.000000	97.253550
3230.000000	97.256371
3229.000000	97.256481
3228.000000	97.256954
3227.000000	97.258578
3226.000000	97.259780
3225.000000	97.259955
3224.000000	97.260556
3223.000000	97.262670
3222.000000	97.265408
3221.000000	97.267529
3220.000000	97.269458
3219.000000	97.273005
3218.000000	97.279232
3217.000000	97.287026
3216.000000	97.293673
3215.000000	97.297244
3214.000000	97.298796
3213.000000	97.301461
3212.000000	97.306805
3211.000000	97.312691
3210.000000	97.315636
3209.000000	97.314877
3208.000000	97.313144
3207.000000	97.313778
3206.000000	97.317916
3205.000000	97.324560
3204.000000	97.332424
3203.000000	97.341322
3202.000000	97.351610
3201.000000	97.362236
3200.000000	97.369714
3199.000000	97.370327
3198.000000	97.364195
3197.000000	97.356597
3196.000000	97.354311
3195.000000	97.360198
3194.000000	97.371351
3193.000000	97.381793
3192.000000	97.387047
3191.000000	97.387252
3190.000000	97.386526
3189.000000	97.389180
3188.000000	97.396177
3187.000000	97.405590
3186.000000	97.415694
3185.000000	97.426416
3184.000000	97.437614
3183.000000	97.447804
3182.000000	97.455640
3181.000000	97.461719
3180.000000	97.467813
3179.000000	97.474835
3178.000000	97.482275
3177.000000	97.489258
3176.000000	97.495261
3175.000000	97.500087
3174.000000	97.503765
3173.000000	97.506577
3172.000000	97.508986
3171.000000	97.511764
3170.000000	97.516125
3169.000000	97.522958
3168.000000	97.531520
3167.000000	97.539554
3166.000000	97.545250
3165.000000	97.549060
3164.000000	97.553383
3163.000000	97.560655
3162.000000	97.571444
3161.000000	97.583874
3160.000000	97.595021
3159.000000	97.603461
3158.000000	97.610275
3157.000000	97.616904
3156.000000	97.622691
3155.000000	97.625949
3154.000000	97.627267
3153.000000	97.629911
3152.000000	97.636340
3151.000000	97.645760
3150.000000	97.655708
3149.000000	97.664681
3148.000000	97.672322
3147.000000	97.678519
3146.000000	97.683813
3145.000000	97.689762
3144.000000	97.697418
3143.000000	97.705682
3142.000000	97.712262
3141.000000	97.716136
3140.000000	97.718392
3139.000000	97.720782
3138.000000	97.724186
3137.000000	97.728414
3136.000000	97.733057
3135.000000	97.738232
3134.000000	97.744457
3133.000000	97.751617
3132.000000	97.758418
3131.000000	97.763415
3130.000000	97.766510
3129.000000	97.768839
3128.000000	97.771534
3127.000000	97.775364
3126.000000	97.781294
3125.000000	97.789957
3124.000000	97.799958
3123.000000	97.807923
3122.000000	97.811242
3121.000000	97.810438
3120.000000	97.808107
3119.000000	97.805978
3118.000000	97.803438
3117.000000	97.798778
3116.000000	97.791515
3115.000000	97.783866
3114.000000	97.779768
3113.000000	97.781655
3112.000000	97.788054
3111.000000	97.794749
3110.000000	97.798465
3109.000000	97.798790
3108.000000	97.796898
3107.000000	97.793766
3106.000000	97.790265
3105.000000	97.787562
3104.000000	97.786110
3103.000000	97.784623
3102.000000	97.781184
3101.000000	97.775534
3100.000000	97.769810
3099.000000	97.766955
3098.000000	97.768391
3097.000000	97.772681
3096.000000	97.776155
3095.000000	97.775505
3094.000000	97.770388
3093.000000	97.763361
3092.000000	97.757216
3091.000000	97.752888
3090.000000	97.749676
3089.000000	97.746563
3088.000000	97.743072
3087.000000	97.739589
3086.000000	97.737184
3085.000000	97.736468
3084.000000	97.736377
3083.000000	97.734962
3082.000000	97.731665
3081.000000	97.728036
3080.000000	97.725640
3079.000000	97.723961
3078.000000	97.721050
3077.000000	97.715891
3076.000000	97.709771
3075.000000	97.705549
3074.000000	97.705558
3073.000000	97.709632
3072.000000	97.715204
3071.000000	97.719734
3070.000000	97.722604
3069.000000	97.723831
3068.000000	97.721753
3067.000000	97.714251
3066.000000	97.702614
3065.000000	97.692172
3064.000000	97.687670
3063.000000	97.689316
3062.000000	97.694456
3061.000000	97.701697
3060.000000	97.711652
3059.000000	97.724352
3058.000000	97.737721
3057.000000	97.748914
3056.000000	97.756500
3055.000000	97.761149
3054.000000	97.764617
3053.000000	97.768007
3052.000000	97.770898
3051.000000	97.772383
3050.000000	97.772887
3049.000000	97.774421
3048.000000	97.778727
3047.000000	97.785700
3046.000000	97.793814
3045.000000	97.801572
3044.000000	97.808554
3043.000000	97.815756
3042.000000	97.824811
3041.000000	97.835855
3040.000000	97.846035
3039.000000	97.851464
3038.000000	97.851217
3037.000000	97.848607
3036.000000	97.848124
3035.000000	97.851954
3034.000000	97.859358
3033.000000	97.867901
3032.000000	97.874407
3031.000000	97.876295
3030.000000	97.873699
3029.000000	97.870151
3028.000000	97.870300
3027.000000	97.876664
3026.000000	97.888208
3025.000000	97.901230
3024.000000	97.911610
3023.000000	97.917631
3022.000000	97.921418
3021.000000	97.926985
3020.000000	97.935938
3019.000000	97.945534
3018.000000	97.951523
3017.000000	97.952490
3016.000000	97.950781
3015.000000	97.949723
3014.000000	97.950548
3013.000000	97.951791
3012.000000	97.951162
3011.000000	97.948089
3010.000000	97.944330
3009.000000	97.941680
3008.000000	97.939677
3007.000000	97.936772
3006.000000	97.933556
3005.000000	97.932925
3004.000000	97.936211
3003.000000	97.940664
3002.000000	97.942091
3001.000000	97.939181
3000.000000	97.934134
2999.000000	97.930024
2998.000000	97.928670
2997.000000	97.930324
2996.000000	97.933590
2995.000000	97.935716
2994.000000	97.934313
2993.000000	97.929245
2992.000000	97.922234
2991.000000	97.914480
2990.000000	97.905332
2989.000000	97.893410
2988.000000	97.878795
2987.000000	97.863906
2986.000000	97.851995
2985.000000	97.844217
2984.000000	97.838179
2983.000000	97.830099
2982.000000	97.818725
2981.000000	97.806528
2980.000000	97.796652
2979.000000	97.789522
2978.000000	97.782884
2977.000000	97.774282
2976.000000	97.762505
2975.000000	97.747398
2974.000000	97.729617
2973.000000	97.710520
2972.000000	97.691214
2971.000000	97.671107
2970.000000	97.647813
2969.000000	97.618918
2968.000000	97.584268
2967.000000	97.546850
2966.000000	97.511196
2965.000000	97.480403
2964.000000	97.454262
2963.000000	97.430497
2962.000000	97.407349
2961.000000	97.384552
2960.000000	97.362333
2959.000000	97.340863
2958.000000	97.321049
2957.000000	97.304774
2956.000000	97.293947
2955.000000	97.289875
2954.000000	97.293328
2953.000000	97.303690
2952.000000	97.317332
2951.000000	97.328385
2950.000000	97.332255
2949.000000	97.328238
2948.000000	97.318198
2947.000000	97.303857
2946.000000	97.285954
2945.000000	97.264801
2944.000000	97.240310
2943.000000	97.211774
2942.000000	97.178612
2941.000000	97.140879
2940.000000	97.098522
2939.000000	97.050882
2938.000000	96.997770
2937.000000	96.940506
2936.000000	96.880779
2935.000000	96.819036
2934.000000	96.755010
2933.000000	96.689453
2932.000000	96.624094
2931.000000	96.559664
2930.000000	96.494847
2929.000000	96.427400
2928.000000	96.356133
2927.000000	96.282368
2926.000000	96.210034
2925.000000	96.144157
2924.000000	96.088273
2923.000000	96.043295
2922.000000	96.008837
2921.000000	95.985038
2920.000000	95.973336
2919.000000	95.976595
2918.000000	95.999789
2917.000000	96.049383
2916.000000	96.129720
2915.000000	96.238838
2914.000000	96.367234
2913.000000	96.500875
2912.000000	96.626309
2911.000000	96.735783
2910.000000	96.829337
2909.000000	96.911622
2908.000000	96.985999
2907.000000	97.051408
2906.000000	97.105374
2905.000000	97.148178
2904.000000	97.183118
2903.000000	97.213301
2902.000000	97.239996
2901.000000	97.263142
2900.000000	97.283266
2899.000000	97.301620
2898.000000	97.320740
2897.000000	97.344225
2896.000000	97.374278
2895.000000	97.409066
2894.000000	97.443589
2893.000000	97.473730
2892.000000	97.498712
2891.000000	97.519839
2890.000000	97.538435
2889.000000	97.555675
2888.000000	97.572899
2887.000000	97.590423
2886.000000	97.606512
2885.000000	97.618676
2884.000000	97.626209
2883.000000	97.630794
2882.000000	97.634720
2881.000000	97.639052
2880.000000	97.643389
2879.000000	97.646711
2878.000000	97.648038
2877.000000	97.646526
2876.000000	97.641490
2875.000000	97.632777
2874.000000	97.621392
2873.000000	97.609427
2872.000000	97.598889
2871.000000	97.590516
2870.000000	97.583860
2869.000000	97.578411
2868.000000	97.574098
2867.000000	97.570580
2866.000000	97.566389
2865.000000	97.558954
2864.000000	97.545310
2863.000000	97.523133
2862.000000	97.491786
2861.000000	97.452683
2860.000000	97.408075
2859.000000	97.359009
2858.000000	97.304793
2857.000000	97.244830
2856.000000	97.180761
2855.000000	97.116234
2854.000000	97.055050
2853.000000	97.000276
2852.000000	96.956035
2851.000000	96.930171
2850.000000	96.933534
2849.000000	96.975085
2848.000000	97.055840
2847.000000	97.166957
2846.000000	97.293206
2845.000000	97.418890
2844.000000	97.532052
2843.000000	97.626605
2842.000000	97.702645
2841.000000	97.764491
2840.000000	97.817154
2839.000000	97.863266
2838.000000	97.902924
2837.000000	97.935310
2836.000000	97.959809
2835.000000	97.976437
2834.000000	97.987020
2833.000000	97.995817
2832.000000	98.007484
2831.000000	98.023628
2830.000000	98.042113
2829.000000	98.060022
2828.000000	98.076100
2827.000000	98.089934
2826.000000	98.100513
2825.000000	98.107325
2824.000000	98.112175
2823.000000	98.118012
2822.000000	98.125817
2821.000000	98.134031
2820.000000	98.141332
2819.000000	98.148504
2818.000000	98.156646
2817.000000	98.164670
2816.000000	98.170105
2815.000000	98.172269
2814.000000	98.173404
2813.000000	98.176050
2812.000000	98.180065
2811.000000	98.183099
2810.000000	98.183781
2809.000000	98.183546
2808.000000	98.184885
2807.000000	98.188556
2806.000000	98.193263
2805.000000	98.197673
2804.000000	98.201759
2803.000000	98.206060
2802.000000	98.210604
2801.000000	98.215119
2800.000000	98.219522
2799.000000	98.223422
2798.000000	98.225626
2797.000000	98.225157
2796.000000	98.222795
2795.000000	98.220889
2794.000000	98.221547
2793.000000	98.225491
2792.000000	98.232430
2791.000000	98.241362
2790.000000	98.250086
2789.000000	98.255477
2788.000000	98.255599
2787.000000	98.251671
2786.000000	98.247302
2785.000000	98.245504
2784.000000	98.246603
2783.000000	98.248909
2782.000000	98.250883
2781.000000	98.252535
2780.000000	98.255128
2779.000000	98.259769
2778.000000	98.266171
2777.000000	98.272701
2776.000000	98.277792
2775.000000	98.281479
2774.000000	98.285349
2773.000000	98.290708
2772.000000	98.296844
2771.000000	98.301374
2770.000000	98.302504
2769.000000	98.300921
2768.000000	98.299372
2767.000000	98.300324
2766.000000	98.304007
2765.000000	98.308696
2764.000000	98.312687
2763.000000	98.315698
2762.000000	98.318318
2761.000000	98.320622
2760.000000	98.321976
2759.000000	98.322167
2758.000000	98.321983
2757.000000	98.322255
2756.000000	98.322875
2755.000000	98.323566
2754.000000	98.325321
2753.000000	98.329933
2752.000000	98.337592
2751.000000	98.345600
2750.000000	98.350190
2749.000000	98.349565
2748.000000	98.345144
2747.000000	98.340412
2746.000000	98.338854
2745.000000	98.342086
2744.000000	98.348860
2743.000000	98.356026
2742.000000	98.361260
2741.000000	98.364866
2740.000000	98.368428
2739.000000	98.372177
2738.000000	98.374807
2737.000000	98.375684
2736.000000	98.375781
2735.000000	98.375908
2734.000000	98.375353
2733.000000	98.373344
2732.000000	98.371106
2731.000000	98.371220
2730.000000	98.375051
2729.000000	98.381447
2728.000000	98.387822
2727.000000	98.391950
2726.000000	98.393040
2725.000000	98.391923
2724.000000	98.390376
2723.000000	98.389869
2722.000000	98.390833
2721.000000	98.393055
2720.000000	98.396185
2719.000000	98.399429
2718.000000	98.401389
2717.000000	98.401242
2716.000000	98.400041
2715.000000	98.400027
2714.000000	98.402381
2713.000000	98.406124
2712.000000	98.409325
2711.000000	98.410948
2710.000000	98.411522
2709.000000	98.412546
2708.000000	98.415429
2707.000000	98.420371
2706.000000	98.425821
2705.000000	98.429340
2704.000000	98.429622
2703.000000	98.427810
2702.000000	98.426526
2701.000000	98.427350
2700.000000	98.429401
2699.000000	98.430713
2698.000000	98.430843
2697.000000	98.431414
2696.000000	98.433764
2695.000000	98.436854
2694.000000	98.438479
2693.000000	98.438050
2692.000000	98.436819
2691.000000	98.435425
2690.000000	98.432966
2689.000000	98.429299
2688.000000	98.426629
2687.000000	98.427160
2686.000000	98.429850
2685.000000	98.431103
2684.000000	98.428629
2683.000000	98.423518
2682.000000	98.418711
2681.000000	98.416686
2680.000000	98.418440
2679.000000	98.423122
2678.000000	98.428059
2677.000000	98.430274
2676.000000	98.429048
2675.000000	98.426690
2674.000000	98.426362
2673.000000	98.429288
2672.000000	98.434011
2671.000000	98.437747
2670.000000	98.438395
2669.000000	98.436117
2668.000000	98.433479
2667.000000	98.433382
2666.000000	98.436117
2665.000000	98.438729
2664.000000	98.437896
2663.000000	98.433413
2662.000000	98.428569
2661.000000	98.427188
2660.000000	98.430376
2659.000000	98.435753
2658.000000	98.439508
2657.000000	98.439461
2656.000000	98.436698
2655.000000	98.434406
2654.000000	98.434950
2653.000000	98.438008
2652.000000	98.441416
2651.000000	98.443617
2650.000000	98.445122
2649.000000	98.447711
2648.000000	98.452509
2647.000000	98.458907
2646.000000	98.465147
2645.000000	98.469630
2644.000000	98.471601
2643.000000	98.471235
2642.000000	98.469777
2641.000000	98.469405
2640.000000	98.471826
2639.000000	98.476548
2638.000000	98.481398
2637.000000	98.485342
2636.000000	98.489964
2635.000000	98.497146
2634.000000	98.505897
2633.000000	98.512713
2632.000000	98.515033
2631.000000	98.513576
2630.000000	98.511496
2629.000000	98.512216
2628.000000	98.517494
2627.000000	98.526036
2626.000000	98.533753
2625.000000	98.536884
2624.000000	98.535744
2623.000000	98.534680
2622.000000	98.537864
2621.000000	98.545684
2620.000000	98.555313
2619.000000	98.563657
2618.000000	98.569194
2617.000000	98.572070
2616.000000	98.573725
2615.000000	98.576124
2614.000000	98.580244
2613.000000	98.584911
2612.000000	98.587668
2611.000000	98.587427
2610.000000	98.586143
2609.000000	98.587218
2608.000000	98.591771
2607.000000	98.597163
2606.000000	98.600358
2605.000000	98.602144
2604.000000	98.606048
2603.000000	98.612905
2602.000000	98.618948
2601.000000	98.620799
2600.000000	98.619997
2599.000000	98.620349
2598.000000	98.622505
2597.000000	98.624030
2596.000000	98.623955
2595.000000	98.624010
2594.000000	98.625720
2593.000000	98.629079
2592.000000	98.634075
2591.000000	98.640395
2590.000000	98.645262
2589.000000	98.644846
2588.000000	98.639171
2587.000000	98.633195
2586.000000	98.631718
2585.000000	98.635556
2584.000000	98.643463
2583.000000	98.654761
2582.000000	98.667518
2581.000000	98.676636
2580.000000	98.677335
2579.000000	98.670677
2578.000000	98.663477
2577.000000	98.662340
2576.000000	98.668497
2575.000000	98.677776
2574.000000	98.684494
2573.000000	98.685677
2572.000000	98.682733
2571.000000	98.679414
2570.000000	98.677959
2569.000000	98.677442
2568.000000	98.675808
2567.000000	98.672670
2566.000000	98.669612
2565.000000	98.668480
2564.000000	98.669909
2563.000000	98.673131
2562.000000	98.676695
2561.000000	98.679432
2560.000000	98.681048
2559.000000	98.682132
2558.000000	98.684109
2557.000000	98.689161
2556.000000	98.698660
2555.000000	98.710518
2554.000000	98.718941
2553.000000	98.718680
2552.000000	98.709874
2551.000000	98.698353
2550.000000	98.691465
2549.000000	98.693554
2548.000000	98.703538
2547.000000	98.715196
2546.000000	98.721316
2545.000000	98.719841
2544.000000	98.715544
2543.000000	98.714119
2542.000000	98.715876
2541.000000	98.717118
2540.000000	98.716375
2539.000000	98.716130
2538.000000	98.718976
2537.000000	98.725037
2536.000000	98.733216
2535.000000	98.742030
2534.000000	98.748720
2533.000000	98.750326
2532.000000	98.746584
2531.000000	98.740128
2530.000000	98.733555
2529.000000	98.728389
2528.000000	98.726586
2527.000000	98.729907
2526.000000	98.736775
2525.000000	98.742198
2524.000000	98.742145
2523.000000	98.736693
2522.000000	98.728738
2521.000000	98.721782
2520.000000	98.719352
2519.000000	98.723876
2518.000000	98.734498
2517.000000	98.747257
2516.000000	98.758203
2515.000000	98.765198
2514.000000	98.767110
2513.000000	98.763853
2512.000000	98.757839
2511.000000	98.752704
2510.000000	98.749428
2509.000000	98.745521
2508.000000	98.739074
2507.000000	98.731797
2506.000000	98.727272
2505.000000	98.728141
2504.000000	98.735578
2503.000000	98.748916
2502.000000	98.764179
2501.000000	98.775024
2500.000000	98.777215
2499.000000	98.771742
2498.000000	98.762931
2497.000000	98.754966
2496.000000	98.750252
2495.000000	98.748804
2494.000000	98.747669
2493.000000	98.742951
2492.000000	98.734300
2491.000000	98.726426
2490.000000	98.724833
2489.000000	98.730470
2488.000000	98.739173
2487.000000	98.745412
2486.000000	98.746526
2485.000000	98.744947
2484.000000	98.746934
2483.000000	98.757304
2482.000000	98.774215
2481.000000	98.790452
2480.000000	98.800561
2479.000000	98.805175
2478.000000	98.807496
2477.000000	98.807946
2476.000000	98.804764
2475.000000	98.798808
2474.000000	98.795008
2473.000000	98.797901
2472.000000	98.806577
2471.000000	98.814620
2470.000000	98.815535
2469.000000	98.808660
2468.000000	98.799657
2467.000000	98.794772
2466.000000	98.794747
2465.000000	98.794643
2464.000000	98.789161
2463.000000	98.777143
2462.000000	98.761831
2461.000000	98.748440
2460.000000	98.741186
2459.000000	98.740776
2458.000000	98.744106
2457.000000	98.747122
2456.000000	98.748575
2455.000000	98.750600
2454.000000	98.755613
2453.000000	98.763442
2452.000000	98.771487
2451.000000	98.777557
2450.000000	98.782634
2449.000000	98.790206
2448.000000	98.801652
2447.000000	98.812805
2446.000000	98.817523
2445.000000	98.814925
2444.000000	98.810068
2443.000000	98.806418
2442.000000	98.801429
2441.000000	98.792153
2440.000000	98.781604
2439.000000	98.775359
2438.000000	98.774218
2437.000000	98.774564
2436.000000	98.774427
2435.000000	98.774744
2434.000000	98.775625
2433.000000	98.776428
2432.000000	98.779541
2431.000000	98.789293
2430.000000	98.805563
2429.000000	98.821716
2428.000000	98.830454
2427.000000	98.830043
2426.000000	98.824410
2425.000000	98.819038
2424.000000	98.816692
2423.000000	98.815039
2422.000000	98.808954
2421.000000	98.797327
2420.000000	98.786634
2419.000000	98.784881
2418.000000	98.792731
2417.000000	98.803666
2416.000000	98.812384
2415.000000	98.819238
2414.000000	98.826038
2413.000000	98.831169
2412.000000	98.830780
2411.000000	98.823177
2410.000000	98.811023
2409.000000	98.800340
2408.000000	98.797111
2407.000000	98.803193
2406.000000	98.815271
2405.000000	98.828245
2404.000000	98.838609
2403.000000	98.844247
2402.000000	98.843942
2401.000000	98.839462
2400.000000	98.835732
2399.000000	98.835760
2398.000000	98.837175
2397.000000	98.836588
2396.000000	98.835078
2395.000000	98.835644
2394.000000	98.837207
2393.000000	98.835748
2392.000000	98.830413
2391.000000	98.824268
2390.000000	98.819343
2389.000000	98.814830
2388.000000	98.810501
2387.000000	98.807319
2386.000000	98.805343
2385.000000	98.803893
2384.000000	98.804153
2383.000000	98.809550
2382.000000	98.821629
2381.000000	98.839158
2380.000000	98.858713
2379.000000	98.873426
2378.000000	98.873865
2377.000000	98.854747
2376.000000	98.821919
2375.000000	98.788340
2374.000000	98.764503
2373.000000	98.754475
2372.000000	98.757729
2371.000000	98.768218
2370.000000	98.775203
2369.000000	98.772763
2368.000000	98.763906
2367.000000	98.754273
2366.000000	98.745111
2365.000000	98.735883
2364.000000	98.727248
2363.000000	98.715783
2362.000000	98.694700
2361.000000	98.664056
2360.000000	98.633272
2359.000000	98.613051
2358.000000	98.609196
2357.000000	98.623621
2356.000000	98.647856
2355.000000	98.667033
2354.000000	98.683742
2353.000000	98.711799
2352.000000	98.742252
2351.000000	98.745474
2350.000000	98.714856
2349.000000	98.672754
2348.000000	98.646620
2347.000000	98.648552
2346.000000	98.663155
2345.000000	98.659504
2344.000000	98.630755
2343.000000	98.603214
2342.000000	98.601132
2341.000000	98.624764
2340.000000	98.652886
2339.000000	98.664938
2338.000000	98.658796
2337.000000	98.645895
2336.000000	98.635487
2335.000000	98.632265
2334.000000	98.641801
2333.000000	98.668078
2332.000000	98.701584
2331.000000	98.724793
2330.000000	98.726001
2329.000000	98.705092
2328.000000	98.668581
2327.000000	98.628081
2326.000000	98.598135
2325.000000	98.589175
2324.000000	98.599624
2323.000000	98.619572
2322.000000	98.636244
2321.000000	98.640591
2320.000000	98.630832
2319.000000	98.614218
2318.000000	98.600845
2317.000000	98.597749
2316.000000	98.606649
2315.000000	98.625896
2314.000000	98.648238
2313.000000	98.663760
2312.000000	98.667137
2311.000000	98.664419
2310.000000	98.665641
2309.000000	98.674439
2308.000000	98.686127
2307.000000	98.695951
2306.000000	98.702884
2305.000000	98.709119
2304.000000	98.717007
2303.000000	98.727607
2302.000000	98.737672
2301.000000	98.741743
2300.000000	98.738100
2299.000000	98.731698
2298.000000	98.727439
2297.000000	98.726008
2296.000000	98.725959
2295.000000	98.727576
2294.000000	98.729609
2293.000000	98.727795
2292.000000	98.720018
2291.000000	98.711217
2290.000000	98.708283
2289.000000	98.712951
2288.000000	98.722477
2287.000000	98.734160
2286.000000	98.744792
2285.000000	98.749363
2284.000000	98.746120
2283.000000	98.740275
2282.000000	98.738645
2281.000000	98.743476
2280.000000	98.756028
2279.000000	98.781005
2278.000000	98.819779
2277.000000	98.861495
2276.000000	98.888252
2275.000000	98.889863
2274.000000	98.869997
2273.000000	98.840171
2272.000000	98.812632
2271.000000	98.796918
2270.000000	98.796504
2269.000000	98.806924
2268.000000	98.818698
2267.000000	98.823382
2266.000000	98.818065
2265.000000	98.808064
2264.000000	98.805330
2263.000000	98.818575
2262.000000	98.842813
2261.000000	98.863503
2260.000000	98.872010
2259.000000	98.871952
2258.000000	98.869881
2257.000000	98.868565
2256.000000	98.871282
2255.000000	98.881561
2254.000000	98.893531
2253.000000	98.892959
2252.000000	98.876283
2251.000000	98.859493
2250.000000	98.859674
2249.000000	98.874797
2248.000000	98.890245
2247.000000	98.898085
2246.000000	98.900930
2245.000000	98.901121
2244.000000	98.896737
2243.000000	98.887361
2242.000000	98.876381
2241.000000	98.867650
2240.000000	98.863018
2239.000000	98.861496
2238.000000	98.859571
2237.000000	98.856082
2236.000000	98.856036
2235.000000	98.862635
2234.000000	98.866793
2233.000000	98.856023
2232.000000	98.834961
2231.000000	98.823167
2230.000000	98.828042
2229.000000	98.834971
2228.000000	98.832434
2227.000000	98.831976
2226.000000	98.850932
2225.000000	98.885819
2224.000000	98.915809
2223.000000	98.925289
2222.000000	98.912819
2221.000000	98.886815
2220.000000	98.863677
2219.000000	98.861412
2218.000000	98.882427
2217.000000	98.906444
2216.000000	98.909472
2215.000000	98.886091
2214.000000	98.848043
2213.000000	98.810922
2212.000000	98.790632
2211.000000	98.801361
2210.000000	98.843035
2209.000000	98.893826
2208.000000	98.924853
2207.000000	98.922544
2206.000000	98.895682
2205.000000	98.869325
2204.000000	98.872015
2203.000000	98.912955
2202.000000	98.964240
2201.000000	98.980882
2200.000000	98.950072
2199.000000	98.907261
2198.000000	98.891927
2197.000000	98.902338
2196.000000	98.908260
2195.000000	98.895104
2194.000000	98.876467
2193.000000	98.870850
2192.000000	98.883149
2191.000000	98.906050
2190.000000	98.925953
2189.000000	98.929950
2188.000000	98.918569
2187.000000	98.910467
2186.000000	98.926844
2185.000000	98.973066
2184.000000	99.036064
2183.000000	99.091987
2182.000000	99.114601
2181.000000	99.092336
2180.000000	99.045642
2179.000000	99.012982
2178.000000	99.012333
2177.000000	99.027574
2176.000000	99.033930
2175.000000	99.022214
2174.000000	98.997312
2173.000000	98.972355
2172.000000	98.968874
2171.000000	98.998461
2170.000000	99.036735
2169.000000	99.037494
2168.000000	98.987163
2167.000000	98.925432
2166.000000	98.896829
2165.000000	98.903002
2164.000000	98.917195
2163.000000	98.927268
2162.000000	98.941849
2161.000000	98.971962
2160.000000	99.029084
2159.000000	99.122542
2158.000000	99.233020
2157.000000	99.313931
2156.000000	99.342948
2155.000000	99.339531
2154.000000	99.321641
2153.000000	99.280725
2152.000000	99.208077
2151.000000	99.119228
2150.000000	99.041993
2149.000000	98.997034
2148.000000	98.995162
2147.000000	99.034194
2146.000000	99.089731
2145.000000	99.126067
2144.000000	99.129242
2143.000000	99.117092
2142.000000	99.110394
2141.000000	99.109576
2140.000000	99.104973
2139.000000	99.093688
2138.000000	99.077907
2137.000000	99.060731
2136.000000	99.051032
2135.000000	99.058776
2134.000000	99.078569
2133.000000	99.091607
2132.000000	99.089645
2131.000000	99.083558
2130.000000	99.082634
2129.000000	99.079851
2128.000000	99.064774
2127.000000	99.039526
2126.000000	99.013740
2125.000000	98.992274
2124.000000	98.976072
2123.000000	98.968212
2122.000000	98.970849
2121.000000	98.979441
2120.000000	98.985617
2119.000000	98.982917
2118.000000	98.966879
2117.000000	98.935465
2116.000000	98.894621
2115.000000	98.859254
2114.000000	98.843999
2113.000000	98.853828
2112.000000	98.883135
2111.000000	98.919341
2110.000000	98.947401
2109.000000	98.957960
2108.000000	98.954640
2107.000000	98.948223
2106.000000	98.942697
2105.000000	98.933439
2104.000000	98.918673
2103.000000	98.903572
2102.000000	98.892011
2101.000000	98.883755
2100.000000	98.881911
2099.000000	98.892855
2098.000000	98.914781
2097.000000	98.934570
2096.000000	98.941627
2095.000000	98.938444
2094.000000	98.934206
2093.000000	98.935179
2092.000000	98.943478
2091.000000	98.957760
2090.000000	98.972339
2089.000000	98.981486
2088.000000	98.984726
2087.000000	98.981825
2086.000000	98.966529
2085.000000	98.936797
2084.000000	98.907876
2083.000000	98.900038
2082.000000	98.912367
2081.000000	98.923544
2080.000000	98.920323
2079.000000	98.909992
2078.000000	98.901302
2077.000000	98.890770
2076.000000	98.876626
2075.000000	98.870867
2074.000000	98.886390
2073.000000	98.920922
2072.000000	98.959466
2071.000000	98.983776
2070.000000	98.977348
2069.000000	98.937274
2068.000000	98.888510
2067.000000	98.869921
2066.000000	98.896965
2065.000000	98.946884
2064.000000	98.986373
2063.000000	99.002645
2062.000000	99.000618
2061.000000	98.988595
2060.000000	98.976836
2059.000000	98.973743
2058.000000	98.974330
2057.000000	98.965931
2056.000000	98.950694
2055.000000	98.945808
2054.000000	98.953886
2053.000000	98.952458
2052.000000	98.925079
2051.000000	98.886553
2050.000000	98.866011
2049.000000	98.876436
2048.000000	98.908678
2047.000000	98.944366
2046.000000	98.964427
2045.000000	98.959569
2044.000000	98.948294
2043.000000	98.968467
2042.000000	99.035728
2041.000000	99.121641
2040.000000	99.183974
2039.000000	99.204955
2038.000000	99.189673
2037.000000	99.152191
2036.000000	99.115835
2035.000000	99.101729
2034.000000	99.103908
2033.000000	99.098013
2032.000000	99.082683
2031.000000	99.084697
2030.000000	99.116279
2029.000000	99.159539
2028.000000	99.198824
2027.000000	99.236454
2026.000000	99.267818
2025.000000	99.276573
2024.000000	99.264788
2023.000000	99.253708
2022.000000	99.246566
2021.000000	99.224347
2020.000000	99.185151
2019.000000	99.153128
2018.000000	99.142899
2017.000000	99.148514
2016.000000	99.169406
2015.000000	99.207035
2014.000000	99.234916
2013.000000	99.220093
2012.000000	99.180582
2011.000000	99.173441
2010.000000	99.213557
2009.000000	99.251506
2008.000000	99.247909
2007.000000	99.225078
2006.000000	99.219137
2005.000000	99.229307
2004.000000	99.241515
2003.000000	99.259664
2002.000000	99.287352
2001.000000	99.309118
2000.000000	99.310325
1999.000000	99.290956
1998.000000	99.251826
1997.000000	99.195565
1996.000000	99.146547
1995.000000	99.138089
1994.000000	99.171143
1993.000000	99.208213
1992.000000	99.217523
1991.000000	99.202190
1990.000000	99.172504
1989.000000	99.126853
1988.000000	99.076241
1987.000000	99.048892
1986.000000	99.054224
1985.000000	99.072397
1984.000000	99.089967
1983.000000	99.113086
1982.000000	99.134366
1981.000000	99.124957
1980.000000	99.080704
1979.000000	99.040960
1978.000000	99.039796
1977.000000	99.068700
1976.000000	99.109575
1975.000000	99.164998
1974.000000	99.228442
1973.000000	99.270869
1972.000000	99.282303
1971.000000	99.284582
1970.000000	99.283973
1969.000000	99.254217
1968.000000	99.188028
1967.000000	99.128755
1966.000000	99.121061
1965.000000	99.160915
1964.000000	99.218006
1963.000000	99.270842
1962.000000	99.301265
1961.000000	99.292631
1960.000000	99.255647
1959.000000	99.226205
1958.000000	99.222002
1957.000000	99.227061
1956.000000	99.224814
1955.000000	99.216766
1954.000000	99.202806
1953.000000	99.175255
1952.000000	99.142188
1951.000000	99.129440
1950.000000	99.146028
1949.000000	99.171082
1948.000000	99.186186
1947.000000	99.196101
1946.000000	99.207560
1945.000000	99.213475
1944.000000	99.210206
1943.000000	99.207653
1942.000000	99.209244
1941.000000	99.205379
1940.000000	99.197044
1939.000000	99.199701
1938.000000	99.217254
1937.000000	99.231742
1936.000000	99.228436
1935.000000	99.214641
1934.000000	99.202329
1933.000000	99.190887
1932.000000	99.178373
1931.000000	99.173498
1930.000000	99.180387
1929.000000	99.187203
1928.000000	99.183539
1927.000000	99.173077
1926.000000	99.163338
1925.000000	99.153491
1924.000000	99.142559
1923.000000	99.134857
1922.000000	99.129357
1921.000000	99.119416
1920.000000	99.109026
1919.000000	99.113798
1918.000000	99.136298
1917.000000	99.155358
1916.000000	99.157614
1915.000000	99.153234
1914.000000	99.153880
1913.000000	99.157726
1912.000000	99.158299
1911.000000	99.155029
1910.000000	99.146565
1909.000000	99.129041
1908.000000	99.110353
1907.000000	99.106102
1906.000000	99.117762
1905.000000	99.127368
1904.000000	99.122421
1903.000000	99.110901
1902.000000	99.103156
1901.000000	99.097675
1900.000000	99.091834
1899.000000	99.090042
1898.000000	99.095293
1897.000000	99.102747
1896.000000	99.110042
1895.000000	99.121969
1894.000000	99.136293
1893.000000	99.140787
1892.000000	99.131866
1891.000000	99.121706
1890.000000	99.120583
1889.000000	99.123658
1888.000000	99.124192
1887.000000	99.123151
1886.000000	99.120141
1885.000000	99.112232
1884.000000	99.104400
1883.000000	99.108602
1882.000000	99.125657
1881.000000	99.142084
1880.000000	99.149359
1879.000000	99.151671
1878.000000	99.152596
1877.000000	99.147606
1876.000000	99.136342
1875.000000	99.130060
1874.000000	99.136504
1873.000000	99.148387
1872.000000	99.156356
1871.000000	99.162606
1870.000000	99.172269
1869.000000	99.179680
1868.000000	99.179722
1867.000000	99.179863
1866.000000	99.180841
1865.000000	99.174479
1864.000000	99.161241
1863.000000	99.150657
1862.000000	99.146321
1861.000000	99.141624
1860.000000	99.133253
1859.000000	99.126985
1858.000000	99.126438
1857.000000	99.128762
1856.000000	99.135147
1855.000000	99.151012
1854.000000	99.172868
1853.000000	99.186523
1852.000000	99.185054
1851.000000	99.173677
1850.000000	99.161691
1849.000000	99.156806
1848.000000	99.164278
1847.000000	99.182436
1846.000000	99.197502
1845.000000	99.193102
1844.000000	99.172330
1843.000000	99.161188
1842.000000	99.168414
1841.000000	99.177679
1840.000000	99.181272
1839.000000	99.185352
1838.000000	99.191352
1837.000000	99.189307
1836.000000	99.177294
1835.000000	99.168207
1834.000000	99.170893
1833.000000	99.181138
1832.000000	99.192762
1831.000000	99.202239
1830.000000	99.203953
1829.000000	99.194384
1828.000000	99.181756
1827.000000	99.175691
1826.000000	99.178845
1825.000000	99.185707
1824.000000	99.190792
1823.000000	99.195788
1822.000000	99.198502
1821.000000	99.193505
1820.000000	99.183148
1819.000000	99.177677
1818.000000	99.182331
1817.000000	99.190196
1816.000000	99.196014
1815.000000	99.202969
1814.000000	99.209674
1813.000000	99.209232
1812.000000	99.200736
1811.000000	99.195498
1810.000000	99.199510
1809.000000	99.200375
1808.000000	99.190097
1807.000000	99.179047
1806.000000	99.176292
1805.000000	99.175572
1804.000000	99.169849
1803.000000	99.166088
1802.000000	99.172952
1801.000000	99.186566
1800.000000	99.196992
1799.000000	99.204883
1798.000000	99.212413
1797.000000	99.215780
1796.000000	99.215565
1795.000000	99.219125
1794.000000	99.228282
1793.000000	99.232211
1792.000000	99.218483
1791.000000	99.198678
1790.000000	99.188926
1789.000000	99.183770
1788.000000	99.175936
1787.000000	99.169534
1786.000000	99.169960
1785.000000	99.175510
1784.000000	99.184484
1783.000000	99.197197
1782.000000	99.205767
1781.000000	99.204026
1780.000000	99.197685
1779.000000	99.202009
1778.000000	99.220667
1777.000000	99.241907
1776.000000	99.256869
1775.000000	99.264986
1774.000000	99.271058
1773.000000	99.278163
1772.000000	99.283205
1771.000000	99.285766
1770.000000	99.279414
1769.000000	99.253282
1768.000000	99.218926
1767.000000	99.204328
1766.000000	99.215569
1765.000000	99.229238
1764.000000	99.226907
1763.000000	99.214855
1762.000000	99.206492
1761.000000	99.205302
1760.000000	99.203713
1759.000000	99.195596
1758.000000	99.178534
1757.000000	99.155782
1756.000000	99.138874
1755.000000	99.133101
1754.000000	99.126861
1753.000000	99.110367
1752.000000	99.094227
1751.000000	99.095381
1750.000000	99.111661
1749.000000	99.117444
1748.000000	99.099632
1747.000000	99.073279
1746.000000	99.052818
1745.000000	99.036755
1744.000000	99.019765
1743.000000	99.009357
1742.000000	99.013555
1741.000000	99.023230
1740.000000	99.026067
1739.000000	99.029667
1738.000000	99.041154
1737.000000	99.045470
1736.000000	99.037550
1735.000000	99.049176
1734.000000	99.102113
1733.000000	99.169079
1732.000000	99.221052
1731.000000	99.246813
1730.000000	99.249408
1729.000000	99.240287
1728.000000	99.234830
1727.000000	99.240217
1726.000000	99.253547
1725.000000	99.266800
1724.000000	99.271550
1723.000000	99.272721
1722.000000	99.278553
1721.000000	99.282440
1720.000000	99.274652
1719.000000	99.263747
1718.000000	99.265251
1717.000000	99.265984
1716.000000	99.252095
1715.000000	99.232482
1714.000000	99.206987
1713.000000	99.168691
1712.000000	99.121341
1711.000000	99.077760
1710.000000	99.045189
1709.000000	99.021426
1708.000000	99.000861
1707.000000	98.977851
1706.000000	98.946316
1705.000000	98.900502
1704.000000	98.846151
1703.000000	98.786467
1702.000000	98.720321
1701.000000	98.650488
1700.000000	98.580692
1699.000000	98.531675
1698.000000	98.475500
1697.000000	98.356831
1696.000000	98.189105
1695.000000	98.062901
1694.000000	98.011091
1693.000000	97.969136
1692.000000	97.895748
1691.000000	97.805480
1690.000000	97.723505
1689.000000	97.649233
1688.000000	97.569566
1687.000000	97.479606
1686.000000	97.389911
1685.000000	97.299472
1684.000000	97.194899
1683.000000	97.119065
1682.000000	97.068685
1681.000000	96.983346
1680.000000	96.863903
1679.000000	96.747690
1678.000000	96.650494
1677.000000	96.553558
1676.000000	96.442827
1675.000000	96.334073
1674.000000	96.246935
1673.000000	96.166921
1672.000000	96.068160
1671.000000	95.952093
1670.000000	95.828746
1669.000000	95.699662
1668.000000	95.573750
1667.000000	95.461028
1666.000000	95.358464
1665.000000	95.255607
1664.000000	95.147637
1663.000000	95.043239
1662.000000	94.947582
1661.000000	94.851347
1660.000000	94.745966
1659.000000	94.640741
1658.000000	94.549798
1657.000000	94.466850
1656.000000	94.368923
1655.000000	94.256064
1654.000000	94.160407
1653.000000	94.094970
1652.000000	94.071009
1651.000000	94.071915
1650.000000	94.051198
1649.000000	93.993891
1648.000000	93.909899
1647.000000	93.830402
1646.000000	93.773614
1645.000000	93.728891
1644.000000	93.677077
1643.000000	93.621135
1642.000000	93.568281
1641.000000	93.522360
1640.000000	93.484277
1639.000000	93.450878
1638.000000	93.420700
1637.000000	93.397559
1636.000000	93.387968
1635.000000	93.391889
1634.000000	93.395641
1633.000000	93.373964
1632.000000	93.330352
1631.000000	93.292802
1630.000000	93.284026
1629.000000	93.304272
1628.000000	93.338849
1627.000000	93.378089
1626.000000	93.420805
1625.000000	93.474669
1624.000000	93.552719
1623.000000	93.655623
1622.000000	93.754709
1621.000000	93.821630
1620.000000	93.856447
1619.000000	93.884496
1618.000000	93.949238
1617.000000	94.078862
1616.000000	94.243167
1615.000000	94.386865
1614.000000	94.490258
1613.000000	94.568803
1612.000000	94.652162
1611.000000	94.759929
1610.000000	94.883934
1609.000000	95.005517
1608.000000	95.120014
1607.000000	95.231368
1606.000000	95.335878
1605.000000	95.430920
1604.000000	95.521373
1603.000000	95.610988
1602.000000	95.696232
1601.000000	95.772514
1600.000000	95.842039
1599.000000	95.908427
1598.000000	95.970546
1597.000000	96.026641
1596.000000	96.079369
1595.000000	96.131240
1594.000000	96.177689
1593.000000	96.213224
1592.000000	96.239569
1591.000000	96.260821
1590.000000	96.275420
1589.000000	96.280626
1588.000000	96.278863
1587.000000	96.273348
1586.000000	96.262997
1585.000000	96.246164
1584.000000	96.225187
1583.000000	96.196242
1582.000000	96.153748
1581.000000	96.101964
1580.000000	96.049796
1579.000000	95.995951
1578.000000	95.938352
1577.000000	95.887601
1576.000000	95.859127
1575.000000	95.854565
1574.000000	95.850952
1573.000000	95.825485
1572.000000	95.781252
1571.000000	95.739286
1570.000000	95.707614
1569.000000	95.674799
1568.000000	95.637595
1567.000000	95.593998
1566.000000	95.542437
1565.000000	95.485350
1564.000000	95.425626
1563.000000	95.354729
1562.000000	95.263384
1561.000000	95.169927
1560.000000	95.125834
1559.000000	95.126194
1558.000000	95.114927
1557.000000	95.081812
1556.000000	95.000311
1555.000000	94.888339
1554.000000	94.777206
1553.000000	94.687439
1552.000000	94.609054
1551.000000	94.528629
1550.000000	94.451455
1549.000000	94.386594
1548.000000	94.332977
1547.000000	94.280450
1546.000000	94.228153
1545.000000	94.181435
1544.000000	94.138940
1543.000000	94.096567
1542.000000	94.058145
1541.000000	94.024238
1540.000000	93.995992
1539.000000	93.992394
1538.000000	94.010779
1537.000000	94.018869
1536.000000	94.010394
1535.000000	94.011187
1534.000000	94.054869
1533.000000	94.129849
1532.000000	94.187779
1531.000000	94.215937
1530.000000	94.232049
1529.000000	94.250959
1528.000000	94.278581
1527.000000	94.321478
1526.000000	94.379998
1525.000000	94.437609
1524.000000	94.476080
1523.000000	94.504857
1522.000000	94.550935
1521.000000	94.608744
1520.000000	94.654970
1519.000000	94.690582
1518.000000	94.724741
1517.000000	94.763466
1516.000000	94.801675
1515.000000	94.836010
1514.000000	94.868052
1513.000000	94.905159
1512.000000	94.954994
1511.000000	95.016722
1510.000000	95.080052
1509.000000	95.144362
1508.000000	95.231921
1507.000000	95.351880
1506.000000	95.477008
1505.000000	95.580001
1504.000000	95.639107
1503.000000	95.672989
1502.000000	95.707332
1501.000000	95.757890
1500.000000	95.824394
1499.000000	95.895830
1498.000000	95.969788
1497.000000	96.046774
1496.000000	96.122240
1495.000000	96.198262
1494.000000	96.271424
1493.000000	96.330750
1492.000000	96.380745
1491.000000	96.445239
1490.000000	96.531952
1489.000000	96.607721
1488.000000	96.647686
1487.000000	96.667171
1486.000000	96.680819
1485.000000	96.687042
1484.000000	96.688707
1483.000000	96.691748
1482.000000	96.697237
1481.000000	96.693835
1480.000000	96.674252
1479.000000	96.646832
1478.000000	96.621486
1477.000000	96.596679
1476.000000	96.565201
1475.000000	96.531825
1474.000000	96.500597
1473.000000	96.454827
1472.000000	96.381404
1471.000000	96.308106
1470.000000	96.248153
1469.000000	96.187200
1468.000000	96.122786
1467.000000	96.069436
1466.000000	96.035180
1465.000000	96.008796
1464.000000	95.978958
1463.000000	95.951821
1462.000000	95.932218
1461.000000	95.911621
1460.000000	95.881778
1459.000000	95.845233
1458.000000	95.806324
1457.000000	95.746485
1456.000000	95.674948
1455.000000	95.629999
1454.000000	95.599545
1453.000000	95.565356
1452.000000	95.532014
1451.000000	95.514716
1450.000000	95.513499
1449.000000	95.515228
1448.000000	95.513499
1447.000000	95.515818
1446.000000	95.523396
1445.000000	95.529640
1444.000000	95.532010
1443.000000	95.538983
1442.000000	95.558537
1441.000000	95.584089
1440.000000	95.601654
1439.000000	95.607455
1438.000000	95.619298
1437.000000	95.656381
1436.000000	95.715116
1435.000000	95.776322
1434.000000	95.825641
1433.000000	95.859780
1432.000000	95.890128
1431.000000	95.930231
1430.000000	95.980791
1429.000000	96.028882
1428.000000	96.063744
1427.000000	96.086511
1426.000000	96.102016
1425.000000	96.118739
1424.000000	96.140469
1423.000000	96.160429
1422.000000	96.169238
1421.000000	96.166386
1420.000000	96.166132
1419.000000	96.178096
1418.000000	96.196193
1417.000000	96.206623
1416.000000	96.200568
1415.000000	96.186681
1414.000000	96.178195
1413.000000	96.175251
1412.000000	96.169024
1411.000000	96.156890
1410.000000	96.145135
1409.000000	96.136518
1408.000000	96.128908
1407.000000	96.125285
1406.000000	96.129170
1405.000000	96.138162
1404.000000	96.145705
1403.000000	96.149675
1402.000000	96.151936
1401.000000	96.155777
1400.000000	96.169615
1399.000000	96.197993
1398.000000	96.230469
1397.000000	96.249730
1396.000000	96.252004
1395.000000	96.251573
1394.000000	96.263765
1393.000000	96.289426
1392.000000	96.316383
1391.000000	96.336707
1390.000000	96.349806
1389.000000	96.357638
1388.000000	96.365563
1387.000000	96.381154
1386.000000	96.404446
1385.000000	96.425752
1384.000000	96.440531
1383.000000	96.458223
1382.000000	96.488240
1381.000000	96.524484
1380.000000	96.556858
1379.000000	96.585966
1378.000000	96.616627
1377.000000	96.647740
1376.000000	96.677606
1375.000000	96.709720
1374.000000	96.745067
1373.000000	96.779198
1372.000000	96.809949
1371.000000	96.840233
1370.000000	96.871667
1369.000000	96.904927
1368.000000	96.941576
1367.000000	96.982700
1366.000000	97.024167
1365.000000	97.059033
1364.000000	97.087406
1363.000000	97.115307
1362.000000	97.142476
1361.000000	97.162920
1360.000000	97.177001
1359.000000	97.191332
1358.000000	97.207442
1357.000000	97.218570
1356.000000	97.220225
1355.000000	97.216699
1354.000000	97.211892
1353.000000	97.201803
1352.000000	97.183519
1351.000000	97.163462
1350.000000	97.145183
1349.000000	97.124695
1348.000000	97.098926
1347.000000	97.072473
1346.000000	97.048881
1345.000000	97.024281
1344.000000	96.995039
1343.000000	96.964116
1342.000000	96.934233
1341.000000	96.902317
1340.000000	96.866373
1339.000000	96.832574
1338.000000	96.808599
1337.000000	96.793340
1336.000000	96.782910
1335.000000	96.779119
1334.000000	96.783247
1333.000000	96.790684
1332.000000	96.798562
1331.000000	96.810756
1330.000000	96.829298
1329.000000	96.849311
1328.000000	96.867105
1327.000000	96.884901
1326.000000	96.902311
1325.000000	96.914804
1324.000000	96.922484
1323.000000	96.932321
1322.000000	96.946889
1321.000000	96.959517
1320.000000	96.965405
1319.000000	96.969260
1318.000000	96.976006
1317.000000	96.982415
1316.000000	96.985574
1315.000000	96.989982
1314.000000	96.999256
1313.000000	97.009178
1312.000000	97.016754
1311.000000	97.027448
1310.000000	97.045382
1309.000000	97.064893
1308.000000	97.079083
1307.000000	97.089448
1306.000000	97.099466
1305.000000	97.108162
1304.000000	97.115522
1303.000000	97.127122
1302.000000	97.145226
1301.000000	97.162669
1300.000000	97.173205
1299.000000	97.180986
1298.000000	97.192365
1297.000000	97.205461
1296.000000	97.215564
1295.000000	97.223196
1294.000000	97.229195
1293.000000	97.228856
1292.000000	97.218866
1291.000000	97.203877
1290.000000	97.188652
1289.000000	97.170500
1288.000000	97.146874
1287.000000	97.123020
1286.000000	97.104307
1285.000000	97.087815
1284.000000	97.069542
1283.000000	97.052477
1282.000000	97.040158
1281.000000	97.029320
1280.000000	97.017096
1279.000000	97.007753
1278.000000	97.005110
1277.000000	97.005239
1276.000000	97.003851
1275.000000	97.003304
1274.000000	97.005481
1273.000000	97.005943
1272.000000	97.001923
1271.000000	96.998137
1270.000000	96.997246
1269.000000	96.993233
1268.000000	96.981729
1267.000000	96.967822
1266.000000	96.956291
1265.000000	96.942283
1264.000000	96.920104
1263.000000	96.893416
1262.000000	96.868613
1261.000000	96.845593
1260.000000	96.822817
1259.000000	96.802532
1258.000000	96.784224
1257.000000	96.761595
1256.000000	96.733082
1255.000000	96.705839
1254.000000	96.683554
1253.000000	96.660291
1252.000000	96.632544
1251.000000	96.605871
1250.000000	96.582376
1249.000000	96.553552
1248.000000	96.514376
1247.000000	96.473776
1246.000000	96.442022
1245.000000	96.417277
1244.000000	96.393001
1243.000000	96.368860
1242.000000	96.345901
1241.000000	96.321300
1240.000000	96.296905
1239.000000	96.282676
1238.000000	96.282077
1237.000000	96.284351
1236.000000	96.280418
1235.000000	96.276350
1234.000000	96.282583
1233.000000	96.299319
1232.000000	96.322269
1231.000000	96.352181
1230.000000	96.389190
1229.000000	96.427560
1228.000000	96.465062
1227.000000	96.508689
1226.000000	96.562146
1225.000000	96.617214
1224.000000	96.666416
1223.000000	96.714264
1222.000000	96.767127
1221.000000	96.821882
1220.000000	96.873585
1219.000000	96.924173
1218.000000	96.974185
1217.000000	97.015548
1216.000000	97.043043
1215.000000	97.064596
1214.000000	97.089460
1213.000000	97.114012
1212.000000	97.128674
1211.000000	97.131765
1210.000000	97.127545
1209.000000	97.117149
1208.000000	97.101367
1207.000000	97.085718
1206.000000	97.074373
1205.000000	97.065152
1204.000000	97.056899
1203.000000	97.053959
1202.000000	97.057492
1201.000000	97.062222
1200.000000	97.067827
1199.000000	97.082631
1198.000000	97.108595
1197.000000	97.134492
1196.000000	97.152921
1195.000000	97.172403
1194.000000	97.202950
1193.000000	97.240344
1192.000000	97.274902
1191.000000	97.305974
1190.000000	97.337554
1189.000000	97.368718
1188.000000	97.398207
1187.000000	97.429892
1186.000000	97.464298
1185.000000	97.493340
1184.000000	97.512043
1183.000000	97.526800
1182.000000	97.544061
1181.000000	97.560205
1180.000000	97.571421
1179.000000	97.582960
1178.000000	97.598580
1177.000000	97.611557
1176.000000	97.616138
1175.000000	97.617983
1174.000000	97.623705
1173.000000	97.629731
1172.000000	97.630617
1171.000000	97.628547
1170.000000	97.626203
1169.000000	97.620331
1168.000000	97.610845
1167.000000	97.605495
1166.000000	97.607001
1165.000000	97.607252
1164.000000	97.603074
1163.000000	97.604801
1162.000000	97.618846
1161.000000	97.635047
1160.000000	97.642931
1159.000000	97.648247
1158.000000	97.661565
1157.000000	97.681834
1156.000000	97.703413
1155.000000	97.728214
1154.000000	97.758997
1153.000000	97.791063
1152.000000	97.821208
1151.000000	97.854371
1150.000000	97.891187
1149.000000	97.920764
1148.000000	97.936572
1147.000000	97.947725
1146.000000	97.964260
1145.000000	97.983573
1144.000000	98.001795
1143.000000	98.024598
1142.000000	98.055156
1141.000000	98.084343
1140.000000	98.105195
1139.000000	98.124652
1138.000000	98.149518
1137.000000	98.173355
1136.000000	98.188988
1135.000000	98.201412
1134.000000	98.216576
1133.000000	98.230014
1132.000000	98.238341
1131.000000	98.248758
1130.000000	98.264710
1129.000000	98.275726
1128.000000	98.273983
1127.000000	98.268186
1126.000000	98.268236
1125.000000	98.269614
1124.000000	98.266219
1123.000000	98.264611
1122.000000	98.271236
1121.000000	98.278134
1120.000000	98.275908
1119.000000	98.269026
1118.000000	98.265303
1117.000000	98.262216
1116.000000	98.256499
1115.000000	98.253865
1114.000000	98.256291
1113.000000	98.252957
1112.000000	98.237504
1111.000000	98.220894
1110.000000	98.214005
1109.000000	98.211495
1108.000000	98.205431
1107.000000	98.200672
1106.000000	98.202415
1105.000000	98.203873
1104.000000	98.200503
1103.000000	98.201253
1102.000000	98.210239
1101.000000	98.213075
1100.000000	98.196634
1099.000000	98.170492
1098.000000	98.150687
1097.000000	98.137616
1096.000000	98.125042
1095.000000	98.116246
1094.000000	98.114673
1093.000000	98.111180
1092.000000	98.096885
1091.000000	98.076544
1090.000000	98.055568
1089.000000	98.027315
1088.000000	97.987361
1087.000000	97.945562
1086.000000	97.909784
1085.000000	97.872233
1084.000000	97.827019
1083.000000	97.786156
1082.000000	97.762560
1081.000000	97.751718
1080.000000	97.745939
1079.000000	97.751550
1078.000000	97.774890
1077.000000	97.806175
1076.000000	97.832889
1075.000000	97.856665
1074.000000	97.882822
1073.000000	97.907539
1072.000000	97.929033
1071.000000	97.955795
1070.000000	97.989744
1069.000000	98.015977
1068.000000	98.023704
1067.000000	98.022557
1066.000000	98.025959
1065.000000	98.033106
1064.000000	98.040100
1063.000000	98.051715
1062.000000	98.068123
1061.000000	98.076671
1060.000000	98.070926
1059.000000	98.062364
1058.000000	98.060582
1057.000000	98.058968
1056.000000	98.052037
1055.000000	98.048623
1054.000000	98.053729
1053.000000	98.056339
1052.000000	98.049818
1051.000000	98.045982
1050.000000	98.052759
1049.000000	98.058592
1048.000000	98.055388
1047.000000	98.055248
1046.000000	98.067064
1045.000000	98.078118
1044.000000	98.076252
1043.000000	98.069804
1042.000000	98.069415
1041.000000	98.068276
1040.000000	98.057395
1039.000000	98.041519
1038.000000	98.024396
1037.000000	97.996352
1036.000000	97.953935
1035.000000	97.913350
1034.000000	97.887395
1033.000000	97.867092
1032.000000	97.842469
1031.000000	97.822580
1030.000000	97.816532
1029.000000	97.814214
1028.000000	97.803984
1027.000000	97.792541
1026.000000	97.788709
1025.000000	97.785252
1024.000000	97.774346
1023.000000	97.764117
1022.000000	97.762324
1021.000000	97.760735
1020.000000	97.752771
1019.000000	97.749106
1018.000000	97.759150
1017.000000	97.774720
1016.000000	97.789959
1015.000000	97.818053
1014.000000	97.870626
1013.000000	97.935895
1012.000000	97.995018
1011.000000	98.044698
1010.000000	98.089157
1009.000000	98.126657
1008.000000	98.158323
1007.000000	98.194026
1006.000000	98.235269
1005.000000	98.268932
1004.000000	98.289925
1003.000000	98.312541
1002.000000	98.346516
1001.000000	98.382149
1000.000000	98.411723
999.000000	98.445133
998.000000	98.488507
997.000000	98.528107
996.000000	98.552009
995.000000	98.569143
994.000000	98.590808
993.000000	98.611359
992.000000	98.623755
991.000000	98.635263
990.000000	98.652423
989.000000	98.667901
988.000000	98.677961
987.000000	98.693327
986.000000	98.717292
985.000000	98.732685
984.000000	98.728338
983.000000	98.719517
982.000000	98.724386
981.000000	98.738358
980.000000	98.748360
979.000000	98.754585
978.000000	98.759995
977.000000	98.757078
976.000000	98.742789
975.000000	98.730670
974.000000	98.730773
973.000000	98.734707
972.000000	98.735563
971.000000	98.744063
970.000000	98.768120
969.000000	98.795085
968.000000	98.811989
967.000000	98.824866
966.000000	98.841961
965.000000	98.856006
964.000000	98.861353
963.000000	98.869364
962.000000	98.889052
961.000000	98.909640
960.000000	98.920776
959.000000	98.931831
958.000000	98.953322
957.000000	98.976659
956.000000	98.990396
955.000000	99.000039
954.000000	99.013725
953.000000	99.025552
952.000000	99.029839
951.000000	99.035568
950.000000	99.049192
949.000000	99.060373
948.000000	99.060546
947.000000	99.059044
946.000000	99.064727
945.000000	99.069657
944.000000	99.066685
943.000000	99.064694
942.000000	99.070856
941.000000	99.076138
940.000000	99.074524
939.000000	99.076450
938.000000	99.087852
937.000000	99.095518
936.000000	99.090630
935.000000	99.085807
934.000000	99.092099
933.000000	99.099414
932.000000	99.097911
931.000000	99.097740
930.000000	99.108522
929.000000	99.120164
928.000000	99.122508
927.000000	99.124387
926.000000	99.133577
925.000000	99.138690
924.000000	99.130182
923.000000	99.120563
922.000000	99.123285
921.000000	99.130683
920.000000	99.131779
919.000000	99.132845
918.000000	99.141202
917.000000	99.147833
916.000000	99.146275
915.000000	99.149524
914.000000	99.168845
913.000000	99.193067
912.000000	99.208089
911.000000	99.217806
910.000000	99.228380
909.000000	99.231598
908.000000	99.223555
907.000000	99.219329
906.000000	99.229202
905.000000	99.239855
904.000000	99.238387
903.000000	99.235001
902.000000	99.241930
901.000000	99.251449
900.000000	99.254263
899.000000	99.259266
898.000000	99.273419
897.000000	99.283212
896.000000	99.276898
895.000000	99.265822
894.000000	99.263480
893.000000	99.263397
892.000000	99.257373
891.000000	99.254051
890.000000	99.259834
889.000000	99.262618
888.000000	99.255226
887.000000	99.252029
886.000000	99.262152
885.000000	99.268558
884.000000	99.256316
883.000000	99.237739
882.000000	99.227083
881.000000	99.213833
880.000000	99.185375
879.000000	99.153333
878.000000	99.131609
877.000000	99.111342
876.000000	99.082649
875.000000	99.059658
874.000000	99.057860
873.000000	99.068696
872.000000	99.079398
871.000000	99.095220
870.000000	99.119472
869.000000	99.136669
868.000000	99.138553
867.000000	99.142967
866.000000	99.164274
865.000000	99.188761
864.000000	99.202049
863.000000	99.214782
862.000000	99.237786
861.000000	99.256026
860.000000	99.253614
859.000000	99.241553
858.000000	99.236872
857.000000	99.235814
856.000000	99.230398
855.000000	99.228807
854.000000	99.236330
853.000000	99.239475
852.000000	99.230976
851.000000	99.227200
850.000000	99.238621
849.000000	99.248589
848.000000	99.242811
847.000000	99.234487
846.000000	99.237333
845.000000	99.241085
844.000000	99.236748
843.000000	99.238343
842.000000	99.254979
841.000000	99.268768
840.000000	99.265782
839.000000	99.261546
838.000000	99.271231
837.000000	99.281212
836.000000	99.276542
835.000000	99.268866
834.000000	99.271487
833.000000	99.273381
832.000000	99.264751
831.000000	99.261045
830.000000	99.274058
829.000000	99.285784
828.000000	99.279007
827.000000	99.267480
826.000000	99.267065
825.000000	99.266520
824.000000	99.256321
823.000000	99.254313
822.000000	99.269906
821.000000	99.277866
820.000000	99.260306
819.000000	99.240857
818.000000	99.245415
817.000000	99.260863
816.000000	99.263998
815.000000	99.261777
814.000000	99.271127
813.000000	99.283907
812.000000	99.283297
811.000000	99.272635
810.000000	99.261781
809.000000	99.247707
808.000000	99.231885
807.000000	99.230663
806.000000	99.245473
805.000000	99.251125
804.000000	99.236494
803.000000	99.225773
802.000000	99.236595
801.000000	99.251513
800.000000	99.254977
799.000000	99.261602
798.000000	99.279723
797.000000	99.285732
796.000000	99.266532
795.000000	99.250473
794.000000	99.262139
793.000000	99.281042
792.000000	99.278580
791.000000	99.262559
790.000000	99.252395
789.000000	99.243016
788.000000	99.227865
787.000000	99.226075
786.000000	99.250963
785.000000	99.278826
784.000000	99.282339
783.000000	99.269689
782.000000	99.261191
781.000000	99.254846
780.000000	99.245132
779.000000	99.247138
778.000000	99.269511
777.000000	99.289377
776.000000	99.285481
775.000000	99.271240
774.000000	99.265998
773.000000	99.260878
772.000000	99.243840
771.000000	99.230580
770.000000	99.237778
769.000000	99.251169
768.000000	99.252715
767.000000	99.254546
766.000000	99.272963
765.000000	99.292654
764.000000	99.290004
763.000000	99.271495
762.000000	99.257272
761.000000	99.247290
760.000000	99.233270
759.000000	99.223549
758.000000	99.226414
757.000000	99.228125
756.000000	99.214507
755.000000	99.195810
754.000000	99.186843
753.000000	99.183675
752.000000	99.181653
751.000000	99.190987
750.000000	99.211562
749.000000	99.219128
748.000000	99.201550
747.000000	99.181041
746.000000	99.176207
745.000000	99.170919
744.000000	99.148258
743.000000	99.125214
742.000000	99.122354
741.000000	99.126413
740.000000	99.114194
739.000000	99.090522
738.000000	99.072651
737.000000	99.060724
736.000000	99.050275
735.000000	99.050307
734.000000	99.061834
733.000000	99.063032
732.000000	99.041890
731.000000	99.019860
730.000000	99.016766
729.000000	99.015872
728.000000	98.993851
727.000000	98.959157
726.000000	98.931015
725.000000	98.908050
724.000000	98.885670
723.000000	98.875472
722.000000	98.880159
721.000000	98.877279
720.000000	98.856025
719.000000	98.839560
718.000000	98.844482
717.000000	98.850975
716.000000	98.838644
715.000000	98.821581
714.000000	98.819992
713.000000	98.825613
712.000000	98.823540
711.000000	98.820374
710.000000	98.821394
709.000000	98.809812
708.000000	98.777872
707.000000	98.751291
706.000000	98.748712
705.000000	98.749701
704.000000	98.734958
703.000000	98.720028
702.000000	98.719640
701.000000	98.713111
700.000000	98.678981
699.000000	98.637021
698.000000	98.617034
697.000000	98.614440
696.000000	98.614589
695.000000	98.626538
694.000000	98.661732
693.000000	98.701215
692.000000	98.715960
691.000000	98.708525
690.000000	98.698051
689.000000	98.688889
688.000000	98.680737
687.000000	98.681198
686.000000	98.686338
685.000000	98.673156
684.000000	98.634821
683.000000	98.602302
682.000000	98.602800
681.000000	98.622469
680.000000	98.632448
679.000000	98.628989
678.000000	98.622714
677.000000	98.603560
676.000000	98.563865
675.000000	98.530847
674.000000	98.527563
673.000000	98.537131
672.000000	98.551276
671.000000	98.612979
670.000000	98.764313
669.000000	98.965851
668.000000	99.065291
667.000000	98.939793
666.000000	98.758341
665.000000	98.620348
664.000000	98.514393
663.000000	98.452903
662.000000	98.442958
661.000000	98.452526
660.000000	98.448641
659.000000	98.442011
658.000000	98.451437
657.000000	98.457274
656.000000	98.447166
655.000000	98.455860
654.000000	98.496642
653.000000	98.518029
652.000000	98.487868
651.000000	98.447879
650.000000	98.441946
649.000000	98.450491
648.000000	98.447606
647.000000	98.449979
646.000000	98.462748
645.000000	98.453157
644.000000	98.419619
643.000000	98.413173
642.000000	98.453278
641.000000	98.486972
640.000000	98.476783
639.000000	98.461549
638.000000	98.476590
637.000000	98.488972
636.000000	98.467127
635.000000	98.443315
634.000000	98.450771
633.000000	98.463805
632.000000	98.452949
631.000000	98.441145
630.000000	98.453076
629.000000	98.466289
628.000000	98.462117
627.000000	98.464858
626.000000	98.483220
625.000000	98.478702
624.000000	98.438573
623.000000	98.410835
622.000000	98.423460
621.000000	98.435138
620.000000	98.413496
619.000000	98.393851
618.000000	98.412243
617.000000	98.442848
616.000000	98.454467
615.000000	98.467249
614.000000	98.496369
613.000000	98.506848
612.000000	98.478574
611.000000	98.453133
610.000000	98.460537
609.000000	98.466313
608.000000	98.442769
607.000000	98.426076
606.000000	98.444597
605.000000	98.463780
604.000000	98.456881
603.000000	98.458845
602.000000	98.493819
601.000000	98.518933
600.000000	98.499836
599.000000	98.470435
598.000000	98.463799
597.000000	98.453167
596.000000	98.419864
595.000000	98.404121
594.000000	98.432550
593.000000	98.461320
592.000000	98.448674
591.000000	98.420001
590.000000	98.403856
589.000000	98.378859
588.000000	98.340286
587.000000	98.338691
586.000000	98.395494
585.000000	98.453130
584.000000	98.465050
583.000000	98.460190
582.000000	98.461336
581.000000	98.428253
580.000000	98.346049
579.000000	98.283711
578.000000	98.294458
577.000000	98.341398
576.000000	98.379971
575.000000	98.426106
574.000000	98.480377
573.000000	98.481375
572.000000	98.408705
571.000000	98.339864
570.000000	98.336592
569.000000	98.348707
568.000000	98.312551
567.000000	98.258278
566.000000	98.234431
565.000000	98.216133
564.000000	98.174156
563.000000	98.147051
562.000000	98.164291
561.000000	98.179481
560.000000	98.156460
559.000000	98.140967
558.000000	98.168875
557.000000	98.191719
556.000000	98.169525
555.000000	98.148970
554.000000	98.169165
553.000000	98.182987
552.000000	98.153618
551.000000	98.132448
550.000000	98.158892
549.000000	98.178534
548.000000	98.153820
547.000000	98.152593
546.000000	98.231343
545.000000	98.323671
544.000000	98.348380
543.000000	98.330106
542.000000	98.320308
541.000000	98.296650
540.000000	98.234610
539.000000	98.185476
538.000000	98.189905
537.000000	98.200165
536.000000	98.173489
535.000000	98.152991
534.000000	98.172255
533.000000	98.180313
532.000000	98.148456
531.000000	98.144802
530.000000	98.210114
529.000000	98.271324
528.000000	98.270861
527.000000	98.271729
526.000000	98.334840
525.000000	98.390480
524.000000	98.365134
523.000000	98.314370
522.000000	98.310039
521.000000	98.322680
520.000000	98.308229
519.000000	98.310473
518.000000	98.371490
517.000000	98.428658
516.000000	98.430138
515.000000	98.438123
514.000000	98.501643
513.000000	98.558930
512.000000	98.555177
511.000000	98.542972
510.000000	98.574939
509.000000	98.602672
508.000000	98.581915
507.000000	98.564921
506.000000	98.583542
505.000000	98.567959
504.000000	98.490711
503.000000	98.459040
502.000000	98.547879
501.000000	98.655893
500.000000	98.679946
499.000000	98.671394
498.000000	98.691429
497.000000	98.686188
496.000000	98.618919
495.000000	98.584013
494.000000	98.655061
493.000000	98.738136
492.000000	98.721619
491.000000	98.663799
490.000000	98.677448
489.000000	98.744613
488.000000	98.799908
487.000000	98.864756
486.000000	98.964650
485.000000	99.030162
484.000000	99.014355
483.000000	98.997269
482.000000	99.030671
481.000000	99.030904
480.000000	98.951029
479.000000	98.897675
478.000000	98.950131
477.000000	99.008421
476.000000	98.970433
475.000000	98.913157
474.000000	98.943928
473.000000	99.003441
472.000000	98.995561
471.000000	98.999472
470.000000	99.104721
469.000000	99.210823
468.000000	99.194579
467.000000	99.109597
466.000000	99.072248
465.000000	99.065393
464.000000	99.038240
463.000000	99.051016
462.000000	99.139224
461.000000	99.182051
460.000000	99.093999
459.000000	99.009062
458.000000	99.097663
457.000000	99.270507
456.000000	99.341622
455.000000	99.344691
454.000000	99.361469
453.000000	99.336475
452.000000	99.231130
451.000000	99.174561
450.000000	99.253746
