PE IR       SUBTECH     SPECTRUM    ASCII       PEDS        4.00        
   -1
Histo1-Veau-S2_001_1.ASC
23/09/14
10:25:45.00
23/09/14
11:18:22.00
uco
Sample 001 By uco Date Thursday, September 14 2023
450.000000
#HDR
-1
-1
#GR
cm-1
%T
1.0
0.0
4000.000000
-1.000000
3551
8
100.064629
97.658602
#DATA
4000.000000	99.887210
3999.000000	99.889153
3998.000000	99.891168
3997.000000	99.894717
3996.000000	99.898015
3995.000000	99.899581
3994.000000	99.899280
3993.000000	99.898354
3992.000000	99.898167
3991.000000	99.898609
3990.000000	99.897987
3989.000000	99.894948
3988.000000	99.890460
3987.000000	99.887415
3986.000000	99.887805
3985.000000	99.890270
3984.000000	99.890865
3983.000000	99.886662
3982.000000	99.878553
3981.000000	99.870543
3980.000000	99.866445
3979.000000	99.867250
3978.000000	99.871356
3977.000000	99.876430
3976.000000	99.880707
3975.000000	99.883031
3974.000000	99.882733
3973.000000	99.880195
3972.000000	99.877249
3971.000000	99.876109
3970.000000	99.877349
3969.000000	99.879403
3968.000000	99.880484
3967.000000	99.880737
3966.000000	99.882017
3965.000000	99.885713
3964.000000	99.891028
3963.000000	99.895512
3962.000000	99.897172
3961.000000	99.895914
3960.000000	99.893150
3959.000000	99.890244
3958.000000	99.887406
3957.000000	99.884187
3956.000000	99.880549
3955.000000	99.876909
3954.000000	99.873340
3953.000000	99.869576
3952.000000	99.866213
3951.000000	99.865229
3950.000000	99.868461
3949.000000	99.875413
3948.000000	99.883240
3947.000000	99.889086
3946.000000	99.892336
3945.000000	99.894338
3944.000000	99.896103
3943.000000	99.896401
3942.000000	99.892895
3941.000000	99.885246
3940.000000	99.876280
3939.000000	99.869959
3938.000000	99.868292
3937.000000	99.870449
3936.000000	99.874441
3935.000000	99.879197
3934.000000	99.884647
3933.000000	99.890290
3932.000000	99.894772
3931.000000	99.896909
3930.000000	99.896539
3929.000000	99.894213
3928.000000	99.890548
3927.000000	99.886185
3926.000000	99.881445
3925.000000	99.875854
3924.000000	99.869115
3923.000000	99.862747
3922.000000	99.859620
3921.000000	99.861849
3920.000000	99.869395
3919.000000	99.879983
3918.000000	99.889753
3917.000000	99.894638
3916.000000	99.892607
3915.000000	99.884902
3914.000000	99.874822
3913.000000	99.865245
3912.000000	99.857476
3911.000000	99.851742
3910.000000	99.847853
3909.000000	99.845836
3908.000000	99.846228
3907.000000	99.850110
3906.000000	99.857885
3905.000000	99.867522
3904.000000	99.874687
3903.000000	99.876516
3902.000000	99.874255
3901.000000	99.871200
3900.000000	99.869103
3899.000000	99.867198
3898.000000	99.864159
3897.000000	99.859760
3896.000000	99.854650
3895.000000	99.849854
3894.000000	99.846558
3893.000000	99.845997
3892.000000	99.848189
3891.000000	99.851144
3890.000000	99.852244
3889.000000	99.851300
3888.000000	99.852256
3887.000000	99.860596
3886.000000	99.876197
3885.000000	99.890967
3884.000000	99.897347
3883.000000	99.895948
3882.000000	99.891628
3881.000000	99.887376
3880.000000	99.883241
3879.000000	99.879086
3878.000000	99.875705
3877.000000	99.874344
3876.000000	99.876248
3875.000000	99.880520
3874.000000	99.883110
3873.000000	99.881349
3872.000000	99.877935
3871.000000	99.876937
3870.000000	99.877362
3869.000000	99.874726
3868.000000	99.868633
3867.000000	99.863686
3866.000000	99.863354
3865.000000	99.865151
3864.000000	99.863579
3863.000000	99.858154
3862.000000	99.854244
3861.000000	99.855733
3860.000000	99.860828
3859.000000	99.864521
3858.000000	99.862318
3857.000000	99.853945
3856.000000	99.844932
3855.000000	99.844141
3854.000000	99.853572
3853.000000	99.861847
3852.000000	99.861930
3851.000000	99.858919
3850.000000	99.855970
3849.000000	99.852900
3848.000000	99.848953
3847.000000	99.844217
3846.000000	99.839477
3845.000000	99.835576
3844.000000	99.833533
3843.000000	99.834557
3842.000000	99.838397
3841.000000	99.843210
3840.000000	99.847044
3839.000000	99.849597
3838.000000	99.852046
3837.000000	99.855285
3836.000000	99.858418
3835.000000	99.860085
3834.000000	99.859890
3833.000000	99.858377
3832.000000	99.856512
3831.000000	99.855673
3830.000000	99.857158
3829.000000	99.860990
3828.000000	99.865531
3827.000000	99.867996
3826.000000	99.865705
3825.000000	99.858530
3824.000000	99.850214
3823.000000	99.846029
3822.000000	99.846911
3821.000000	99.846652
3820.000000	99.841132
3819.000000	99.834935
3818.000000	99.833606
3817.000000	99.838725
3816.000000	99.847546
3815.000000	99.856142
3814.000000	99.863518
3813.000000	99.870314
3812.000000	99.875446
3811.000000	99.876141
3810.000000	99.870877
3809.000000	99.861607
3808.000000	99.852188
3807.000000	99.844193
3806.000000	99.836093
3805.000000	99.827012
3804.000000	99.819586
3803.000000	99.818605
3802.000000	99.825159
3801.000000	99.834348
3800.000000	99.842268
3799.000000	99.849520
3798.000000	99.856592
3797.000000	99.861970
3796.000000	99.864131
3795.000000	99.864146
3794.000000	99.864775
3793.000000	99.866862
3792.000000	99.868690
3791.000000	99.868264
3790.000000	99.865403
3789.000000	99.861705
3788.000000	99.858944
3787.000000	99.857497
3786.000000	99.856174
3785.000000	99.853508
3784.000000	99.849463
3783.000000	99.845436
3782.000000	99.842533
3781.000000	99.840721
3780.000000	99.839454
3779.000000	99.838654
3778.000000	99.838755
3777.000000	99.839898
3776.000000	99.842076
3775.000000	99.845794
3774.000000	99.851001
3773.000000	99.856429
3772.000000	99.860561
3771.000000	99.862356
3770.000000	99.861398
3769.000000	99.859393
3768.000000	99.860013
3767.000000	99.865268
3766.000000	99.872902
3765.000000	99.878007
3764.000000	99.877871
3763.000000	99.874832
3762.000000	99.873163
3761.000000	99.874148
3760.000000	99.874539
3759.000000	99.870965
3758.000000	99.864436
3757.000000	99.858176
3756.000000	99.853557
3755.000000	99.850863
3754.000000	99.850854
3753.000000	99.853512
3752.000000	99.856321
3751.000000	99.855596
3750.000000	99.851293
3749.000000	99.846858
3748.000000	99.843481
3747.000000	99.842523
3746.000000	99.848327
3745.000000	99.862008
3744.000000	99.877980
3743.000000	99.890748
3742.000000	99.899447
3741.000000	99.904809
3740.000000	99.906641
3739.000000	99.903984
3738.000000	99.896947
3737.000000	99.887750
3736.000000	99.879411
3735.000000	99.873640
3734.000000	99.870257
3733.000000	99.868018
3732.000000	99.866512
3731.000000	99.866177
3730.000000	99.866808
3729.000000	99.868304
3728.000000	99.871803
3727.000000	99.877660
3726.000000	99.883263
3725.000000	99.885820
3724.000000	99.886741
3723.000000	99.889800
3722.000000	99.895636
3721.000000	99.900654
3720.000000	99.900853
3719.000000	99.895346
3718.000000	99.886006
3717.000000	99.875425
3716.000000	99.866617
3715.000000	99.862847
3714.000000	99.864488
3713.000000	99.866876
3712.000000	99.863665
3711.000000	99.855445
3710.000000	99.849940
3709.000000	99.851964
3708.000000	99.859708
3707.000000	99.869323
3706.000000	99.879015
3705.000000	99.888871
3704.000000	99.899520
3703.000000	99.909120
3702.000000	99.912402
3701.000000	99.905401
3700.000000	99.891196
3699.000000	99.877315
3698.000000	99.869452
3697.000000	99.868437
3696.000000	99.871151
3695.000000	99.873959
3694.000000	99.874881
3693.000000	99.874173
3692.000000	99.873572
3691.000000	99.875412
3690.000000	99.878360
3689.000000	99.876682
3688.000000	99.867828
3687.000000	99.855640
3686.000000	99.844468
3685.000000	99.837000
3684.000000	99.834985
3683.000000	99.838245
3682.000000	99.844117
3681.000000	99.847891
3680.000000	99.845610
3679.000000	99.837864
3678.000000	99.831915
3677.000000	99.837018
3676.000000	99.852490
3675.000000	99.864719
3674.000000	99.865923
3673.000000	99.860774
3672.000000	99.856091
3671.000000	99.855173
3670.000000	99.854421
3669.000000	99.849482
3668.000000	99.843850
3667.000000	99.842436
3666.000000	99.844697
3665.000000	99.847562
3664.000000	99.849144
3663.000000	99.849942
3662.000000	99.850927
3661.000000	99.851414
3660.000000	99.850308
3659.000000	99.848713
3658.000000	99.849591
3657.000000	99.853989
3656.000000	99.859165
3655.000000	99.862047
3654.000000	99.863199
3653.000000	99.866192
3652.000000	99.874364
3651.000000	99.884605
3650.000000	99.884235
3649.000000	99.864743
3648.000000	99.839129
3647.000000	99.826174
3646.000000	99.826903
3645.000000	99.831105
3644.000000	99.832630
3643.000000	99.833430
3642.000000	99.838265
3641.000000	99.848249
3640.000000	99.859302
3639.000000	99.865679
3638.000000	99.864384
3637.000000	99.856998
3636.000000	99.847920
3635.000000	99.840437
3634.000000	99.834781
3633.000000	99.830845
3632.000000	99.832217
3631.000000	99.844186
3630.000000	99.864568
3629.000000	99.877666
3628.000000	99.871799
3627.000000	99.856324
3626.000000	99.842954
3625.000000	99.834096
3624.000000	99.829403
3623.000000	99.829324
3622.000000	99.834026
3621.000000	99.840871
3620.000000	99.843717
3619.000000	99.837723
3618.000000	99.825423
3617.000000	99.813853
3616.000000	99.807896
3615.000000	99.808708
3614.000000	99.813248
3613.000000	99.815861
3612.000000	99.814340
3611.000000	99.812020
3610.000000	99.811745
3609.000000	99.811212
3608.000000	99.806027
3607.000000	99.796440
3606.000000	99.787842
3605.000000	99.784510
3604.000000	99.786445
3603.000000	99.789830
3602.000000	99.789178
3601.000000	99.781127
3600.000000	99.768158
3599.000000	99.757678
3598.000000	99.755469
3597.000000	99.760588
3596.000000	99.766838
3595.000000	99.768196
3594.000000	99.763201
3593.000000	99.755683
3592.000000	99.750572
3591.000000	99.749442
3590.000000	99.749542
3589.000000	99.746728
3588.000000	99.740026
3587.000000	99.734165
3586.000000	99.734584
3585.000000	99.740216
3584.000000	99.745772
3583.000000	99.747413
3582.000000	99.743840
3581.000000	99.735147
3580.000000	99.723467
3579.000000	99.713256
3578.000000	99.708387
3577.000000	99.709252
3576.000000	99.712922
3575.000000	99.716125
3574.000000	99.717170
3573.000000	99.716678
3572.000000	99.716330
3571.000000	99.716560
3570.000000	99.714676
3569.000000	99.706337
3568.000000	99.689635
3567.000000	99.668886
3566.000000	99.651828
3565.000000	99.641919
3564.000000	99.636563
3563.000000	99.632079
3562.000000	99.626419
3561.000000	99.619157
3560.000000	99.611536
3559.000000	99.605667
3558.000000	99.602147
3557.000000	99.599407
3556.000000	99.595820
3555.000000	99.591272
3554.000000	99.586223
3553.000000	99.580800
3552.000000	99.575770
3551.000000	99.572729
3550.000000	99.572050
3549.000000	99.572369
3548.000000	99.572499
3547.000000	99.571716
3546.000000	99.567814
3545.000000	99.557871
3544.000000	99.542920
3543.000000	99.528776
3542.000000	99.520389
3541.000000	99.517406
3540.000000	99.516451
3539.000000	99.515708
3538.000000	99.515640
3537.000000	99.516390
3536.000000	99.516994
3535.000000	99.517160
3534.000000	99.517732
3533.000000	99.519198
3532.000000	99.521008
3531.000000	99.522385
3530.000000	99.522938
3529.000000	99.523011
3528.000000	99.524178
3527.000000	99.528583
3526.000000	99.536191
3525.000000	99.543000
3524.000000	99.543434
3523.000000	99.535288
3522.000000	99.522173
3521.000000	99.510909
3520.000000	99.506710
3519.000000	99.510204
3518.000000	99.517842
3517.000000	99.525118
3516.000000	99.530130
3515.000000	99.533626
3514.000000	99.536108
3513.000000	99.536488
3512.000000	99.533801
3511.000000	99.528622
3510.000000	99.522146
3509.000000	99.515426
3508.000000	99.510656
3507.000000	99.511776
3506.000000	99.521680
3505.000000	99.538649
3504.000000	99.555893
3503.000000	99.565625
3502.000000	99.564570
3501.000000	99.555643
3500.000000	99.544788
3499.000000	99.536805
3498.000000	99.533468
3497.000000	99.534043
3496.000000	99.536832
3495.000000	99.540061
3494.000000	99.542059
3493.000000	99.541869
3492.000000	99.539917
3491.000000	99.537275
3490.000000	99.534410
3489.000000	99.531556
3488.000000	99.529877
3487.000000	99.530570
3486.000000	99.532618
3485.000000	99.533134
3484.000000	99.530578
3483.000000	99.526556
3482.000000	99.523869
3481.000000	99.523514
3480.000000	99.524077
3479.000000	99.523170
3478.000000	99.519160
3477.000000	99.512379
3476.000000	99.505063
3475.000000	99.499514
3474.000000	99.496394
3473.000000	99.495626
3472.000000	99.498091
3471.000000	99.504405
3470.000000	99.512252
3469.000000	99.517449
3468.000000	99.518445
3467.000000	99.518034
3466.000000	99.519644
3465.000000	99.523332
3464.000000	99.526107
3463.000000	99.524770
3462.000000	99.517922
3461.000000	99.506845
3460.000000	99.495328
3459.000000	99.487308
3458.000000	99.483804
3457.000000	99.482965
3456.000000	99.483094
3455.000000	99.484153
3454.000000	99.485957
3453.000000	99.486917
3452.000000	99.485652
3451.000000	99.482709
3450.000000	99.479907
3449.000000	99.479019
3448.000000	99.481215
3447.000000	99.486017
3446.000000	99.490226
3445.000000	99.489828
3444.000000	99.483854
3443.000000	99.475139
3442.000000	99.466871
3441.000000	99.459995
3440.000000	99.454527
3439.000000	99.451109
3438.000000	99.449644
3437.000000	99.448098
3436.000000	99.444727
3435.000000	99.440456
3434.000000	99.437430
3433.000000	99.435879
3432.000000	99.434028
3431.000000	99.430705
3430.000000	99.426516
3429.000000	99.422579
3428.000000	99.419132
3427.000000	99.415385
3426.000000	99.410162
3425.000000	99.402843
3424.000000	99.394203
3423.000000	99.386008
3422.000000	99.379381
3421.000000	99.373869
3420.000000	99.368269
3419.000000	99.361898
3418.000000	99.355046
3417.000000	99.348986
3416.000000	99.345557
3415.000000	99.345653
3414.000000	99.347727
3413.000000	99.348628
3412.000000	99.346108
3411.000000	99.339910
3410.000000	99.330945
3409.000000	99.320873
3408.000000	99.312392
3407.000000	99.307996
3406.000000	99.307669
3405.000000	99.308701
3404.000000	99.308054
3403.000000	99.304042
3402.000000	99.296209
3401.000000	99.285669
3400.000000	99.275847
3399.000000	99.270678
3398.000000	99.270829
3397.000000	99.273055
3396.000000	99.274221
3395.000000	99.274734
3394.000000	99.277126
3393.000000	99.282542
3392.000000	99.289488
3391.000000	99.295176
3390.000000	99.297650
3389.000000	99.297571
3388.000000	99.298281
3387.000000	99.302728
3386.000000	99.309553
3385.000000	99.313564
3384.000000	99.311129
3383.000000	99.304104
3382.000000	99.297889
3381.000000	99.296852
3380.000000	99.302054
3379.000000	99.311532
3378.000000	99.321425
3377.000000	99.327848
3376.000000	99.328989
3375.000000	99.325427
3374.000000	99.318637
3373.000000	99.310349
3372.000000	99.303258
3371.000000	99.300291
3370.000000	99.301976
3369.000000	99.305747
3368.000000	99.308741
3367.000000	99.310278
3366.000000	99.311049
3365.000000	99.311425
3364.000000	99.311695
3363.000000	99.312518
3362.000000	99.313680
3361.000000	99.313279
3360.000000	99.309448
3359.000000	99.302466
3358.000000	99.294594
3357.000000	99.288561
3356.000000	99.286669
3355.000000	99.290065
3354.000000	99.297540
3353.000000	99.305502
3352.000000	99.310158
3351.000000	99.309838
3350.000000	99.305326
3349.000000	99.298780
3348.000000	99.292445
3347.000000	99.287347
3346.000000	99.282654
3345.000000	99.276924
3344.000000	99.270381
3343.000000	99.265177
3342.000000	99.263107
3341.000000	99.263913
3340.000000	99.265994
3339.000000	99.267863
3338.000000	99.268731
3337.000000	99.268791
3336.000000	99.269266
3335.000000	99.271249
3334.000000	99.274166
3333.000000	99.276197
3332.000000	99.276222
3331.000000	99.274291
3330.000000	99.270448
3329.000000	99.264668
3328.000000	99.258148
3327.000000	99.253135
3326.000000	99.250824
3325.000000	99.250421
3324.000000	99.250481
3323.000000	99.249967
3322.000000	99.247901
3321.000000	99.243674
3320.000000	99.238159
3319.000000	99.233120
3318.000000	99.229148
3317.000000	99.225486
3316.000000	99.222121
3315.000000	99.220295
3314.000000	99.220355
3313.000000	99.220934
3312.000000	99.221049
3311.000000	99.221280
3310.000000	99.221931
3309.000000	99.221651
3308.000000	99.219372
3307.000000	99.216348
3306.000000	99.214743
3305.000000	99.214971
3304.000000	99.215488
3303.000000	99.214697
3302.000000	99.212375
3301.000000	99.209700
3300.000000	99.208293
3299.000000	99.208643
3298.000000	99.209354
3297.000000	99.208834
3296.000000	99.207616
3295.000000	99.207592
3294.000000	99.208774
3293.000000	99.208719
3292.000000	99.205953
3291.000000	99.202303
3290.000000	99.200727
3289.000000	99.202013
3288.000000	99.204719
3287.000000	99.207305
3286.000000	99.209040
3285.000000	99.209588
3284.000000	99.208998
3283.000000	99.207991
3282.000000	99.207653
3281.000000	99.208818
3280.000000	99.211709
3279.000000	99.215498
3278.000000	99.218202
3277.000000	99.217881
3276.000000	99.214238
3275.000000	99.208564
3274.000000	99.202529
3273.000000	99.197976
3272.000000	99.197132
3271.000000	99.200967
3270.000000	99.207052
3269.000000	99.210846
3268.000000	99.209692
3267.000000	99.204592
3266.000000	99.198303
3265.000000	99.193336
3264.000000	99.191822
3263.000000	99.194902
3262.000000	99.201190
3261.000000	99.207442
3260.000000	99.211706
3259.000000	99.214494
3258.000000	99.216544
3257.000000	99.217599
3256.000000	99.218287
3255.000000	99.220951
3254.000000	99.226779
3253.000000	99.233619
3252.000000	99.238479
3251.000000	99.241050
3250.000000	99.243123
3249.000000	99.245518
3248.000000	99.247570
3247.000000	99.249100
3246.000000	99.251069
3245.000000	99.253897
3244.000000	99.256127
3243.000000	99.255373
3242.000000	99.250474
3241.000000	99.243019
3240.000000	99.236815
3239.000000	99.235032
3238.000000	99.237537
3237.000000	99.241492
3236.000000	99.244588
3235.000000	99.246806
3234.000000	99.248954
3233.000000	99.251039
3232.000000	99.252825
3231.000000	99.254869
3230.000000	99.257916
3229.000000	99.261705
3228.000000	99.265032
3227.000000	99.266640
3226.000000	99.265931
3225.000000	99.263516
3224.000000	99.261294
3223.000000	99.261172
3222.000000	99.263310
3221.000000	99.266280
3220.000000	99.268854
3219.000000	99.270694
3218.000000	99.271290
3217.000000	99.269780
3216.000000	99.266492
3215.000000	99.263575
3214.000000	99.263286
3213.000000	99.266178
3212.000000	99.271137
3211.000000	99.276202
3210.000000	99.279247
3209.000000	99.279358
3208.000000	99.278358
3207.000000	99.279846
3206.000000	99.285592
3205.000000	99.293389
3204.000000	99.298940
3203.000000	99.299573
3202.000000	99.296040
3201.000000	99.291462
3200.000000	99.288871
3199.000000	99.288948
3198.000000	99.289963
3197.000000	99.290294
3196.000000	99.290719
3195.000000	99.293167
3194.000000	99.297594
3193.000000	99.301689
3192.000000	99.303744
3191.000000	99.304309
3190.000000	99.304582
3189.000000	99.304818
3188.000000	99.305074
3187.000000	99.306198
3186.000000	99.308984
3185.000000	99.313011
3184.000000	99.317027
3183.000000	99.319914
3182.000000	99.321107
3181.000000	99.320948
3180.000000	99.320856
3179.000000	99.322017
3178.000000	99.323482
3177.000000	99.322686
3176.000000	99.318388
3175.000000	99.312225
3174.000000	99.307093
3173.000000	99.305163
3172.000000	99.307505
3171.000000	99.313893
3170.000000	99.322034
3169.000000	99.328258
3168.000000	99.330437
3167.000000	99.329897
3166.000000	99.329979
3165.000000	99.333180
3164.000000	99.339771
3163.000000	99.347862
3162.000000	99.354050
3161.000000	99.355243
3160.000000	99.351203
3159.000000	99.345189
3158.000000	99.341387
3157.000000	99.341833
3156.000000	99.345831
3155.000000	99.351472
3154.000000	99.357085
3153.000000	99.361805
3152.000000	99.365422
3151.000000	99.367585
3150.000000	99.367385
3149.000000	99.364392
3148.000000	99.360090
3147.000000	99.357338
3146.000000	99.357930
3145.000000	99.361273
3144.000000	99.365360
3143.000000	99.368338
3142.000000	99.369144
3141.000000	99.367680
3140.000000	99.364925
3139.000000	99.362489
3138.000000	99.362027
3137.000000	99.365120
3136.000000	99.372665
3135.000000	99.383025
3134.000000	99.391541
3133.000000	99.393867
3132.000000	99.390202
3131.000000	99.384689
3130.000000	99.380699
3129.000000	99.378472
3128.000000	99.377369
3127.000000	99.377994
3126.000000	99.380963
3125.000000	99.385285
3124.000000	99.389403
3123.000000	99.392786
3122.000000	99.395223
3121.000000	99.395455
3120.000000	99.391986
3119.000000	99.385231
3118.000000	99.378227
3117.000000	99.375099
3116.000000	99.378449
3115.000000	99.387169
3114.000000	99.396675
3113.000000	99.402241
3112.000000	99.402482
3111.000000	99.399265
3110.000000	99.394850
3109.000000	99.390539
3108.000000	99.387689
3107.000000	99.387629
3106.000000	99.389622
3105.000000	99.390597
3104.000000	99.388265
3103.000000	99.383703
3102.000000	99.379957
3101.000000	99.378858
3100.000000	99.379969
3099.000000	99.381841
3098.000000	99.383431
3097.000000	99.384768
3096.000000	99.386869
3095.000000	99.390578
3094.000000	99.395096
3093.000000	99.398246
3092.000000	99.398571
3091.000000	99.396614
3090.000000	99.394000
3089.000000	99.391957
3088.000000	99.390819
3087.000000	99.390169
3086.000000	99.389295
3085.000000	99.388360
3084.000000	99.389069
3083.000000	99.392839
3082.000000	99.397953
3081.000000	99.399942
3080.000000	99.395855
3079.000000	99.387616
3078.000000	99.380596
3077.000000	99.379301
3076.000000	99.384241
3075.000000	99.391755
3074.000000	99.396571
3073.000000	99.395951
3072.000000	99.392106
3071.000000	99.389841
3070.000000	99.391619
3069.000000	99.395870
3068.000000	99.400031
3067.000000	99.403266
3066.000000	99.405542
3065.000000	99.405928
3064.000000	99.403696
3063.000000	99.400304
3062.000000	99.398612
3061.000000	99.400161
3060.000000	99.403896
3059.000000	99.407205
3058.000000	99.407748
3057.000000	99.404952
3056.000000	99.400500
3055.000000	99.396926
3054.000000	99.395205
3053.000000	99.394157
3052.000000	99.392521
3051.000000	99.390823
3050.000000	99.390442
3049.000000	99.391352
3048.000000	99.391712
3047.000000	99.389871
3046.000000	99.386436
3045.000000	99.384255
3044.000000	99.386104
3043.000000	99.391867
3042.000000	99.397987
3041.000000	99.400334
3040.000000	99.397862
3039.000000	99.393244
3038.000000	99.390402
3037.000000	99.391974
3036.000000	99.398429
3035.000000	99.407804
3034.000000	99.415886
3033.000000	99.418277
3032.000000	99.413557
3031.000000	99.404496
3030.000000	99.395969
3029.000000	99.391914
3028.000000	99.393659
3027.000000	99.399563
3026.000000	99.405951
3025.000000	99.409897
3024.000000	99.411944
3023.000000	99.415030
3022.000000	99.420208
3021.000000	99.424594
3020.000000	99.424522
3019.000000	99.419811
3018.000000	99.413912
3017.000000	99.410353
3016.000000	99.410002
3015.000000	99.411473
3014.000000	99.413100
3013.000000	99.414179
3012.000000	99.414590
3011.000000	99.413744
3010.000000	99.410612
3009.000000	99.405292
3008.000000	99.399830
3007.000000	99.396228
3006.000000	99.393828
3005.000000	99.390095
3004.000000	99.384367
3003.000000	99.379431
3002.000000	99.378466
3001.000000	99.381396
3000.000000	99.385228
2999.000000	99.387328
2998.000000	99.387409
2997.000000	99.386651
2996.000000	99.386119
2995.000000	99.386397
2994.000000	99.388083
2993.000000	99.391567
2992.000000	99.395783
2991.000000	99.397645
2990.000000	99.393958
2989.000000	99.384591
2988.000000	99.373117
2987.000000	99.363666
2986.000000	99.357835
2985.000000	99.355236
2984.000000	99.355699
2983.000000	99.359019
2982.000000	99.363120
2981.000000	99.364570
2980.000000	99.361409
2979.000000	99.354253
2978.000000	99.344738
2977.000000	99.334432
2976.000000	99.325283
2975.000000	99.319173
2974.000000	99.316256
2973.000000	99.315048
2972.000000	99.314485
2971.000000	99.314368
2970.000000	99.313399
2969.000000	99.308748
2968.000000	99.298788
2967.000000	99.285053
2966.000000	99.270392
2965.000000	99.256219
2964.000000	99.242508
2963.000000	99.229512
2962.000000	99.218354
2961.000000	99.210558
2960.000000	99.207625
2959.000000	99.210055
2958.000000	99.215911
2957.000000	99.221096
2956.000000	99.222089
2955.000000	99.218172
2954.000000	99.211012
2953.000000	99.203273
2952.000000	99.197974
2951.000000	99.197441
2950.000000	99.201386
2949.000000	99.206702
2948.000000	99.210230
2947.000000	99.211095
2946.000000	99.209637
2945.000000	99.205236
2944.000000	99.196765
2943.000000	99.184601
2942.000000	99.170709
2941.000000	99.156652
2940.000000	99.142400
2939.000000	99.126910
2938.000000	99.108965
2937.000000	99.087624
2936.000000	99.062786
2935.000000	99.035719
2934.000000	99.008627
2933.000000	98.983310
2932.000000	98.959802
2931.000000	98.935887
2930.000000	98.908530
2929.000000	98.877220
2928.000000	98.846223
2927.000000	98.821845
2926.000000	98.806227
2925.000000	98.794598
2924.000000	98.779891
2923.000000	98.759737
2922.000000	98.738414
2921.000000	98.722713
2920.000000	98.717123
2919.000000	98.722124
2918.000000	98.735447
2917.000000	98.754614
2916.000000	98.779068
2915.000000	98.809869
2914.000000	98.846672
2913.000000	98.885544
2912.000000	98.920933
2911.000000	98.949982
2910.000000	98.973992
2909.000000	98.995611
2908.000000	99.015646
2907.000000	99.033031
2906.000000	99.047162
2905.000000	99.059260
2904.000000	99.071402
2903.000000	99.084490
2902.000000	99.097383
2901.000000	99.107832
2900.000000	99.114385
2899.000000	99.117782
2898.000000	99.120655
2897.000000	99.126062
2896.000000	99.135427
2895.000000	99.147223
2894.000000	99.157903
2893.000000	99.165199
2892.000000	99.170753
2891.000000	99.178663
2890.000000	99.190851
2889.000000	99.204521
2888.000000	99.214653
2887.000000	99.218441
2886.000000	99.216909
2885.000000	99.213087
2884.000000	99.209704
2883.000000	99.208401
2882.000000	99.209994
2881.000000	99.214916
2880.000000	99.223364
2879.000000	99.234644
2878.000000	99.246045
2877.000000	99.253007
2876.000000	99.251773
2875.000000	99.242556
2874.000000	99.229966
2873.000000	99.220039
2872.000000	99.216380
2871.000000	99.218344
2870.000000	99.222102
2869.000000	99.223598
2868.000000	99.221164
2867.000000	99.215945
2866.000000	99.210211
2865.000000	99.205414
2864.000000	99.201461
2863.000000	99.196953
2862.000000	99.189749
2861.000000	99.178057
2860.000000	99.161602
2859.000000	99.141427
2858.000000	99.118410
2857.000000	99.092741
2856.000000	99.065381
2855.000000	99.038950
2854.000000	99.016031
2853.000000	98.996991
2852.000000	98.980951
2851.000000	98.969220
2850.000000	98.966659
2849.000000	98.978863
2848.000000	99.007734
2847.000000	99.049398
2846.000000	99.095775
2845.000000	99.138576
2844.000000	99.173132
2843.000000	99.199793
2842.000000	99.222017
2841.000000	99.242926
2840.000000	99.263313
2839.000000	99.281938
2838.000000	99.297063
2837.000000	99.307949
2836.000000	99.315545
2835.000000	99.321699
2834.000000	99.327337
2833.000000	99.331727
2832.000000	99.334080
2831.000000	99.335566
2830.000000	99.338715
2829.000000	99.344769
2828.000000	99.352501
2827.000000	99.359854
2826.000000	99.365915
2825.000000	99.370801
2824.000000	99.374482
2823.000000	99.376653
2822.000000	99.377509
2821.000000	99.377858
2820.000000	99.378279
2819.000000	99.378643
2818.000000	99.378725
2817.000000	99.379125
2816.000000	99.381245
2815.000000	99.386055
2814.000000	99.392706
2813.000000	99.398579
2812.000000	99.401125
2811.000000	99.399913
2810.000000	99.396899
2809.000000	99.394868
2808.000000	99.395606
2807.000000	99.399050
2806.000000	99.403357
2805.000000	99.405839
2804.000000	99.404725
2803.000000	99.400721
2802.000000	99.396679
2801.000000	99.395379
2800.000000	99.397485
2799.000000	99.401367
2798.000000	99.404493
2797.000000	99.405105
2796.000000	99.403443
2795.000000	99.401783
2794.000000	99.402625
2793.000000	99.406123
2792.000000	99.409650
2791.000000	99.410662
2790.000000	99.409908
2789.000000	99.410817
2788.000000	99.415338
2787.000000	99.421095
2786.000000	99.423427
2785.000000	99.420159
2784.000000	99.413859
2783.000000	99.409324
2782.000000	99.409301
2781.000000	99.412798
2780.000000	99.416915
2779.000000	99.419506
2778.000000	99.420160
2777.000000	99.419712
2776.000000	99.419675
2775.000000	99.421731
2774.000000	99.426683
2773.000000	99.433466
2772.000000	99.439674
2771.000000	99.443379
2770.000000	99.444148
2769.000000	99.442442
2768.000000	99.438891
2767.000000	99.434560
2766.000000	99.431105
2765.000000	99.429680
2764.000000	99.429941
2763.000000	99.430844
2762.000000	99.432097
2761.000000	99.433863
2760.000000	99.435251
2759.000000	99.434521
2758.000000	99.431391
2757.000000	99.428039
2756.000000	99.426880
2755.000000	99.427922
2754.000000	99.429337
2753.000000	99.430224
2752.000000	99.431570
2751.000000	99.434277
2750.000000	99.437352
2749.000000	99.438929
2748.000000	99.438753
2747.000000	99.438919
2746.000000	99.441833
2745.000000	99.447539
2744.000000	99.453135
2743.000000	99.454983
2742.000000	99.451854
2741.000000	99.446091
2740.000000	99.441503
2739.000000	99.439976
2738.000000	99.440244
2737.000000	99.439977
2736.000000	99.438667
2735.000000	99.438073
2734.000000	99.440040
2733.000000	99.444357
2732.000000	99.448816
2731.000000	99.451017
2730.000000	99.450025
2729.000000	99.446770
2728.000000	99.443281
2727.000000	99.441287
2726.000000	99.441020
2725.000000	99.441214
2724.000000	99.440582
2723.000000	99.439353
2722.000000	99.438978
2721.000000	99.440173
2720.000000	99.441745
2719.000000	99.441861
2718.000000	99.440323
2717.000000	99.439023
2716.000000	99.440046
2715.000000	99.443675
2714.000000	99.448299
2713.000000	99.451784
2712.000000	99.452631
2711.000000	99.450374
2710.000000	99.445648
2709.000000	99.440029
2708.000000	99.435338
2707.000000	99.432683
2706.000000	99.432058
2705.000000	99.432837
2704.000000	99.434511
2703.000000	99.436940
2702.000000	99.440021
2701.000000	99.443296
2700.000000	99.446019
2699.000000	99.447781
2698.000000	99.449007
2697.000000	99.450520
2696.000000	99.452471
2695.000000	99.454006
2694.000000	99.454339
2693.000000	99.453856
2692.000000	99.453613
2691.000000	99.453827
2690.000000	99.453620
2689.000000	99.452456
2688.000000	99.451065
2687.000000	99.450351
2686.000000	99.449972
2685.000000	99.448843
2684.000000	99.446798
2683.000000	99.444783
2682.000000	99.443280
2681.000000	99.441575
2680.000000	99.439135
2679.000000	99.437024
2678.000000	99.437083
2677.000000	99.439824
2676.000000	99.443737
2675.000000	99.446666
2674.000000	99.447536
2673.000000	99.446866
2672.000000	99.446009
2671.000000	99.445922
2670.000000	99.446470
2669.000000	99.446992
2668.000000	99.447573
2667.000000	99.449184
2666.000000	99.452036
2665.000000	99.454304
2664.000000	99.453463
2663.000000	99.448951
2662.000000	99.442771
2661.000000	99.437448
2660.000000	99.434158
2659.000000	99.432730
2658.000000	99.432195
2657.000000	99.430897
2656.000000	99.427541
2655.000000	99.423321
2654.000000	99.421942
2653.000000	99.425815
2652.000000	99.432619
2651.000000	99.437442
2650.000000	99.438451
2649.000000	99.438720
2648.000000	99.441858
2647.000000	99.447410
2646.000000	99.451799
2645.000000	99.452814
2644.000000	99.451618
2643.000000	99.450756
2642.000000	99.451612
2641.000000	99.453897
2640.000000	99.456400
2639.000000	99.457754
2638.000000	99.457362
2637.000000	99.456415
2636.000000	99.457534
2635.000000	99.462447
2634.000000	99.469805
2633.000000	99.476040
2632.000000	99.478938
2631.000000	99.480031
2630.000000	99.482675
2629.000000	99.487770
2628.000000	99.492130
2627.000000	99.491488
2626.000000	99.484519
2625.000000	99.473605
2624.000000	99.462637
2623.000000	99.454983
2622.000000	99.452673
2621.000000	99.455689
2620.000000	99.461690
2619.000000	99.467756
2618.000000	99.473112
2617.000000	99.479236
2616.000000	99.486771
2615.000000	99.493485
2614.000000	99.496350
2613.000000	99.495202
2612.000000	99.493332
2611.000000	99.494254
2610.000000	99.498382
2609.000000	99.502978
2608.000000	99.505102
2607.000000	99.504554
2606.000000	99.503860
2605.000000	99.505319
2604.000000	99.508486
2603.000000	99.510966
2602.000000	99.511429
2601.000000	99.511046
2600.000000	99.511920
2599.000000	99.514846
2598.000000	99.518754
2597.000000	99.521841
2596.000000	99.523120
2595.000000	99.523221
2594.000000	99.523552
2593.000000	99.524275
2592.000000	99.523669
2591.000000	99.520519
2590.000000	99.516771
2589.000000	99.516568
2588.000000	99.522339
2587.000000	99.532583
2586.000000	99.543293
2585.000000	99.550498
2584.000000	99.551880
2583.000000	99.547695
2582.000000	99.540597
2581.000000	99.533557
2580.000000	99.527658
2579.000000	99.522772
2578.000000	99.519865
2577.000000	99.520613
2576.000000	99.524536
2575.000000	99.528492
2574.000000	99.529868
2573.000000	99.528887
2572.000000	99.527245
2571.000000	99.526041
2570.000000	99.525753
2569.000000	99.526645
2568.000000	99.528165
2567.000000	99.529213
2566.000000	99.529753
2565.000000	99.530832
2564.000000	99.532420
2563.000000	99.532957
2562.000000	99.531837
2561.000000	99.530456
2560.000000	99.529648
2559.000000	99.528034
2558.000000	99.524631
2557.000000	99.521482
2556.000000	99.521764
2555.000000	99.526312
2554.000000	99.533571
2553.000000	99.541533
2552.000000	99.547530
2551.000000	99.547404
2550.000000	99.538209
2549.000000	99.522819
2548.000000	99.510070
2547.000000	99.508634
2546.000000	99.519987
2545.000000	99.537115
2544.000000	99.550397
2543.000000	99.555741
2542.000000	99.557161
2541.000000	99.560769
2540.000000	99.566957
2539.000000	99.570441
2538.000000	99.567381
2537.000000	99.559336
2536.000000	99.549420
2535.000000	99.538301
2534.000000	99.526543
2533.000000	99.517983
2532.000000	99.516932
2531.000000	99.522770
2530.000000	99.530331
2529.000000	99.535337
2528.000000	99.537439
2527.000000	99.538780
2526.000000	99.541867
2525.000000	99.547959
2524.000000	99.554818
2523.000000	99.556538
2522.000000	99.548743
2521.000000	99.534649
2520.000000	99.523638
2519.000000	99.522872
2518.000000	99.531634
2517.000000	99.543838
2516.000000	99.554148
2515.000000	99.560916
2514.000000	99.564903
2513.000000	99.566579
2512.000000	99.564670
2511.000000	99.557614
2510.000000	99.546721
2509.000000	99.536587
2508.000000	99.530733
2507.000000	99.527712
2506.000000	99.523732
2505.000000	99.518491
2504.000000	99.515820
2503.000000	99.518272
2502.000000	99.523832
2501.000000	99.529156
2500.000000	99.533568
2499.000000	99.538077
2498.000000	99.541750
2497.000000	99.541447
2496.000000	99.535355
2495.000000	99.525521
2494.000000	99.516476
2493.000000	99.511510
2492.000000	99.510492
2491.000000	99.511296
2490.000000	99.512950
2489.000000	99.516620
2488.000000	99.523198
2487.000000	99.531038
2486.000000	99.537203
2485.000000	99.540269
2484.000000	99.540893
2483.000000	99.540214
2482.000000	99.539173
2481.000000	99.538973
2480.000000	99.540374
2479.000000	99.542182
2478.000000	99.541932
2477.000000	99.538862
2476.000000	99.535361
2475.000000	99.534906
2474.000000	99.538984
2473.000000	99.546149
2472.000000	99.553268
2471.000000	99.557382
2470.000000	99.557106
2469.000000	99.553054
2468.000000	99.547071
2467.000000	99.541088
2466.000000	99.536612
2465.000000	99.534723
2464.000000	99.535739
2463.000000	99.538589
2462.000000	99.540873
2461.000000	99.540006
2460.000000	99.535211
2459.000000	99.529007
2458.000000	99.526071
2457.000000	99.529190
2456.000000	99.536163
2455.000000	99.542128
2454.000000	99.545178
2453.000000	99.547735
2452.000000	99.551770
2451.000000	99.555106
2450.000000	99.554498
2449.000000	99.550638
2448.000000	99.547550
2447.000000	99.547844
2446.000000	99.550718
2445.000000	99.553950
2444.000000	99.555449
2443.000000	99.553348
2442.000000	99.547683
2441.000000	99.542477
2440.000000	99.543214
2439.000000	99.550580
2438.000000	99.558241
2437.000000	99.558212
2436.000000	99.547858
2435.000000	99.531592
2434.000000	99.517559
2433.000000	99.513211
2432.000000	99.521158
2431.000000	99.536544
2430.000000	99.549557
2429.000000	99.553267
2428.000000	99.549556
2427.000000	99.545986
2426.000000	99.547207
2425.000000	99.551585
2424.000000	99.556044
2423.000000	99.560739
2422.000000	99.566669
2421.000000	99.570904
2420.000000	99.568105
2419.000000	99.557392
2418.000000	99.545121
2417.000000	99.539410
2416.000000	99.543098
2415.000000	99.552660
2414.000000	99.562169
2413.000000	99.566993
2412.000000	99.565480
2411.000000	99.559636
2410.000000	99.554133
2409.000000	99.552891
2408.000000	99.556282
2407.000000	99.562345
2406.000000	99.569708
2405.000000	99.577556
2404.000000	99.583681
2403.000000	99.585454
2402.000000	99.583315
2401.000000	99.580923
2400.000000	99.580615
2399.000000	99.580301
2398.000000	99.576229
2397.000000	99.567725
2396.000000	99.558079
2395.000000	99.551452
2394.000000	99.549749
2393.000000	99.551693
2392.000000	99.553841
2391.000000	99.553030
2390.000000	99.548737
2389.000000	99.543170
2388.000000	99.539267
2387.000000	99.538918
2386.000000	99.543383
2385.000000	99.553215
2384.000000	99.566470
2383.000000	99.578371
2382.000000	99.584130
2381.000000	99.583393
2380.000000	99.580485
2379.000000	99.579736
2378.000000	99.581211
2377.000000	99.580979
2376.000000	99.575519
2375.000000	99.566045
2374.000000	99.559696
2373.000000	99.565076
2372.000000	99.584850
2371.000000	99.611920
2370.000000	99.634728
2369.000000	99.646177
2368.000000	99.645357
2367.000000	99.635418
2366.000000	99.622115
2365.000000	99.610508
2364.000000	99.600354
2363.000000	99.588360
2362.000000	99.576318
2361.000000	99.570418
2360.000000	99.572013
2359.000000	99.572746
2358.000000	99.568122
2357.000000	99.565347
2356.000000	99.566789
2355.000000	99.567385
2354.000000	99.568076
2353.000000	99.573536
2352.000000	99.574744
2351.000000	99.558326
2350.000000	99.530456
2349.000000	99.509906
2348.000000	99.510925
2347.000000	99.531660
2346.000000	99.554382
2345.000000	99.559308
2344.000000	99.543835
2343.000000	99.522864
2342.000000	99.507407
2341.000000	99.502244
2340.000000	99.507313
2339.000000	99.517151
2338.000000	99.525790
2337.000000	99.530798
2336.000000	99.532011
2335.000000	99.531532
2334.000000	99.534957
2333.000000	99.545798
2332.000000	99.557207
2331.000000	99.559081
2330.000000	99.552965
2329.000000	99.545809
2328.000000	99.539287
2327.000000	99.526599
2326.000000	99.505891
2325.000000	99.484268
2324.000000	99.468918
2323.000000	99.462418
2322.000000	99.461198
2321.000000	99.460854
2320.000000	99.457109
2319.000000	99.448844
2318.000000	99.441766
2317.000000	99.445039
2316.000000	99.463212
2315.000000	99.489552
2314.000000	99.512252
2313.000000	99.524114
2312.000000	99.526931
2311.000000	99.525998
2310.000000	99.524624
2309.000000	99.522718
2308.000000	99.520503
2307.000000	99.520110
2306.000000	99.522736
2305.000000	99.525661
2304.000000	99.523892
2303.000000	99.516724
2302.000000	99.509658
2301.000000	99.508345
2300.000000	99.512076
2299.000000	99.514695
2298.000000	99.512186
2297.000000	99.505765
2296.000000	99.498803
2295.000000	99.492566
2294.000000	99.487091
2293.000000	99.482726
2292.000000	99.480018
2291.000000	99.479544
2290.000000	99.482642
2289.000000	99.490693
2288.000000	99.502712
2287.000000	99.515722
2286.000000	99.527227
2285.000000	99.535973
2284.000000	99.540763
2283.000000	99.541947
2282.000000	99.543760
2281.000000	99.551484
2280.000000	99.564452
2279.000000	99.575355
2278.000000	99.577825
2277.000000	99.572545
2276.000000	99.565115
2275.000000	99.561310
2274.000000	99.565118
2273.000000	99.575943
2272.000000	99.586402
2271.000000	99.588040
2270.000000	99.581928
2269.000000	99.578628
2268.000000	99.584590
2267.000000	99.593699
2266.000000	99.595950
2265.000000	99.589631
2264.000000	99.581071
2263.000000	99.575927
2262.000000	99.574894
2261.000000	99.574325
2260.000000	99.567616
2259.000000	99.550672
2258.000000	99.529319
2257.000000	99.517722
2256.000000	99.525080
2255.000000	99.546680
2254.000000	99.570327
2253.000000	99.587030
2252.000000	99.593545
2251.000000	99.590830
2250.000000	99.585002
2249.000000	99.584454
2248.000000	99.591356
2247.000000	99.600138
2246.000000	99.607651
2245.000000	99.618234
2244.000000	99.633646
2243.000000	99.645442
2242.000000	99.645111
2241.000000	99.636720
2240.000000	99.631288
2239.000000	99.632176
2238.000000	99.634066
2237.000000	99.633611
2236.000000	99.633081
2235.000000	99.634753
2234.000000	99.638177
2233.000000	99.642200
2232.000000	99.644849
2231.000000	99.643184
2230.000000	99.637626
2229.000000	99.633602
2228.000000	99.634365
2227.000000	99.635622
2226.000000	99.632151
2225.000000	99.625817
2224.000000	99.621736
2223.000000	99.620448
2222.000000	99.619010
2221.000000	99.615600
2220.000000	99.608695
2219.000000	99.597906
2218.000000	99.590634
2217.000000	99.599169
2216.000000	99.622333
2215.000000	99.638462
2214.000000	99.629145
2213.000000	99.604558
2212.000000	99.592174
2211.000000	99.602311
2210.000000	99.618216
2209.000000	99.620351
2208.000000	99.607871
2207.000000	99.593571
2206.000000	99.588081
2205.000000	99.594080
2204.000000	99.608323
2203.000000	99.624060
2202.000000	99.634905
2201.000000	99.639723
2200.000000	99.642960
2199.000000	99.649787
2198.000000	99.661848
2197.000000	99.675612
2196.000000	99.682841
2195.000000	99.675934
2194.000000	99.655869
2193.000000	99.632493
2192.000000	99.615112
2191.000000	99.607089
2190.000000	99.611285
2189.000000	99.631785
2188.000000	99.663321
2187.000000	99.686613
2186.000000	99.684970
2185.000000	99.664052
2184.000000	99.647797
2183.000000	99.654105
2182.000000	99.678146
2181.000000	99.697989
2180.000000	99.694500
2179.000000	99.669006
2178.000000	99.642168
2177.000000	99.631585
2176.000000	99.631465
2175.000000	99.622220
2174.000000	99.599371
2173.000000	99.578955
2172.000000	99.570751
2171.000000	99.563701
2170.000000	99.546173
2169.000000	99.526435
2168.000000	99.521482
2167.000000	99.534755
2166.000000	99.556404
2165.000000	99.576624
2164.000000	99.588112
2163.000000	99.586243
2162.000000	99.581670
2161.000000	99.605283
2160.000000	99.681911
2159.000000	99.796030
2158.000000	99.896620
2157.000000	99.939466
2156.000000	99.917321
2155.000000	99.857494
2154.000000	99.803920
2153.000000	99.789713
2152.000000	99.810979
2151.000000	99.832948
2150.000000	99.827817
2149.000000	99.799138
2148.000000	99.767685
2147.000000	99.746936
2146.000000	99.739141
2145.000000	99.741633
2144.000000	99.745743
2143.000000	99.739383
2142.000000	99.720399
2141.000000	99.700131
2140.000000	99.686876
2139.000000	99.674512
2138.000000	99.655259
2137.000000	99.634946
2136.000000	99.626612
2135.000000	99.634503
2134.000000	99.652324
2133.000000	99.671929
2132.000000	99.686348
2131.000000	99.690036
2130.000000	99.684007
2129.000000	99.677818
2128.000000	99.680334
2127.000000	99.690157
2126.000000	99.699045
2125.000000	99.702034
2124.000000	99.699637
2123.000000	99.692359
2122.000000	99.678614
2121.000000	99.658777
2120.000000	99.637884
2119.000000	99.622909
2118.000000	99.618162
2117.000000	99.622393
2116.000000	99.629373
2115.000000	99.632143
2114.000000	99.626784
2113.000000	99.612235
2112.000000	99.590031
2111.000000	99.567717
2110.000000	99.558534
2109.000000	99.569600
2108.000000	99.590904
2107.000000	99.604928
2106.000000	99.608248
2105.000000	99.613666
2104.000000	99.628508
2103.000000	99.641808
2102.000000	99.639420
2101.000000	99.623679
2100.000000	99.609501
2099.000000	99.605828
2098.000000	99.608563
2097.000000	99.608442
2096.000000	99.600330
2095.000000	99.587056
2094.000000	99.577406
2093.000000	99.577247
2092.000000	99.581048
2091.000000	99.578066
2090.000000	99.568050
2089.000000	99.562864
2088.000000	99.569292
2087.000000	99.579952
2086.000000	99.587925
2085.000000	99.599812
2084.000000	99.623446
2083.000000	99.649593
2082.000000	99.659682
2081.000000	99.650040
2080.000000	99.636126
2079.000000	99.631537
2078.000000	99.633479
2077.000000	99.632874
2076.000000	99.629946
2075.000000	99.633300
2074.000000	99.646616
2073.000000	99.661020
2072.000000	99.661459
2071.000000	99.640551
2070.000000	99.606571
2069.000000	99.576632
2068.000000	99.561710
2067.000000	99.561581
2066.000000	99.574079
2065.000000	99.600570
2064.000000	99.637374
2063.000000	99.669442
2062.000000	99.680199
2061.000000	99.665156
2060.000000	99.632982
2059.000000	99.597476
2058.000000	99.572702
2057.000000	99.569757
2056.000000	99.588288
2055.000000	99.611951
2054.000000	99.619407
2053.000000	99.602120
2052.000000	99.570184
2051.000000	99.543421
2050.000000	99.540030
2049.000000	99.567109
2048.000000	99.612923
2047.000000	99.652047
2046.000000	99.664279
2045.000000	99.647865
2044.000000	99.618421
2043.000000	99.600822
2042.000000	99.617108
2041.000000	99.668207
2040.000000	99.725305
2039.000000	99.752779
2038.000000	99.741595
2037.000000	99.712554
2036.000000	99.692253
2035.000000	99.698311
2034.000000	99.742489
2033.000000	99.821379
2032.000000	99.898018
2031.000000	99.922473
2030.000000	99.884222
2029.000000	99.826976
2028.000000	99.802676
2027.000000	99.823564
2026.000000	99.864324
2025.000000	99.891492
2024.000000	99.885143
2023.000000	99.853576
2022.000000	99.835058
2021.000000	99.864932
2020.000000	99.930186
2019.000000	99.975658
2018.000000	99.963346
2017.000000	99.908400
2016.000000	99.849244
2015.000000	99.802970
2014.000000	99.766525
2013.000000	99.737649
2012.000000	99.713062
2011.000000	99.684848
2010.000000	99.657299
2009.000000	99.653882
2008.000000	99.689918
2007.000000	99.749529
2006.000000	99.803750
2005.000000	99.837655
2004.000000	99.850792
2003.000000	99.848369
2002.000000	99.841190
2001.000000	99.837521
2000.000000	99.826692
1999.000000	99.787610
1998.000000	99.725098
1997.000000	99.681015
1996.000000	99.691407
1995.000000	99.745608
1994.000000	99.801160
1993.000000	99.824956
1992.000000	99.810041
1991.000000	99.766356
1990.000000	99.711116
1989.000000	99.664299
1988.000000	99.637748
1987.000000	99.627896
1986.000000	99.626916
1985.000000	99.634221
1984.000000	99.647256
1983.000000	99.650195
1982.000000	99.626217
1981.000000	99.579454
1980.000000	99.538465
1979.000000	99.537644
1978.000000	99.593335
1977.000000	99.684097
1976.000000	99.754557
1975.000000	99.761945
1974.000000	99.720201
1973.000000	99.682687
1972.000000	99.684211
1971.000000	99.717595
1970.000000	99.764041
1969.000000	99.816055
1968.000000	99.861309
1967.000000	99.873758
1966.000000	99.841949
1965.000000	99.787888
1964.000000	99.742059
1963.000000	99.718054
1962.000000	99.719987
1961.000000	99.750422
1960.000000	99.796486
1959.000000	99.827464
1958.000000	99.823760
1957.000000	99.798054
1956.000000	99.777586
1955.000000	99.774865
1954.000000	99.782436
1953.000000	99.785011
1952.000000	99.768315
1951.000000	99.727666
1950.000000	99.677313
1949.000000	99.644297
1948.000000	99.646732
1947.000000	99.681270
1946.000000	99.731331
1945.000000	99.777766
1944.000000	99.801345
1943.000000	99.790484
1942.000000	99.756933
1941.000000	99.729951
1940.000000	99.724064
1939.000000	99.727795
1938.000000	99.726115
1937.000000	99.717327
1936.000000	99.706549
1935.000000	99.695857
1934.000000	99.688025
1933.000000	99.689929
1932.000000	99.702790
1931.000000	99.717822
1930.000000	99.727022
1929.000000	99.730470
1928.000000	99.731329
1927.000000	99.729483
1926.000000	99.725055
1925.000000	99.719794
1924.000000	99.712684
1923.000000	99.703456
1922.000000	99.700494
1921.000000	99.713478
1920.000000	99.735597
1919.000000	99.744708
1918.000000	99.726819
1917.000000	99.693760
1916.000000	99.667308
1915.000000	99.654452
1914.000000	99.652211
1913.000000	99.660481
1912.000000	99.676917
1911.000000	99.691419
1910.000000	99.695425
1909.000000	99.692106
1908.000000	99.689951
1907.000000	99.689476
1906.000000	99.687061
1905.000000	99.684785
1904.000000	99.687143
1903.000000	99.693179
1902.000000	99.697209
1901.000000	99.697218
1900.000000	99.697378
1899.000000	99.701640
1898.000000	99.710209
1897.000000	99.720588
1896.000000	99.728724
1895.000000	99.732114
1894.000000	99.732414
1893.000000	99.732587
1892.000000	99.730907
1891.000000	99.722229
1890.000000	99.706025
1889.000000	99.688727
1888.000000	99.675864
1887.000000	99.667073
1886.000000	99.662351
1885.000000	99.665392
1884.000000	99.675920
1883.000000	99.687122
1882.000000	99.694874
1881.000000	99.702255
1880.000000	99.711056
1879.000000	99.715232
1878.000000	99.710065
1877.000000	99.702096
1876.000000	99.701216
1875.000000	99.708577
1874.000000	99.719068
1873.000000	99.730094
1872.000000	99.742060
1871.000000	99.753151
1870.000000	99.758665
1869.000000	99.754405
1868.000000	99.740570
1867.000000	99.722391
1866.000000	99.705652
1865.000000	99.693983
1864.000000	99.687902
1863.000000	99.684387
1862.000000	99.680705
1861.000000	99.677826
1860.000000	99.678128
1859.000000	99.682094
1858.000000	99.689589
1857.000000	99.701412
1856.000000	99.716646
1855.000000	99.730809
1854.000000	99.739470
1853.000000	99.740918
1852.000000	99.736132
1851.000000	99.726232
1850.000000	99.714516
1849.000000	99.709280
1848.000000	99.716067
1847.000000	99.730243
1846.000000	99.741024
1845.000000	99.742002
1844.000000	99.735171
1843.000000	99.727606
1842.000000	99.723918
1841.000000	99.723491
1840.000000	99.725787
1839.000000	99.731284
1838.000000	99.739413
1837.000000	99.746857
1836.000000	99.749158
1835.000000	99.745764
1834.000000	99.740661
1833.000000	99.737310
1832.000000	99.734257
1831.000000	99.727126
1830.000000	99.717333
1829.000000	99.714054
1828.000000	99.720744
1827.000000	99.729497
1826.000000	99.733616
1825.000000	99.734261
1824.000000	99.733126
1823.000000	99.729062
1822.000000	99.722793
1821.000000	99.719273
1820.000000	99.721976
1819.000000	99.728227
1818.000000	99.735555
1817.000000	99.744776
1816.000000	99.754150
1815.000000	99.758341
1814.000000	99.754207
1813.000000	99.745980
1812.000000	99.739978
1811.000000	99.737607
1810.000000	99.736959
1809.000000	99.735936
1808.000000	99.734282
1807.000000	99.734351
1806.000000	99.739105
1805.000000	99.747876
1804.000000	99.754566
1803.000000	99.753808
1802.000000	99.746908
1801.000000	99.741256
1800.000000	99.739953
1799.000000	99.738214
1798.000000	99.733828
1797.000000	99.732389
1796.000000	99.740898
1795.000000	99.758512
1794.000000	99.775743
1793.000000	99.782213
1792.000000	99.773679
1791.000000	99.757193
1790.000000	99.744314
1789.000000	99.737686
1788.000000	99.732961
1787.000000	99.727261
1786.000000	99.723523
1785.000000	99.728146
1784.000000	99.742862
1783.000000	99.761402
1782.000000	99.773324
1781.000000	99.775210
1780.000000	99.771732
1779.000000	99.768082
1778.000000	99.766963
1777.000000	99.769505
1776.000000	99.778197
1775.000000	99.791520
1774.000000	99.802102
1773.000000	99.804568
1772.000000	99.800458
1771.000000	99.794621
1770.000000	99.788351
1769.000000	99.778636
1768.000000	99.765137
1767.000000	99.754075
1766.000000	99.750872
1765.000000	99.752895
1764.000000	99.752464
1763.000000	99.745547
1762.000000	99.735030
1761.000000	99.728987
1760.000000	99.729298
1759.000000	99.728178
1758.000000	99.718504
1757.000000	99.701564
1756.000000	99.687131
1755.000000	99.681082
1754.000000	99.680229
1753.000000	99.680729
1752.000000	99.683332
1751.000000	99.686084
1750.000000	99.683477
1749.000000	99.672858
1748.000000	99.656925
1747.000000	99.641230
1746.000000	99.628657
1745.000000	99.620959
1744.000000	99.618845
1743.000000	99.621484
1742.000000	99.627036
1741.000000	99.632473
1740.000000	99.636065
1739.000000	99.643040
1738.000000	99.659762
1737.000000	99.684261
1736.000000	99.710938
1735.000000	99.744109
1734.000000	99.788164
1733.000000	99.832845
1732.000000	99.863352
1731.000000	99.871938
1730.000000	99.864741
1729.000000	99.856638
1728.000000	99.857016
1727.000000	99.863927
1726.000000	99.872135
1725.000000	99.881929
1724.000000	99.892315
1723.000000	99.899476
1722.000000	99.903756
1721.000000	99.907755
1720.000000	99.910874
1719.000000	99.909321
1718.000000	99.900449
1717.000000	99.882393
1716.000000	99.853289
1715.000000	99.814001
1714.000000	99.773025
1713.000000	99.742143
1712.000000	99.722906
1711.000000	99.706964
1710.000000	99.688683
1709.000000	99.670652
1708.000000	99.655488
1707.000000	99.637608
1706.000000	99.614060
1705.000000	99.595252
1704.000000	99.591871
1703.000000	99.595320
1702.000000	99.586572
1701.000000	99.559064
1700.000000	99.531570
1699.000000	99.527335
1698.000000	99.531383
1697.000000	99.511516
1696.000000	99.461661
1695.000000	99.410343
1694.000000	99.383618
1693.000000	99.370534
1692.000000	99.351959
1691.000000	99.323668
1690.000000	99.291720
1689.000000	99.267202
1688.000000	99.258865
1687.000000	99.261249
1686.000000	99.259031
1685.000000	99.238399
1684.000000	99.197163
1683.000000	99.158773
1682.000000	99.135278
1681.000000	99.111383
1680.000000	99.083229
1679.000000	99.059273
1678.000000	99.040623
1677.000000	99.018872
1676.000000	98.986071
1675.000000	98.946851
1674.000000	98.914524
1673.000000	98.893315
1672.000000	98.873358
1671.000000	98.847873
1670.000000	98.817607
1669.000000	98.785650
1668.000000	98.757454
1667.000000	98.734574
1666.000000	98.714349
1665.000000	98.694412
1664.000000	98.671305
1663.000000	98.641778
1662.000000	98.606273
1661.000000	98.570602
1660.000000	98.538677
1659.000000	98.510429
1658.000000	98.488600
1657.000000	98.477501
1656.000000	98.476663
1655.000000	98.477009
1654.000000	98.469800
1653.000000	98.446911
1652.000000	98.427039
1651.000000	98.422239
1650.000000	98.409942
1649.000000	98.386352
1648.000000	98.363993
1647.000000	98.348753
1646.000000	98.341324
1645.000000	98.340985
1644.000000	98.341278
1643.000000	98.335696
1642.000000	98.326211
1641.000000	98.320058
1640.000000	98.322318
1639.000000	98.329931
1638.000000	98.336688
1637.000000	98.339598
1636.000000	98.337987
1635.000000	98.331923
1634.000000	98.329150
1633.000000	98.332440
1632.000000	98.335840
1631.000000	98.337988
1630.000000	98.340236
1629.000000	98.345023
1628.000000	98.353513
1627.000000	98.363293
1626.000000	98.369991
1625.000000	98.372312
1624.000000	98.372559
1623.000000	98.373853
1622.000000	98.379516
1621.000000	98.391750
1620.000000	98.409582
1619.000000	98.431265
1618.000000	98.461362
1617.000000	98.506339
1616.000000	98.560215
1615.000000	98.606740
1614.000000	98.639146
1613.000000	98.663856
1612.000000	98.688806
1611.000000	98.714611
1610.000000	98.735856
1609.000000	98.752376
1608.000000	98.770578
1607.000000	98.794462
1606.000000	98.821749
1605.000000	98.850598
1604.000000	98.880902
1603.000000	98.908960
1602.000000	98.931419
1601.000000	98.950629
1600.000000	98.970225
1599.000000	98.988661
1598.000000	99.002832
1597.000000	99.014342
1596.000000	99.026213
1595.000000	99.037754
1594.000000	99.047261
1593.000000	99.056050
1592.000000	99.064916
1591.000000	99.070973
1590.000000	99.072713
1589.000000	99.073800
1588.000000	99.076592
1587.000000	99.076476
1586.000000	99.069004
1585.000000	99.056730
1584.000000	99.045383
1583.000000	99.033693
1582.000000	99.017738
1581.000000	99.002183
1580.000000	98.995255
1579.000000	98.996433
1578.000000	98.998780
1577.000000	99.001083
1576.000000	99.007071
1575.000000	99.017063
1574.000000	99.025950
1573.000000	99.030973
1572.000000	99.033694
1571.000000	99.036169
1570.000000	99.039627
1569.000000	99.044821
1568.000000	99.051702
1567.000000	99.053349
1566.000000	99.046071
1565.000000	99.038290
1564.000000	99.041727
1563.000000	99.051640
1562.000000	99.058219
1561.000000	99.054699
1560.000000	99.053777
1559.000000	99.045431
1558.000000	99.011559
1557.000000	98.981743
1556.000000	98.956852
1555.000000	98.919499
1554.000000	98.874428
1553.000000	98.833149
1552.000000	98.797694
1551.000000	98.756640
1550.000000	98.710066
1549.000000	98.670658
1548.000000	98.644564
1547.000000	98.622259
1546.000000	98.594937
1545.000000	98.567308
1544.000000	98.545686
1543.000000	98.528397
1542.000000	98.516201
1541.000000	98.522974
1540.000000	98.548564
1539.000000	98.568083
1538.000000	98.574961
1537.000000	98.577656
1536.000000	98.578007
1535.000000	98.579926
1534.000000	98.589564
1533.000000	98.610429
1532.000000	98.634710
1531.000000	98.650618
1530.000000	98.656432
1529.000000	98.660279
1528.000000	98.671990
1527.000000	98.694846
1526.000000	98.725303
1525.000000	98.759020
1524.000000	98.790369
1523.000000	98.813091
1522.000000	98.827289
1521.000000	98.838538
1520.000000	98.851820
1519.000000	98.863208
1518.000000	98.867090
1517.000000	98.867441
1516.000000	98.869456
1515.000000	98.874221
1514.000000	98.880731
1513.000000	98.890323
1512.000000	98.904585
1511.000000	98.920126
1510.000000	98.935658
1509.000000	98.955724
1508.000000	98.989939
1507.000000	99.029578
1506.000000	99.057371
1505.000000	99.082042
1504.000000	99.104637
1503.000000	99.115764
1502.000000	99.121274
1501.000000	99.131433
1500.000000	99.150047
1499.000000	99.170273
1498.000000	99.185540
1497.000000	99.197662
1496.000000	99.208841
1495.000000	99.220412
1494.000000	99.234384
1493.000000	99.251541
1492.000000	99.269806
1491.000000	99.284207
1490.000000	99.290738
1489.000000	99.292514
1488.000000	99.294273
1487.000000	99.295822
1486.000000	99.296338
1485.000000	99.295731
1484.000000	99.294060
1483.000000	99.287931
1482.000000	99.276476
1481.000000	99.264987
1480.000000	99.256437
1479.000000	99.246476
1478.000000	99.230860
1477.000000	99.213894
1476.000000	99.202085
1475.000000	99.195329
1474.000000	99.186228
1473.000000	99.168758
1472.000000	99.143039
1471.000000	99.115332
1470.000000	99.091139
1469.000000	99.070927
1468.000000	99.053592
1467.000000	99.037055
1466.000000	99.019094
1465.000000	99.001760
1464.000000	98.991027
1463.000000	98.987690
1462.000000	98.988194
1461.000000	98.989642
1460.000000	98.990581
1459.000000	98.987238
1458.000000	98.978513
1457.000000	98.970753
1456.000000	98.970468
1455.000000	98.971460
1454.000000	98.962571
1453.000000	98.947646
1452.000000	98.937071
1451.000000	98.933374
1450.000000	98.933298
1449.000000	98.934890
1448.000000	98.935310
1447.000000	98.930830
1446.000000	98.922641
1445.000000	98.918877
1444.000000	98.923140
1443.000000	98.928379
1442.000000	98.928269
1441.000000	98.924712
1440.000000	98.921310
1439.000000	98.914588
1438.000000	98.902884
1437.000000	98.893954
1436.000000	98.895522
1435.000000	98.902665
1434.000000	98.906514
1433.000000	98.906022
1432.000000	98.903980
1431.000000	98.899304
1430.000000	98.891072
1429.000000	98.885377
1428.000000	98.886579
1427.000000	98.891218
1426.000000	98.894167
1425.000000	98.899176
1424.000000	98.911378
1423.000000	98.924336
1422.000000	98.930147
1421.000000	98.929936
1420.000000	98.929688
1419.000000	98.928517
1418.000000	98.925636
1417.000000	98.928078
1416.000000	98.935330
1415.000000	98.939001
1414.000000	98.937620
1413.000000	98.939840
1412.000000	98.951988
1411.000000	98.967895
1410.000000	98.979490
1409.000000	98.988754
1408.000000	98.999976
1407.000000	99.011686
1406.000000	99.020229
1405.000000	99.027292
1404.000000	99.035777
1403.000000	99.042482
1402.000000	99.044621
1401.000000	99.045556
1400.000000	99.049957
1399.000000	99.055526
1398.000000	99.058071
1397.000000	99.059434
1396.000000	99.061779
1395.000000	99.063490
1394.000000	99.065994
1393.000000	99.076518
1392.000000	99.094413
1391.000000	99.109485
1390.000000	99.116663
1389.000000	99.120561
1388.000000	99.125182
1387.000000	99.126834
1386.000000	99.124617
1385.000000	99.126203
1384.000000	99.134914
1383.000000	99.144328
1382.000000	99.149442
1381.000000	99.152954
1380.000000	99.158556
1379.000000	99.164300
1378.000000	99.167998
1377.000000	99.172951
1376.000000	99.182301
1375.000000	99.192889
1374.000000	99.200082
1373.000000	99.206074
1372.000000	99.213796
1371.000000	99.220166
1370.000000	99.223143
1369.000000	99.228620
1368.000000	99.242187
1367.000000	99.260127
1366.000000	99.276998
1365.000000	99.293731
1364.000000	99.312328
1363.000000	99.328375
1362.000000	99.337491
1361.000000	99.344376
1360.000000	99.353822
1359.000000	99.363067
1358.000000	99.370368
1357.000000	99.380181
1356.000000	99.394573
1355.000000	99.407530
1354.000000	99.413696
1353.000000	99.415473
1352.000000	99.415314
1351.000000	99.411437
1350.000000	99.404685
1349.000000	99.403048
1348.000000	99.410930
1347.000000	99.420820
1346.000000	99.423919
1345.000000	99.420883
1344.000000	99.416036
1343.000000	99.409089
1342.000000	99.400018
1341.000000	99.394464
1340.000000	99.395327
1339.000000	99.395002
1338.000000	99.387407
1337.000000	99.378731
1336.000000	99.375568
1335.000000	99.374603
1334.000000	99.370887
1333.000000	99.366937
1332.000000	99.367023
1331.000000	99.369255
1330.000000	99.370266
1329.000000	99.371956
1328.000000	99.376246
1327.000000	99.379485
1326.000000	99.378715
1325.000000	99.377975
1324.000000	99.381059
1323.000000	99.384357
1322.000000	99.384407
1321.000000	99.385114
1320.000000	99.390165
1319.000000	99.394769
1318.000000	99.393682
1317.000000	99.390893
1316.000000	99.392980
1315.000000	99.399893
1314.000000	99.409091
1313.000000	99.421269
1312.000000	99.435205
1311.000000	99.444447
1310.000000	99.446031
1309.000000	99.445926
1308.000000	99.449944
1307.000000	99.456714
1306.000000	99.463999
1305.000000	99.474222
1304.000000	99.487419
1303.000000	99.497463
1302.000000	99.502009
1301.000000	99.507457
1300.000000	99.517837
1299.000000	99.527761
1298.000000	99.533159
1297.000000	99.538946
1296.000000	99.548900
1295.000000	99.557383
1294.000000	99.559184
1293.000000	99.558108
1292.000000	99.558225
1291.000000	99.556554
1290.000000	99.552233
1289.000000	99.552619
1288.000000	99.561076
1287.000000	99.568351
1286.000000	99.565729
1285.000000	99.557738
1284.000000	99.552564
1283.000000	99.549780
1282.000000	99.546634
1281.000000	99.546907
1280.000000	99.553459
1279.000000	99.559916
1278.000000	99.559737
1277.000000	99.556124
1276.000000	99.554285
1275.000000	99.551988
1274.000000	99.546662
1273.000000	99.543401
1272.000000	99.546121
1271.000000	99.548188
1270.000000	99.541976
1269.000000	99.531018
1268.000000	99.523456
1267.000000	99.520249
1266.000000	99.518309
1265.000000	99.518023
1264.000000	99.519175
1263.000000	99.516652
1262.000000	99.508487
1261.000000	99.501013
1260.000000	99.498698
1259.000000	99.496840
1258.000000	99.491439
1257.000000	99.486674
1256.000000	99.485322
1255.000000	99.482106
1254.000000	99.474184
1253.000000	99.468381
1252.000000	99.469715
1251.000000	99.471813
1250.000000	99.467170
1249.000000	99.458496
1248.000000	99.451806
1247.000000	99.446429
1246.000000	99.440072
1245.000000	99.435628
1244.000000	99.434885
1243.000000	99.433084
1242.000000	99.427022
1241.000000	99.420872
1240.000000	99.417653
1239.000000	99.413555
1238.000000	99.406856
1237.000000	99.403168
1236.000000	99.405278
1235.000000	99.407384
1234.000000	99.405972
1233.000000	99.406423
1232.000000	99.412021
1231.000000	99.416963
1230.000000	99.417611
1229.000000	99.420067
1228.000000	99.428788
1227.000000	99.438581
1226.000000	99.445732
1225.000000	99.455953
1224.000000	99.472604
1223.000000	99.487893
1222.000000	99.495115
1221.000000	99.499093
1220.000000	99.505612
1219.000000	99.511301
1218.000000	99.513477
1217.000000	99.518963
1216.000000	99.532403
1215.000000	99.545674
1214.000000	99.549421
1213.000000	99.546346
1212.000000	99.543226
1211.000000	99.539226
1210.000000	99.532112
1209.000000	99.526638
1208.000000	99.526391
1207.000000	99.525552
1206.000000	99.518482
1205.000000	99.509845
1204.000000	99.506405
1203.000000	99.506550
1202.000000	99.505697
1201.000000	99.503636
1200.000000	99.499346
1199.000000	99.487977
1198.000000	99.470901
1197.000000	99.459103
1196.000000	99.458499
1195.000000	99.461170
1194.000000	99.458293
1193.000000	99.451666
1192.000000	99.445276
1191.000000	99.436655
1190.000000	99.424908
1189.000000	99.416338
1188.000000	99.413344
1187.000000	99.408103
1186.000000	99.395586
1185.000000	99.382191
1184.000000	99.373275
1183.000000	99.363683
1182.000000	99.349238
1181.000000	99.335668
1180.000000	99.326250
1179.000000	99.312031
1178.000000	99.285281
1177.000000	99.251510
1176.000000	99.218115
1175.000000	99.182950
1174.000000	99.143648
1173.000000	99.106958
1172.000000	99.078512
1171.000000	99.053224
1170.000000	99.025297
1169.000000	98.997831
1168.000000	98.973752
1167.000000	98.947764
1166.000000	98.916411
1165.000000	98.885775
1164.000000	98.860767
1163.000000	98.837555
1162.000000	98.814206
1161.000000	98.796792
1160.000000	98.786627
1159.000000	98.774112
1158.000000	98.753964
1157.000000	98.733340
1156.000000	98.716321
1155.000000	98.694984
1154.000000	98.666096
1153.000000	98.641732
1152.000000	98.631356
1151.000000	98.626876
1150.000000	98.617264
1149.000000	98.604648
1148.000000	98.593936
1147.000000	98.580417
1146.000000	98.560821
1145.000000	98.543731
1144.000000	98.536197
1143.000000	98.532308
1142.000000	98.526223
1141.000000	98.523294
1140.000000	98.526536
1139.000000	98.526476
1138.000000	98.517595
1137.000000	98.510878
1136.000000	98.516051
1135.000000	98.524009
1134.000000	98.520925
1133.000000	98.508027
1132.000000	98.494322
1131.000000	98.481509
1130.000000	98.468659
1129.000000	98.459550
1128.000000	98.452695
1127.000000	98.436582
1126.000000	98.407299
1125.000000	98.378171
1124.000000	98.359904
1123.000000	98.344536
1122.000000	98.321525
1121.000000	98.295813
1120.000000	98.276075
1119.000000	98.258482
1118.000000	98.235987
1117.000000	98.211449
1116.000000	98.188699
1115.000000	98.163846
1114.000000	98.137753
1113.000000	98.123361
1112.000000	98.127214
1111.000000	98.137458
1110.000000	98.143312
1109.000000	98.151590
1108.000000	98.170156
1107.000000	98.190275
1106.000000	98.201122
1105.000000	98.207877
1104.000000	98.220033
1103.000000	98.235137
1102.000000	98.248485
1101.000000	98.265047
1100.000000	98.287174
1099.000000	98.305102
1098.000000	98.313590
1097.000000	98.323327
1096.000000	98.341512
1095.000000	98.356596
1094.000000	98.357809
1093.000000	98.354435
1092.000000	98.359350
1091.000000	98.368605
1090.000000	98.373135
1089.000000	98.376058
1088.000000	98.381840
1087.000000	98.382648
1086.000000	98.372052
1085.000000	98.358631
1084.000000	98.350471
1083.000000	98.340129
1082.000000	98.320678
1081.000000	98.302216
1080.000000	98.296064
1079.000000	98.296023
1078.000000	98.291619
1077.000000	98.286039
1076.000000	98.285124
1075.000000	98.282724
1074.000000	98.273274
1073.000000	98.265641
1072.000000	98.268814
1071.000000	98.276252
1070.000000	98.278415
1069.000000	98.277973
1068.000000	98.278911
1067.000000	98.274458
1066.000000	98.259514
1065.000000	98.241787
1064.000000	98.227989
1063.000000	98.213469
1062.000000	98.196889
1061.000000	98.188861
1060.000000	98.192778
1059.000000	98.193571
1058.000000	98.179335
1057.000000	98.158268
1056.000000	98.141291
1055.000000	98.124491
1054.000000	98.102811
1053.000000	98.084057
1052.000000	98.074260
1051.000000	98.064641
1050.000000	98.048224
1049.000000	98.033421
1048.000000	98.027493
1047.000000	98.024227
1046.000000	98.019738
1045.000000	98.020134
1044.000000	98.021541
1043.000000	98.004734
1042.000000	97.964128
1041.000000	97.922254
1040.000000	97.899745
1039.000000	97.890002
1038.000000	97.877493
1037.000000	97.861309
1036.000000	97.844848
1035.000000	97.822454
1034.000000	97.794077
1033.000000	97.774227
1032.000000	97.768669
1031.000000	97.760149
1030.000000	97.735123
1029.000000	97.706980
1028.000000	97.695178
1027.000000	97.697564
1026.000000	97.700678
1025.000000	97.700977
1024.000000	97.699028
1023.000000	97.688962
1022.000000	97.670863
1021.000000	97.658602
1020.000000	97.659915
1019.000000	97.663986
1018.000000	97.661825
1017.000000	97.661538
1016.000000	97.669810
1015.000000	97.677874
1014.000000	97.680488
1013.000000	97.689252
1012.000000	97.710966
1011.000000	97.732231
1010.000000	97.741360
1009.000000	97.747130
1008.000000	97.759900
1007.000000	97.773176
1006.000000	97.780650
1005.000000	97.792451
1004.000000	97.817353
1003.000000	97.845625
1002.000000	97.866302
1001.000000	97.884913
1000.000000	97.908786
999.000000	97.931331
998.000000	97.946356
997.000000	97.961487
996.000000	97.983298
995.000000	98.006065
994.000000	98.028104
993.000000	98.059841
992.000000	98.101689
991.000000	98.134810
990.000000	98.149487
989.000000	98.162819
988.000000	98.191154
987.000000	98.225747
986.000000	98.252732
985.000000	98.277379
984.000000	98.309415
983.000000	98.342797
982.000000	98.369307
981.000000	98.395134
980.000000	98.426285
979.000000	98.453802
978.000000	98.470551
977.000000	98.485857
976.000000	98.508094
975.000000	98.530116
974.000000	98.547406
973.000000	98.571198
972.000000	98.607552
971.000000	98.642456
970.000000	98.664534
969.000000	98.683450
968.000000	98.709141
967.000000	98.732906
966.000000	98.746342
965.000000	98.759784
964.000000	98.783384
963.000000	98.809068
962.000000	98.828662
961.000000	98.851739
960.000000	98.887578
959.000000	98.927533
958.000000	98.961576
957.000000	98.993693
956.000000	99.025514
955.000000	99.045548
954.000000	99.051356
953.000000	99.060644
952.000000	99.083624
951.000000	99.105992
950.000000	99.117035
949.000000	99.130471
948.000000	99.158169
947.000000	99.186508
946.000000	99.201079
945.000000	99.212690
944.000000	99.235835
943.000000	99.261907
942.000000	99.276628
941.000000	99.286012
940.000000	99.302055
939.000000	99.320277
938.000000	99.332251
937.000000	99.344242
936.000000	99.363545
935.000000	99.383125
934.000000	99.397524
933.000000	99.415752
932.000000	99.440719
931.000000	99.456414
930.000000	99.454333
929.000000	99.451611
928.000000	99.463408
927.000000	99.477923
926.000000	99.480081
925.000000	99.478881
924.000000	99.489856
923.000000	99.508885
922.000000	99.524786
921.000000	99.539230
920.000000	99.553365
919.000000	99.554187
918.000000	99.536172
917.000000	99.518592
916.000000	99.519890
915.000000	99.532132
914.000000	99.539338
913.000000	99.543058
912.000000	99.549772
911.000000	99.552698
910.000000	99.547285
909.000000	99.547015
908.000000	99.563090
907.000000	99.585569
906.000000	99.602739
905.000000	99.620083
904.000000	99.642330
903.000000	99.657784
902.000000	99.660755
901.000000	99.668117
900.000000	99.693269
899.000000	99.723024
898.000000	99.740361
897.000000	99.749008
896.000000	99.756820
895.000000	99.757113
894.000000	99.747192
893.000000	99.743373
892.000000	99.756390
891.000000	99.772767
890.000000	99.779471
889.000000	99.785086
888.000000	99.797060
887.000000	99.802968
886.000000	99.794906
885.000000	99.787643
884.000000	99.789577
883.000000	99.781158
882.000000	99.745119
881.000000	99.694051
880.000000	99.644431
879.000000	99.589672
878.000000	99.524894
877.000000	99.471629
876.000000	99.450399
875.000000	99.451871
874.000000	99.461438
873.000000	99.486387
872.000000	99.533028
871.000000	99.582430
870.000000	99.617104
869.000000	99.647754
868.000000	99.687295
867.000000	99.722920
866.000000	99.739836
865.000000	99.749498
864.000000	99.767846
863.000000	99.788659
862.000000	99.802327
861.000000	99.817702
860.000000	99.840103
859.000000	99.852364
858.000000	99.843840
857.000000	99.835026
856.000000	99.846652
855.000000	99.866972
854.000000	99.875299
853.000000	99.875318
852.000000	99.879729
851.000000	99.883314
850.000000	99.877069
849.000000	99.868174
848.000000	99.863097
847.000000	99.852116
846.000000	99.832206
845.000000	99.821752
844.000000	99.831827
843.000000	99.847357
842.000000	99.856961
841.000000	99.873899
840.000000	99.905060
839.000000	99.928010
838.000000	99.923476
837.000000	99.905039
836.000000	99.892724
835.000000	99.884554
834.000000	99.876531
833.000000	99.881345
832.000000	99.901558
831.000000	99.912535
830.000000	99.898448
829.000000	99.878467
828.000000	99.872335
827.000000	99.869511
826.000000	99.858874
825.000000	99.855320
824.000000	99.867282
823.000000	99.872869
822.000000	99.860164
821.000000	99.853740
820.000000	99.870213
819.000000	99.884855
818.000000	99.873289
817.000000	99.850910
816.000000	99.840463
815.000000	99.834696
814.000000	99.822461
813.000000	99.820006
812.000000	99.842533
811.000000	99.873172
810.000000	99.891510
809.000000	99.905197
808.000000	99.922380
807.000000	99.922699
806.000000	99.889418
805.000000	99.844309
804.000000	99.818416
803.000000	99.812038
802.000000	99.811734
801.000000	99.819324
800.000000	99.835080
799.000000	99.839651
798.000000	99.822848
797.000000	99.805029
796.000000	99.803760
795.000000	99.806763
794.000000	99.802226
793.000000	99.804412
792.000000	99.822552
791.000000	99.835775
790.000000	99.827340
789.000000	99.814430
788.000000	99.816784
787.000000	99.824981
786.000000	99.825530
785.000000	99.827647
784.000000	99.839154
783.000000	99.845041
782.000000	99.835898
781.000000	99.828692
780.000000	99.834421
779.000000	99.835018
778.000000	99.817464
777.000000	99.800791
776.000000	99.803444
775.000000	99.813899
774.000000	99.819097
773.000000	99.831173
772.000000	99.859009
771.000000	99.883902
770.000000	99.890792
769.000000	99.894597
768.000000	99.909371
767.000000	99.920977
766.000000	99.915883
765.000000	99.906454
764.000000	99.902550
763.000000	99.889663
762.000000	99.861501
761.000000	99.841104
760.000000	99.842883
759.000000	99.846675
758.000000	99.836992
757.000000	99.833275
756.000000	99.851522
755.000000	99.869976
754.000000	99.865422
753.000000	99.852581
752.000000	99.854974
751.000000	99.866401
750.000000	99.871593
749.000000	99.876560
748.000000	99.888259
747.000000	99.892777
746.000000	99.882168
745.000000	99.875122
744.000000	99.884692
743.000000	99.895620
742.000000	99.897380
741.000000	99.905144
740.000000	99.922926
739.000000	99.923275
738.000000	99.893106
737.000000	99.862864
736.000000	99.860334
735.000000	99.870265
734.000000	99.870039
733.000000	99.867610
732.000000	99.872859
731.000000	99.869614
730.000000	99.850314
729.000000	99.840791
728.000000	99.857052
727.000000	99.873373
726.000000	99.865946
725.000000	99.854255
724.000000	99.863013
723.000000	99.878647
722.000000	99.879375
721.000000	99.875807
720.000000	99.884046
719.000000	99.889932
718.000000	99.878320
717.000000	99.865264
716.000000	99.864547
715.000000	99.856115
714.000000	99.825398
713.000000	99.800852
712.000000	99.815134
711.000000	99.856515
710.000000	99.894770
709.000000	99.923799
708.000000	99.945397
707.000000	99.944329
706.000000	99.914319
705.000000	99.881100
704.000000	99.866272
703.000000	99.855427
702.000000	99.834540
701.000000	99.823929
700.000000	99.839354
699.000000	99.857552
698.000000	99.854159
697.000000	99.845276
696.000000	99.855126
695.000000	99.872761
694.000000	99.880758
693.000000	99.890631
692.000000	99.910284
691.000000	99.914786
690.000000	99.886659
689.000000	99.853154
688.000000	99.844089
687.000000	99.842336
686.000000	99.822828
685.000000	99.800460
684.000000	99.796364
683.000000	99.796518
682.000000	99.782855
681.000000	99.767678
680.000000	99.759635
679.000000	99.736489
678.000000	99.687501
677.000000	99.638308
676.000000	99.606629
675.000000	99.574766
674.000000	99.533354
673.000000	99.510545
672.000000	99.526307
671.000000	99.563159
670.000000	99.603403
669.000000	99.658495
668.000000	99.707462
667.000000	99.697257
666.000000	99.665380
665.000000	99.655066
664.000000	99.674770
663.000000	99.703105
662.000000	99.718353
661.000000	99.735433
660.000000	99.770252
659.000000	99.803729
658.000000	99.817805
657.000000	99.828426
656.000000	99.852679
655.000000	99.875340
654.000000	99.877892
653.000000	99.873469
652.000000	99.880463
651.000000	99.888183
650.000000	99.883969
649.000000	99.884939
648.000000	99.906653
647.000000	99.927773
646.000000	99.920957
645.000000	99.896775
644.000000	99.879201
643.000000	99.866774
642.000000	99.853760
641.000000	99.855311
640.000000	99.877625
639.000000	99.894780
638.000000	99.887289
637.000000	99.872687
636.000000	99.868989
635.000000	99.861339
634.000000	99.841394
633.000000	99.838206
632.000000	99.869892
631.000000	99.905041
630.000000	99.911860
629.000000	99.906752
628.000000	99.914875
627.000000	99.921590
626.000000	99.903384
625.000000	99.875309
624.000000	99.861101
623.000000	99.852794
622.000000	99.841821
621.000000	99.850173
620.000000	99.886528
619.000000	99.912543
618.000000	99.897972
617.000000	99.872103
616.000000	99.872168
615.000000	99.881161
614.000000	99.866764
613.000000	99.838288
612.000000	99.817418
611.000000	99.792468
610.000000	99.749756
609.000000	99.709952
608.000000	99.688984
607.000000	99.661104
606.000000	99.605660
605.000000	99.551398
604.000000	99.527162
603.000000	99.512654
602.000000	99.485078
601.000000	99.466889
600.000000	99.480197
599.000000	99.504433
598.000000	99.525883
597.000000	99.576015
596.000000	99.667313
595.000000	99.746598
594.000000	99.765956
593.000000	99.753634
592.000000	99.758264
591.000000	99.771547
590.000000	99.766151
589.000000	99.758126
588.000000	99.771000
587.000000	99.786889
586.000000	99.788386
585.000000	99.799552
584.000000	99.832921
583.000000	99.845573
582.000000	99.807271
581.000000	99.759481
580.000000	99.750433
579.000000	99.763210
578.000000	99.766626
577.000000	99.779704
576.000000	99.822784
575.000000	99.861180
574.000000	99.863402
573.000000	99.860070
572.000000	99.879259
571.000000	99.886625
570.000000	99.847934
569.000000	99.798013
568.000000	99.780752
567.000000	99.777539
566.000000	99.761276
565.000000	99.759841
564.000000	99.799800
563.000000	99.845062
562.000000	99.858135
561.000000	99.866250
560.000000	99.901721
559.000000	99.933114
558.000000	99.923819
557.000000	99.901143
556.000000	99.901610
555.000000	99.905009
554.000000	99.886878
553.000000	99.874753
552.000000	99.887527
551.000000	99.882448
550.000000	99.829653
549.000000	99.779779
548.000000	99.786745
547.000000	99.826213
546.000000	99.853211
545.000000	99.878331
544.000000	99.918554
543.000000	99.940715
542.000000	99.922670
541.000000	99.906392
540.000000	99.924372
539.000000	99.936515
538.000000	99.902792
537.000000	99.853228
536.000000	99.826029
535.000000	99.803322
534.000000	99.770123
533.000000	99.760270
532.000000	99.784055
531.000000	99.785882
530.000000	99.737753
529.000000	99.695109
528.000000	99.701208
527.000000	99.717031
526.000000	99.709017
525.000000	99.724021
524.000000	99.789947
523.000000	99.843440
522.000000	99.837178
521.000000	99.819792
520.000000	99.838141
519.000000	99.843233
518.000000	99.780938
517.000000	99.706011
516.000000	99.696954
515.000000	99.739454
514.000000	99.789908
513.000000	99.855716
512.000000	99.934891
511.000000	99.965489
510.000000	99.918943
509.000000	99.864327
508.000000	99.862789
507.000000	99.875730
506.000000	99.855294
505.000000	99.836019
504.000000	99.851334
503.000000	99.855865
502.000000	99.818067
501.000000	99.803760
500.000000	99.864465
499.000000	99.943929
498.000000	99.982502
497.000000	100.007470
496.000000	100.049595
495.000000	100.064629
494.000000	100.018325
493.000000	99.961034
492.000000	99.932351
491.000000	99.883273
490.000000	99.787965
489.000000	99.725216
488.000000	99.752048
487.000000	99.805208
486.000000	99.814186
485.000000	99.813034
484.000000	99.844650
483.000000	99.854037
482.000000	99.797980
481.000000	99.748776
480.000000	99.775671
479.000000	99.834499
478.000000	99.872003
477.000000	99.925610
476.000000	100.012150
475.000000	100.026369
474.000000	99.878336
473.000000	99.651876
472.000000	99.500064
471.000000	99.442634
470.000000	99.424495
469.000000	99.456931
468.000000	99.539001
467.000000	99.573828
466.000000	99.508377
465.000000	99.442414
464.000000	99.460521
463.000000	99.492505
462.000000	99.459063
461.000000	99.435881
460.000000	99.528701
459.000000	99.694471
458.000000	99.816929
457.000000	99.883812
456.000000	99.940220
455.000000	99.955655
454.000000	99.910700
453.000000	99.877711
452.000000	99.900213
451.000000	99.900152
450.000000	99.834937
