PE IR       SUBTECH     SPECTRUM    ASCII       PEDS        4.00        
   -1
Chevre1-F002_1.ASC
23/09/14
14:34:59.00
23/09/14
14:38:40.00
uco
Sample 002 By uco Date Thursday, September 14 2023
450.000000
#HDR
-1
-1
#GR
cm-1
%T
1.0
0.0
4000.000000
-1.000000
3551
8
100.772829
96.560768
#DATA
4000.000000	100.224887
3999.000000	100.224814
3998.000000	100.227229
3997.000000	100.231578
3996.000000	100.235713
3995.000000	100.236723
3994.000000	100.232693
3993.000000	100.223988
3992.000000	100.213244
3991.000000	100.203775
3990.000000	100.197703
3989.000000	100.195202
3988.000000	100.195219
3987.000000	100.196741
3986.000000	100.199207
3985.000000	100.201950
3984.000000	100.203850
3983.000000	100.204227
3982.000000	100.204005
3981.000000	100.205309
3980.000000	100.209431
3979.000000	100.215253
3978.000000	100.219825
3977.000000	100.220391
3976.000000	100.216009
3975.000000	100.207918
3974.000000	100.198913
3973.000000	100.192317
3972.000000	100.190570
3971.000000	100.193753
3970.000000	100.199358
3969.000000	100.203893
3968.000000	100.205223
3967.000000	100.203529
3966.000000	100.200595
3965.000000	100.198575
3964.000000	100.198950
3963.000000	100.201914
3962.000000	100.206153
3961.000000	100.209329
3960.000000	100.209693
3959.000000	100.207259
3958.000000	100.203706
3957.000000	100.201461
3956.000000	100.202147
3955.000000	100.205429
3954.000000	100.209354
3953.000000	100.211968
3952.000000	100.212705
3951.000000	100.212176
3950.000000	100.211021
3949.000000	100.209216
3948.000000	100.206274
3947.000000	100.202152
3946.000000	100.197786
3945.000000	100.194500
3944.000000	100.192743
3943.000000	100.191711
3942.000000	100.191036
3941.000000	100.191856
3940.000000	100.195419
3939.000000	100.200731
3938.000000	100.204461
3937.000000	100.203985
3936.000000	100.200195
3935.000000	100.196793
3934.000000	100.196942
3933.000000	100.200621
3932.000000	100.205257
3931.000000	100.208211
3930.000000	100.208664
3929.000000	100.207450
3928.000000	100.205814
3927.000000	100.205083
3926.000000	100.205338
3925.000000	100.204528
3924.000000	100.200953
3923.000000	100.195584
3922.000000	100.190360
3921.000000	100.185859
3920.000000	100.182103
3919.000000	100.180421
3918.000000	100.182242
3917.000000	100.186364
3916.000000	100.190035
3915.000000	100.192082
3914.000000	100.193220
3913.000000	100.193316
3912.000000	100.191486
3911.000000	100.188029
3910.000000	100.185224
3909.000000	100.185078
3908.000000	100.187191
3907.000000	100.188820
3906.000000	100.187346
3905.000000	100.182544
3904.000000	100.177538
3903.000000	100.176908
3902.000000	100.181902
3901.000000	100.188691
3900.000000	100.191628
3899.000000	100.188934
3898.000000	100.184599
3897.000000	100.182966
3896.000000	100.184346
3895.000000	100.186644
3894.000000	100.189085
3893.000000	100.192422
3892.000000	100.195915
3891.000000	100.195992
3890.000000	100.191433
3889.000000	100.185839
3888.000000	100.183837
3887.000000	100.186182
3886.000000	100.188449
3885.000000	100.186339
3884.000000	100.182437
3883.000000	100.183052
3882.000000	100.189664
3881.000000	100.197459
3880.000000	100.200378
3879.000000	100.197564
3878.000000	100.193718
3877.000000	100.192896
3876.000000	100.194623
3875.000000	100.194481
3874.000000	100.188538
3873.000000	100.179637
3872.000000	100.176144
3871.000000	100.181155
3870.000000	100.187152
3869.000000	100.186777
3868.000000	100.184458
3867.000000	100.188442
3866.000000	100.197896
3865.000000	100.203622
3864.000000	100.199752
3863.000000	100.189887
3862.000000	100.181269
3861.000000	100.177277
3860.000000	100.177296
3859.000000	100.178559
3858.000000	100.177982
3857.000000	100.174315
3856.000000	100.170928
3855.000000	100.173964
3854.000000	100.182314
3853.000000	100.184589
3852.000000	100.179520
3851.000000	100.178478
3850.000000	100.183994
3849.000000	100.190047
3848.000000	100.192901
3847.000000	100.194215
3846.000000	100.197168
3845.000000	100.202868
3844.000000	100.210245
3843.000000	100.216354
3842.000000	100.218495
3841.000000	100.215855
3840.000000	100.208664
3839.000000	100.197949
3838.000000	100.187227
3837.000000	100.180669
3836.000000	100.180354
3835.000000	100.185657
3834.000000	100.194585
3833.000000	100.204239
3832.000000	100.210898
3831.000000	100.212840
3830.000000	100.212125
3829.000000	100.211479
3828.000000	100.210811
3827.000000	100.206853
3826.000000	100.197226
3825.000000	100.185329
3824.000000	100.179666
3823.000000	100.185888
3822.000000	100.199345
3821.000000	100.205605
3820.000000	100.198774
3819.000000	100.190415
3818.000000	100.191292
3817.000000	100.199355
3816.000000	100.203314
3815.000000	100.198049
3814.000000	100.191322
3813.000000	100.190684
3812.000000	100.193307
3811.000000	100.193174
3810.000000	100.190121
3809.000000	100.189443
3808.000000	100.193959
3807.000000	100.198727
3806.000000	100.198638
3805.000000	100.197281
3804.000000	100.201509
3803.000000	100.211469
3802.000000	100.218066
3801.000000	100.212625
3800.000000	100.201978
3799.000000	100.199224
3798.000000	100.205617
3797.000000	100.211716
3796.000000	100.209433
3795.000000	100.200616
3794.000000	100.193379
3793.000000	100.192175
3792.000000	100.194724
3791.000000	100.197257
3790.000000	100.198775
3789.000000	100.200771
3788.000000	100.204406
3787.000000	100.208948
3786.000000	100.211665
3785.000000	100.209261
3784.000000	100.200663
3783.000000	100.189084
3782.000000	100.179937
3781.000000	100.176790
3780.000000	100.179405
3779.000000	100.185214
3778.000000	100.192742
3777.000000	100.201671
3776.000000	100.209748
3775.000000	100.211985
3774.000000	100.205392
3773.000000	100.193087
3772.000000	100.182088
3771.000000	100.175744
3770.000000	100.171030
3769.000000	100.165416
3768.000000	100.162510
3767.000000	100.167329
3766.000000	100.179048
3765.000000	100.191258
3764.000000	100.199534
3763.000000	100.205888
3762.000000	100.213360
3761.000000	100.220075
3760.000000	100.221478
3759.000000	100.217552
3758.000000	100.213927
3757.000000	100.214719
3756.000000	100.219599
3755.000000	100.226364
3754.000000	100.233091
3753.000000	100.237764
3752.000000	100.238085
3751.000000	100.233299
3750.000000	100.224840
3749.000000	100.214595
3748.000000	100.204381
3747.000000	100.197878
3746.000000	100.199362
3745.000000	100.206308
3744.000000	100.209713
3743.000000	100.209065
3742.000000	100.212106
3741.000000	100.218150
3740.000000	100.220555
3739.000000	100.218375
3738.000000	100.217162
3737.000000	100.218942
3736.000000	100.217344
3735.000000	100.207824
3734.000000	100.198825
3733.000000	100.200342
3732.000000	100.209614
3731.000000	100.217225
3730.000000	100.218179
3729.000000	100.213777
3728.000000	100.207050
3727.000000	100.200092
3726.000000	100.195112
3725.000000	100.195138
3724.000000	100.200180
3723.000000	100.204505
3722.000000	100.201245
3721.000000	100.188702
3720.000000	100.171782
3719.000000	100.158973
3718.000000	100.156327
3717.000000	100.162914
3716.000000	100.173364
3715.000000	100.182525
3714.000000	100.187999
3713.000000	100.189714
3712.000000	100.188544
3711.000000	100.185978
3710.000000	100.184453
3709.000000	100.186260
3708.000000	100.190600
3707.000000	100.193557
3706.000000	100.192056
3705.000000	100.186935
3704.000000	100.182025
3703.000000	100.180777
3702.000000	100.182537
3701.000000	100.184033
3700.000000	100.184099
3699.000000	100.185365
3698.000000	100.190276
3697.000000	100.197442
3696.000000	100.203633
3695.000000	100.207489
3694.000000	100.209243
3693.000000	100.208358
3692.000000	100.204596
3691.000000	100.199603
3690.000000	100.195030
3689.000000	100.189047
3688.000000	100.179561
3687.000000	100.169187
3686.000000	100.162533
3685.000000	100.161375
3684.000000	100.164745
3683.000000	100.172465
3682.000000	100.184575
3681.000000	100.197260
3680.000000	100.201574
3679.000000	100.192364
3678.000000	100.177122
3677.000000	100.170268
3676.000000	100.174221
3675.000000	100.175412
3674.000000	100.167671
3673.000000	100.158896
3672.000000	100.154388
3671.000000	100.150486
3670.000000	100.140538
3669.000000	100.126319
3668.000000	100.118342
3667.000000	100.121712
3666.000000	100.132496
3665.000000	100.144118
3664.000000	100.151724
3663.000000	100.152868
3662.000000	100.147147
3661.000000	100.136201
3660.000000	100.124029
3659.000000	100.116326
3658.000000	100.117257
3657.000000	100.125132
3656.000000	100.131899
3655.000000	100.131723
3654.000000	100.126709
3653.000000	100.122213
3652.000000	100.122126
3651.000000	100.127240
3650.000000	100.132208
3649.000000	100.126909
3648.000000	100.108208
3647.000000	100.085694
3646.000000	100.070675
3645.000000	100.067136
3644.000000	100.072635
3643.000000	100.081967
3642.000000	100.089957
3641.000000	100.093603
3640.000000	100.092521
3639.000000	100.086793
3638.000000	100.076882
3637.000000	100.065503
3636.000000	100.057074
3635.000000	100.053465
3634.000000	100.051375
3633.000000	100.046756
3632.000000	100.040520
3631.000000	100.037897
3630.000000	100.041450
3629.000000	100.044222
3628.000000	100.039100
3627.000000	100.032193
3626.000000	100.030691
3625.000000	100.032822
3624.000000	100.033345
3623.000000	100.029495
3622.000000	100.022656
3621.000000	100.016210
3620.000000	100.011811
3619.000000	100.007739
3618.000000	100.001070
3617.000000	99.991276
3616.000000	99.980412
3615.000000	99.970439
3614.000000	99.961361
3613.000000	99.952556
3612.000000	99.945327
3611.000000	99.941983
3610.000000	99.942480
3609.000000	99.943475
3608.000000	99.942253
3607.000000	99.940769
3606.000000	99.942410
3605.000000	99.946816
3604.000000	99.950465
3603.000000	99.951045
3602.000000	99.948986
3601.000000	99.945051
3600.000000	99.938385
3599.000000	99.928273
3598.000000	99.915553
3597.000000	99.902352
3596.000000	99.891659
3595.000000	99.885805
3594.000000	99.885216
3593.000000	99.888170
3592.000000	99.891405
3591.000000	99.891982
3590.000000	99.889300
3589.000000	99.884195
3588.000000	99.876028
3587.000000	99.862740
3586.000000	99.845839
3585.000000	99.830604
3584.000000	99.821147
3583.000000	99.818392
3582.000000	99.820694
3581.000000	99.824434
3580.000000	99.825690
3579.000000	99.822347
3578.000000	99.815242
3577.000000	99.807386
3576.000000	99.802300
3575.000000	99.801552
3574.000000	99.803215
3573.000000	99.803258
3572.000000	99.798950
3571.000000	99.790787
3570.000000	99.782099
3569.000000	99.776513
3568.000000	99.774509
3567.000000	99.772478
3566.000000	99.767077
3565.000000	99.758695
3564.000000	99.749052
3563.000000	99.739343
3562.000000	99.730664
3561.000000	99.723603
3560.000000	99.717297
3559.000000	99.710199
3558.000000	99.701598
3557.000000	99.691939
3556.000000	99.682073
3555.000000	99.672669
3554.000000	99.663878
3553.000000	99.655320
3552.000000	99.646858
3551.000000	99.639151
3550.000000	99.633159
3549.000000	99.629207
3548.000000	99.626939
3547.000000	99.625625
3546.000000	99.624108
3545.000000	99.621001
3544.000000	99.615914
3543.000000	99.609750
3542.000000	99.603670
3541.000000	99.597937
3540.000000	99.591992
3539.000000	99.585343
3538.000000	99.577841
3537.000000	99.569228
3536.000000	99.559406
3535.000000	99.549213
3534.000000	99.540080
3533.000000	99.532474
3532.000000	99.525743
3531.000000	99.519929
3530.000000	99.516542
3529.000000	99.516577
3528.000000	99.518359
3527.000000	99.518934
3526.000000	99.517251
3525.000000	99.514137
3524.000000	99.509739
3523.000000	99.503388
3522.000000	99.496091
3521.000000	99.490695
3520.000000	99.488290
3519.000000	99.485883
3518.000000	99.479152
3517.000000	99.467185
3516.000000	99.453767
3515.000000	99.443946
3514.000000	99.440541
3513.000000	99.443235
3512.000000	99.448991
3511.000000	99.452821
3510.000000	99.450030
3509.000000	99.439495
3508.000000	99.424341
3507.000000	99.408954
3506.000000	99.395808
3505.000000	99.385590
3504.000000	99.378646
3503.000000	99.375114
3502.000000	99.374167
3501.000000	99.374262
3500.000000	99.374279
3499.000000	99.373835
3498.000000	99.372610
3497.000000	99.369987
3496.000000	99.365988
3495.000000	99.362079
3494.000000	99.360140
3493.000000	99.360414
3492.000000	99.360919
3491.000000	99.359147
3490.000000	99.354281
3489.000000	99.347497
3488.000000	99.340088
3487.000000	99.331942
3486.000000	99.322185
3485.000000	99.310875
3484.000000	99.299553
3483.000000	99.290250
3482.000000	99.284314
3481.000000	99.281971
3480.000000	99.282154
3479.000000	99.282557
3478.000000	99.280864
3477.000000	99.276855
3476.000000	99.273010
3475.000000	99.272089
3474.000000	99.273812
3473.000000	99.274770
3472.000000	99.271892
3471.000000	99.265282
3470.000000	99.257392
3469.000000	99.250322
3468.000000	99.244617
3467.000000	99.240230
3466.000000	99.237398
3465.000000	99.235944
3464.000000	99.234315
3463.000000	99.230177
3462.000000	99.222346
3461.000000	99.211861
3460.000000	99.201010
3459.000000	99.191525
3458.000000	99.183954
3457.000000	99.178585
3456.000000	99.176120
3455.000000	99.176694
3454.000000	99.178543
3453.000000	99.178436
3452.000000	99.174303
3451.000000	99.167583
3450.000000	99.162345
3449.000000	99.161651
3448.000000	99.164427
3447.000000	99.165869
3446.000000	99.161360
3445.000000	99.150133
3444.000000	99.135579
3443.000000	99.123020
3442.000000	99.116770
3441.000000	99.117679
3440.000000	99.122546
3439.000000	99.126238
3438.000000	99.125317
3437.000000	99.120337
3436.000000	99.114839
3435.000000	99.111961
3434.000000	99.111880
3433.000000	99.111970
3432.000000	99.109406
3431.000000	99.103799
3430.000000	99.097493
3429.000000	99.093252
3428.000000	99.091377
3427.000000	99.089200
3426.000000	99.083517
3425.000000	99.073512
3424.000000	99.061327
3423.000000	99.050059
3422.000000	99.041476
3421.000000	99.035301
3420.000000	99.030070
3419.000000	99.024604
3418.000000	99.019298
3417.000000	99.016297
3416.000000	99.017918
3415.000000	99.024159
3414.000000	99.031656
3413.000000	99.035634
3412.000000	99.033345
3411.000000	99.025909
3410.000000	99.017248
3409.000000	99.011240
3408.000000	99.009157
3407.000000	99.009015
3406.000000	99.007288
3405.000000	99.001732
3404.000000	98.992937
3403.000000	98.983284
3402.000000	98.974787
3401.000000	98.968175
3400.000000	98.963478
3399.000000	98.960449
3398.000000	98.958260
3397.000000	98.955794
3396.000000	98.952841
3395.000000	98.950565
3394.000000	98.950105
3393.000000	98.950916
3392.000000	98.951134
3391.000000	98.949659
3390.000000	98.947155
3389.000000	98.944680
3388.000000	98.941957
3387.000000	98.937531
3386.000000	98.930506
3385.000000	98.921676
3384.000000	98.912896
3383.000000	98.905702
3382.000000	98.900559
3381.000000	98.896775
3380.000000	98.892684
3379.000000	98.886431
3378.000000	98.877555
3377.000000	98.868074
3376.000000	98.861309
3375.000000	98.859077
3374.000000	98.860186
3373.000000	98.861912
3372.000000	98.862535
3371.000000	98.861941
3370.000000	98.860103
3369.000000	98.856114
3368.000000	98.849240
3367.000000	98.840388
3366.000000	98.831709
3365.000000	98.824638
3364.000000	98.818841
3363.000000	98.813233
3362.000000	98.807572
3361.000000	98.802669
3360.000000	98.799189
3359.000000	98.796631
3358.000000	98.793610
3357.000000	98.788933
3356.000000	98.782300
3355.000000	98.774101
3354.000000	98.764710
3353.000000	98.754097
3352.000000	98.742221
3351.000000	98.729751
3350.000000	98.718211
3349.000000	98.708997
3348.000000	98.701963
3347.000000	98.695043
3346.000000	98.685824
3345.000000	98.673952
3344.000000	98.662130
3343.000000	98.654269
3342.000000	98.651969
3341.000000	98.652655
3340.000000	98.651433
3339.000000	98.645194
3338.000000	98.635020
3337.000000	98.624596
3336.000000	98.616501
3335.000000	98.610429
3334.000000	98.604684
3333.000000	98.598372
3332.000000	98.591449
3331.000000	98.583424
3330.000000	98.573370
3329.000000	98.561480
3328.000000	98.549855
3327.000000	98.541212
3326.000000	98.537022
3325.000000	98.536870
3324.000000	98.538950
3323.000000	98.540551
3322.000000	98.538807
3321.000000	98.532464
3320.000000	98.523291
3319.000000	98.514899
3318.000000	98.509413
3317.000000	98.505516
3316.000000	98.500283
3315.000000	98.492642
3314.000000	98.484402
3313.000000	98.478100
3312.000000	98.474705
3311.000000	98.473538
3310.000000	98.473580
3309.000000	98.474117
3308.000000	98.474459
3307.000000	98.473746
3306.000000	98.471092
3305.000000	98.465807
3304.000000	98.457793
3303.000000	98.448090
3302.000000	98.438730
3301.000000	98.431509
3300.000000	98.426961
3299.000000	98.424817
3298.000000	98.425066
3297.000000	98.427699
3296.000000	98.431629
3295.000000	98.434778
3294.000000	98.435606
3293.000000	98.434087
3292.000000	98.431059
3291.000000	98.427283
3290.000000	98.423219
3289.000000	98.418942
3288.000000	98.413952
3287.000000	98.407995
3286.000000	98.402569
3285.000000	98.400526
3284.000000	98.403135
3283.000000	98.407967
3282.000000	98.410746
3281.000000	98.409341
3280.000000	98.405265
3279.000000	98.401642
3278.000000	98.400757
3277.000000	98.403145
3276.000000	98.407734
3275.000000	98.412393
3274.000000	98.415152
3273.000000	98.415529
3272.000000	98.414537
3271.000000	98.413465
3270.000000	98.413047
3269.000000	98.413590
3268.000000	98.414968
3267.000000	98.416299
3266.000000	98.416488
3265.000000	98.415626
3264.000000	98.415409
3263.000000	98.417668
3262.000000	98.422547
3261.000000	98.428356
3260.000000	98.432941
3259.000000	98.435191
3258.000000	98.435745
3257.000000	98.436567
3256.000000	98.439573
3255.000000	98.445257
3254.000000	98.452559
3253.000000	98.459904
3252.000000	98.466262
3251.000000	98.471438
3250.000000	98.475942
3249.000000	98.480633
3248.000000	98.485929
3247.000000	98.491200
3246.000000	98.495264
3245.000000	98.497653
3244.000000	98.499038
3243.000000	98.500336
3242.000000	98.501937
3241.000000	98.504124
3240.000000	98.507727
3239.000000	98.513732
3238.000000	98.522103
3237.000000	98.531135
3236.000000	98.538187
3235.000000	98.541503
3234.000000	98.541581
3233.000000	98.540477
3232.000000	98.539622
3231.000000	98.538685
3230.000000	98.536983
3229.000000	98.535309
3228.000000	98.535386
3227.000000	98.537784
3226.000000	98.541511
3225.000000	98.545729
3224.000000	98.550798
3223.000000	98.557207
3222.000000	98.564334
3221.000000	98.570962
3220.000000	98.576512
3219.000000	98.581393
3218.000000	98.586465
3217.000000	98.592446
3216.000000	98.599254
3215.000000	98.605535
3214.000000	98.609410
3213.000000	98.610240
3212.000000	98.609303
3211.000000	98.608577
3210.000000	98.609203
3209.000000	98.611272
3208.000000	98.614218
3207.000000	98.617007
3206.000000	98.618810
3205.000000	98.620284
3204.000000	98.623630
3203.000000	98.630329
3202.000000	98.638972
3201.000000	98.646259
3200.000000	98.650200
3199.000000	98.651874
3198.000000	98.653821
3197.000000	98.657295
3196.000000	98.661181
3195.000000	98.663387
3194.000000	98.663049
3193.000000	98.661540
3192.000000	98.661517
3191.000000	98.664873
3190.000000	98.671363
3189.000000	98.678820
3188.000000	98.684604
3187.000000	98.687518
3186.000000	98.689141
3185.000000	98.693266
3184.000000	98.702883
3183.000000	98.717271
3182.000000	98.732452
3181.000000	98.744565
3180.000000	98.752118
3179.000000	98.755203
3178.000000	98.754269
3177.000000	98.750739
3176.000000	98.747600
3175.000000	98.747641
3174.000000	98.751035
3173.000000	98.755780
3172.000000	98.760444
3171.000000	98.765763
3170.000000	98.773414
3169.000000	98.784137
3168.000000	98.797077
3167.000000	98.810368
3166.000000	98.822120
3165.000000	98.831401
3164.000000	98.838429
3163.000000	98.843743
3162.000000	98.847473
3161.000000	98.849808
3160.000000	98.851826
3159.000000	98.855046
3158.000000	98.860216
3157.000000	98.867153
3156.000000	98.875538
3155.000000	98.885049
3154.000000	98.894578
3153.000000	98.902068
3152.000000	98.905676
3151.000000	98.905121
3150.000000	98.902244
3149.000000	98.900447
3148.000000	98.902876
3147.000000	98.910132
3146.000000	98.919739
3145.000000	98.928484
3144.000000	98.935057
3143.000000	98.940089
3142.000000	98.944467
3141.000000	98.949015
3140.000000	98.955172
3139.000000	98.963933
3138.000000	98.973727
3137.000000	98.981305
3136.000000	98.985467
3135.000000	98.988426
3134.000000	98.992348
3133.000000	98.996115
3132.000000	98.997253
3131.000000	98.995972
3130.000000	98.995189
3129.000000	98.996868
3128.000000	99.000288
3127.000000	99.004042
3126.000000	99.007920
3125.000000	99.012050
3124.000000	99.015791
3123.000000	99.018969
3122.000000	99.023338
3121.000000	99.030922
3120.000000	99.040665
3119.000000	99.048121
3118.000000	99.049514
3117.000000	99.045574
3116.000000	99.040431
3115.000000	99.036963
3114.000000	99.034655
3113.000000	99.032259
3112.000000	99.030938
3111.000000	99.032947
3110.000000	99.037619
3109.000000	99.040504
3108.000000	99.037412
3107.000000	99.028633
3106.000000	99.018642
3105.000000	99.012318
3104.000000	99.011775
3103.000000	99.015867
3102.000000	99.021518
3101.000000	99.025639
3100.000000	99.026720
3099.000000	99.024905
3098.000000	99.020849
3097.000000	99.015085
3096.000000	99.008622
3095.000000	99.003062
3094.000000	98.999410
3093.000000	98.997362
3092.000000	98.996565
3091.000000	98.997789
3090.000000	99.001647
3089.000000	99.006432
3088.000000	99.008642
3087.000000	99.006149
3086.000000	99.000122
3085.000000	98.993612
3084.000000	98.988830
3083.000000	98.986011
3082.000000	98.984087
3081.000000	98.982000
3080.000000	98.979817
3079.000000	98.978878
3078.000000	98.980421
3077.000000	98.983816
3076.000000	98.986712
3075.000000	98.987176
3074.000000	98.985272
3073.000000	98.982322
3072.000000	98.979436
3071.000000	98.977271
3070.000000	98.976410
3069.000000	98.976949
3068.000000	98.978057
3067.000000	98.978949
3066.000000	98.980251
3065.000000	98.983436
3064.000000	98.988750
3063.000000	98.994736
3062.000000	99.000362
3061.000000	99.006739
3060.000000	99.015761
3059.000000	99.027150
3058.000000	99.037673
3057.000000	99.043670
3056.000000	99.044486
3055.000000	99.043190
3054.000000	99.043889
3053.000000	99.048026
3052.000000	99.053366
3051.000000	99.056780
3050.000000	99.057879
3049.000000	99.059522
3048.000000	99.064564
3047.000000	99.072902
3046.000000	99.082184
3045.000000	99.090642
3044.000000	99.098162
3043.000000	99.105040
3042.000000	99.111083
3041.000000	99.116386
3040.000000	99.121841
3039.000000	99.127923
3038.000000	99.133456
3037.000000	99.136562
3036.000000	99.137143
3035.000000	99.137949
3034.000000	99.142652
3033.000000	99.152546
3032.000000	99.164947
3031.000000	99.174941
3030.000000	99.179190
3029.000000	99.178504
3028.000000	99.177002
3027.000000	99.178900
3026.000000	99.185849
3025.000000	99.196663
3024.000000	99.208837
3023.000000	99.220356
3022.000000	99.230595
3021.000000	99.240101
3020.000000	99.249491
3019.000000	99.258529
3018.000000	99.266366
3017.000000	99.272773
3016.000000	99.278726
3015.000000	99.285415
3014.000000	99.292744
3013.000000	99.299196
3012.000000	99.303322
3011.000000	99.305361
3010.000000	99.307266
3009.000000	99.310907
3008.000000	99.316140
3007.000000	99.320786
3006.000000	99.322784
3005.000000	99.322269
3004.000000	99.321284
3003.000000	99.321589
3002.000000	99.323269
3001.000000	99.325422
3000.000000	99.327451
2999.000000	99.329223
2998.000000	99.330348
2997.000000	99.329804
2996.000000	99.326383
2995.000000	99.319716
2994.000000	99.311273
2993.000000	99.304179
2992.000000	99.301136
2991.000000	99.302069
2990.000000	99.304130
2989.000000	99.304126
2988.000000	99.300511
2987.000000	99.293331
2986.000000	99.283758
2985.000000	99.274335
2984.000000	99.268429
2983.000000	99.267720
2982.000000	99.270514
2981.000000	99.273503
2980.000000	99.275198
2979.000000	99.276712
2978.000000	99.279509
2977.000000	99.283536
2976.000000	99.287724
2975.000000	99.291226
2974.000000	99.293724
2973.000000	99.295378
2972.000000	99.297160
2971.000000	99.300940
2970.000000	99.308643
2969.000000	99.321032
2968.000000	99.337108
2967.000000	99.354412
2966.000000	99.370226
2965.000000	99.382951
2964.000000	99.392594
2963.000000	99.399957
2962.000000	99.405987
2961.000000	99.412236
2960.000000	99.421041
2959.000000	99.433715
2958.000000	99.448503
2957.000000	99.461426
2956.000000	99.469822
2955.000000	99.474525
2954.000000	99.478380
2953.000000	99.483152
2952.000000	99.488139
2951.000000	99.491214
2950.000000	99.490945
2949.000000	99.488188
2948.000000	99.486030
2947.000000	99.488034
2946.000000	99.496200
2945.000000	99.510523
2944.000000	99.529762
2943.000000	99.552138
2942.000000	99.575818
2941.000000	99.600155
2940.000000	99.626655
2939.000000	99.657720
2938.000000	99.694074
2937.000000	99.734065
2936.000000	99.775707
2935.000000	99.818345
2934.000000	99.862002
2933.000000	99.906407
2932.000000	99.951479
2931.000000	99.997842
2930.000000	100.045469
2929.000000	100.092273
2928.000000	100.134987
2927.000000	100.171461
2926.000000	100.201331
2925.000000	100.224748
2924.000000	100.241419
2923.000000	100.250889
2922.000000	100.253138
2921.000000	100.248742
2920.000000	100.238664
2919.000000	100.223816
2918.000000	100.204206
2917.000000	100.178584
2916.000000	100.145249
2915.000000	100.103582
2914.000000	100.055279
2913.000000	100.004410
2912.000000	99.956071
2911.000000	99.913966
2910.000000	99.878813
2909.000000	99.849081
2908.000000	99.823157
2907.000000	99.800385
2906.000000	99.780279
2905.000000	99.761999
2904.000000	99.745107
2903.000000	99.730166
2902.000000	99.717849
2901.000000	99.707596
2900.000000	99.698320
2899.000000	99.689204
2898.000000	99.679859
2897.000000	99.669779
2896.000000	99.658575
2895.000000	99.646820
2894.000000	99.636202
2893.000000	99.628537
2892.000000	99.624365
2891.000000	99.622003
2890.000000	99.617841
2889.000000	99.608494
2888.000000	99.593656
2887.000000	99.576842
2886.000000	99.562644
2885.000000	99.553219
2884.000000	99.547391
2883.000000	99.542781
2882.000000	99.538073
2881.000000	99.533473
2880.000000	99.529881
2879.000000	99.528007
2878.000000	99.527922
2877.000000	99.529243
2876.000000	99.531929
2875.000000	99.536898
2874.000000	99.545400
2873.000000	99.557465
2872.000000	99.571028
2871.000000	99.582951
2870.000000	99.591325
2869.000000	99.597268
2868.000000	99.604538
2867.000000	99.617085
2866.000000	99.636477
2865.000000	99.661492
2864.000000	99.690149
2863.000000	99.721804
2862.000000	99.757316
2861.000000	99.797485
2860.000000	99.841644
2859.000000	99.887446
2858.000000	99.931822
2857.000000	99.972404
2856.000000	100.008261
2855.000000	100.039127
2854.000000	100.063708
2853.000000	100.079421
2852.000000	100.084185
2851.000000	100.077760
2850.000000	100.060765
2849.000000	100.032887
2848.000000	99.993283
2847.000000	99.943088
2846.000000	99.887053
2845.000000	99.832260
2844.000000	99.785138
2843.000000	99.748736
2842.000000	99.721906
2841.000000	99.700998
2840.000000	99.682972
2839.000000	99.667396
2838.000000	99.655369
2837.000000	99.646865
2836.000000	99.639820
2835.000000	99.631902
2834.000000	99.622268
2833.000000	99.611395
2832.000000	99.600256
2831.000000	99.590584
2830.000000	99.585058
2829.000000	99.585305
2828.000000	99.589243
2827.000000	99.591642
2826.000000	99.588553
2825.000000	99.580800
2824.000000	99.572495
2823.000000	99.566665
2822.000000	99.563366
2821.000000	99.561605
2820.000000	99.561360
2819.000000	99.562944
2818.000000	99.565675
2817.000000	99.568383
2816.000000	99.570694
2815.000000	99.572730
2814.000000	99.573894
2813.000000	99.573195
2812.000000	99.570809
2811.000000	99.568306
2810.000000	99.567128
2809.000000	99.567621
2808.000000	99.569597
2807.000000	99.572736
2806.000000	99.575938
2805.000000	99.577328
2804.000000	99.575863
2803.000000	99.572627
2802.000000	99.569866
2801.000000	99.568997
2800.000000	99.569965
2799.000000	99.572070
2798.000000	99.574731
2797.000000	99.577510
2796.000000	99.580023
2795.000000	99.582114
2794.000000	99.584013
2793.000000	99.586199
2792.000000	99.588950
2791.000000	99.591770
2790.000000	99.593577
2789.000000	99.594085
2788.000000	99.594782
2787.000000	99.597454
2786.000000	99.601500
2785.000000	99.603894
2784.000000	99.602530
2783.000000	99.598621
2782.000000	99.594843
2781.000000	99.592234
2780.000000	99.590426
2779.000000	99.590182
2778.000000	99.593334
2777.000000	99.599634
2776.000000	99.605400
2775.000000	99.606688
2774.000000	99.603310
2773.000000	99.598900
2772.000000	99.597430
2771.000000	99.600160
2770.000000	99.605509
2769.000000	99.610934
2768.000000	99.614899
2767.000000	99.617650
2766.000000	99.620419
2765.000000	99.623858
2764.000000	99.627345
2763.000000	99.629816
2762.000000	99.630965
2761.000000	99.631331
2760.000000	99.631461
2759.000000	99.631457
2758.000000	99.631366
2757.000000	99.631574
2756.000000	99.632554
2755.000000	99.634266
2754.000000	99.636056
2753.000000	99.637297
2752.000000	99.638113
2751.000000	99.639285
2750.000000	99.641285
2749.000000	99.643595
2748.000000	99.645254
2747.000000	99.646042
2746.000000	99.646724
2745.000000	99.648022
2744.000000	99.649733
2743.000000	99.651154
2742.000000	99.652107
2741.000000	99.653069
2740.000000	99.654332
2739.000000	99.655474
2738.000000	99.655942
2737.000000	99.656033
2736.000000	99.656984
2735.000000	99.659902
2734.000000	99.664606
2733.000000	99.669623
2732.000000	99.673490
2731.000000	99.676001
2730.000000	99.678015
2729.000000	99.680077
2728.000000	99.681598
2727.000000	99.681658
2726.000000	99.680393
2725.000000	99.679196
2724.000000	99.679541
2723.000000	99.681874
2722.000000	99.685566
2721.000000	99.689431
2720.000000	99.692183
2719.000000	99.692999
2718.000000	99.692124
2717.000000	99.690623
2716.000000	99.689097
2715.000000	99.686991
2714.000000	99.683894
2713.000000	99.681346
2712.000000	99.682332
2711.000000	99.688406
2710.000000	99.697623
2709.000000	99.705669
2708.000000	99.708937
2707.000000	99.706869
2706.000000	99.702268
2705.000000	99.699669
2704.000000	99.702172
2703.000000	99.708653
2702.000000	99.714388
2701.000000	99.715563
2700.000000	99.713282
2699.000000	99.712241
2698.000000	99.715501
2697.000000	99.721450
2696.000000	99.726014
2695.000000	99.726775
2694.000000	99.724485
2693.000000	99.721641
2692.000000	99.720562
2691.000000	99.722079
2690.000000	99.724895
2689.000000	99.726412
2688.000000	99.725287
2687.000000	99.723391
2686.000000	99.724335
2685.000000	99.729661
2684.000000	99.737089
2683.000000	99.742897
2682.000000	99.745330
2681.000000	99.745079
2680.000000	99.743184
2679.000000	99.739787
2678.000000	99.735140
2677.000000	99.730601
2676.000000	99.727645
2675.000000	99.726300
2674.000000	99.725371
2673.000000	99.724136
2672.000000	99.723169
2671.000000	99.723481
2670.000000	99.725465
2669.000000	99.728666
2668.000000	99.731842
2667.000000	99.733140
2666.000000	99.731277
2665.000000	99.727205
2664.000000	99.723807
2663.000000	99.722938
2662.000000	99.723130
2661.000000	99.721129
2660.000000	99.715558
2659.000000	99.708206
2658.000000	99.701844
2657.000000	99.697795
2656.000000	99.695832
2655.000000	99.695297
2654.000000	99.695556
2653.000000	99.696060
2652.000000	99.696795
2651.000000	99.698612
2650.000000	99.702570
2649.000000	99.708946
2648.000000	99.717028
2647.000000	99.725488
2646.000000	99.732715
2645.000000	99.737359
2644.000000	99.739351
2643.000000	99.740354
2642.000000	99.742516
2641.000000	99.746348
2640.000000	99.749985
2639.000000	99.750868
2638.000000	99.748322
2637.000000	99.744536
2636.000000	99.742847
2635.000000	99.744891
2634.000000	99.749480
2633.000000	99.754263
2632.000000	99.758088
2631.000000	99.761415
2630.000000	99.764994
2629.000000	99.769216
2628.000000	99.774810
2627.000000	99.782848
2626.000000	99.793022
2625.000000	99.802411
2624.000000	99.807244
2623.000000	99.806337
2622.000000	99.802366
2621.000000	99.799408
2620.000000	99.799529
2619.000000	99.802178
2618.000000	99.806502
2617.000000	99.812984
2616.000000	99.821737
2615.000000	99.829747
2614.000000	99.831761
2613.000000	99.825159
2612.000000	99.813490
2611.000000	99.804094
2610.000000	99.802184
2609.000000	99.807462
2608.000000	99.815507
2607.000000	99.821411
2606.000000	99.822768
2605.000000	99.820902
2604.000000	99.819437
2603.000000	99.820489
2602.000000	99.822036
2601.000000	99.820301
2600.000000	99.814939
2599.000000	99.810319
2598.000000	99.810932
2597.000000	99.816703
2596.000000	99.823887
2595.000000	99.829505
2594.000000	99.833553
2593.000000	99.837434
2592.000000	99.841675
2591.000000	99.845406
2590.000000	99.847182
2589.000000	99.846220
2588.000000	99.843464
2587.000000	99.841569
2586.000000	99.843208
2585.000000	99.848979
2584.000000	99.857018
2583.000000	99.864754
2582.000000	99.870902
2581.000000	99.875729
2580.000000	99.879707
2579.000000	99.882359
2578.000000	99.882791
2577.000000	99.881197
2576.000000	99.879286
2575.000000	99.878972
2574.000000	99.880990
2573.000000	99.884915
2572.000000	99.889663
2571.000000	99.893391
2570.000000	99.893630
2569.000000	99.888893
2568.000000	99.880485
2567.000000	99.872098
2566.000000	99.867300
2565.000000	99.867209
2564.000000	99.869895
2563.000000	99.871730
2562.000000	99.870199
2561.000000	99.866376
2560.000000	99.864308
2559.000000	99.867052
2558.000000	99.873546
2557.000000	99.879686
2556.000000	99.881782
2555.000000	99.878556
2554.000000	99.871471
2553.000000	99.864710
2552.000000	99.863668
2551.000000	99.870934
2550.000000	99.883365
2549.000000	99.894501
2548.000000	99.899836
2547.000000	99.899054
2546.000000	99.894269
2545.000000	99.888095
2544.000000	99.882897
2543.000000	99.879786
2542.000000	99.878350
2541.000000	99.878717
2540.000000	99.882884
2539.000000	99.891687
2538.000000	99.901642
2537.000000	99.908126
2536.000000	99.911456
2535.000000	99.915998
2534.000000	99.922614
2533.000000	99.926095
2532.000000	99.921661
2531.000000	99.911010
2530.000000	99.899852
2529.000000	99.892667
2528.000000	99.891774
2527.000000	99.898203
2526.000000	99.909869
2525.000000	99.920873
2524.000000	99.926281
2523.000000	99.926817
2522.000000	99.926327
2521.000000	99.925852
2520.000000	99.923490
2519.000000	99.919474
2518.000000	99.917734
2517.000000	99.921510
2516.000000	99.929341
2515.000000	99.936187
2514.000000	99.937470
2513.000000	99.932496
2512.000000	99.925777
2511.000000	99.924512
2510.000000	99.932334
2509.000000	99.944701
2508.000000	99.952150
2507.000000	99.948946
2506.000000	99.937594
2505.000000	99.925051
2504.000000	99.916694
2503.000000	99.914573
2502.000000	99.918993
2501.000000	99.928574
2500.000000	99.938761
2499.000000	99.942958
2498.000000	99.937525
2497.000000	99.925704
2496.000000	99.915139
2495.000000	99.910858
2494.000000	99.911308
2493.000000	99.911989
2492.000000	99.911602
2491.000000	99.912620
2490.000000	99.916384
2489.000000	99.920387
2488.000000	99.921777
2487.000000	99.921418
2486.000000	99.922488
2485.000000	99.926262
2484.000000	99.931379
2483.000000	99.936798
2482.000000	99.942999
2481.000000	99.949588
2480.000000	99.953499
2479.000000	99.951119
2478.000000	99.942024
2477.000000	99.929953
2476.000000	99.920226
2475.000000	99.916263
2474.000000	99.918188
2473.000000	99.923742
2472.000000	99.929790
2471.000000	99.933454
2470.000000	99.933437
2469.000000	99.931442
2468.000000	99.931669
2467.000000	99.937291
2466.000000	99.947170
2465.000000	99.956473
2464.000000	99.960366
2463.000000	99.956433
2462.000000	99.945039
2461.000000	99.929924
2460.000000	99.918216
2459.000000	99.916428
2458.000000	99.924275
2457.000000	99.933908
2456.000000	99.937139
2455.000000	99.932870
2454.000000	99.926451
2453.000000	99.923383
2452.000000	99.925011
2451.000000	99.928823
2450.000000	99.930485
2449.000000	99.926256
2448.000000	99.916473
2447.000000	99.907440
2446.000000	99.907340
2445.000000	99.918178
2444.000000	99.932388
2443.000000	99.938887
2442.000000	99.933150
2441.000000	99.920939
2440.000000	99.912170
2439.000000	99.911826
2438.000000	99.917379
2437.000000	99.923902
2436.000000	99.929587
2435.000000	99.935138
2434.000000	99.939719
2433.000000	99.940371
2432.000000	99.935931
2431.000000	99.929663
2430.000000	99.926817
2429.000000	99.930220
2428.000000	99.938230
2427.000000	99.945912
2426.000000	99.948236
2425.000000	99.943854
2424.000000	99.936650
2423.000000	99.932679
2422.000000	99.934908
2421.000000	99.941715
2420.000000	99.950011
2419.000000	99.957695
2418.000000	99.962677
2417.000000	99.962347
2416.000000	99.956110
2415.000000	99.947009
2414.000000	99.938998
2413.000000	99.933532
2412.000000	99.930217
2411.000000	99.929475
2410.000000	99.932488
2409.000000	99.939093
2408.000000	99.947541
2407.000000	99.956153
2406.000000	99.963797
2405.000000	99.969311
2404.000000	99.972132
2403.000000	99.973307
2402.000000	99.974214
2401.000000	99.974460
2400.000000	99.972651
2399.000000	99.969340
2398.000000	99.967441
2397.000000	99.968898
2396.000000	99.972227
2395.000000	99.974266
2394.000000	99.973740
2393.000000	99.972139
2392.000000	99.971342
2391.000000	99.971495
2390.000000	99.971682
2389.000000	99.972022
2388.000000	99.973966
2387.000000	99.977759
2386.000000	99.980837
2385.000000	99.980003
2384.000000	99.975242
2383.000000	99.970231
2382.000000	99.968372
2381.000000	99.969848
2380.000000	99.972577
2379.000000	99.974569
2378.000000	99.974445
2377.000000	99.971040
2376.000000	99.964659
2375.000000	99.958088
2374.000000	99.954664
2373.000000	99.954930
2372.000000	99.956764
2371.000000	99.958759
2370.000000	99.961862
2369.000000	99.967144
2368.000000	99.972798
2367.000000	99.974624
2366.000000	99.968653
2365.000000	99.953414
2364.000000	99.930768
2363.000000	99.904350
2362.000000	99.880026
2361.000000	99.866369
2360.000000	99.868046
2359.000000	99.884441
2358.000000	99.909645
2357.000000	99.931257
2356.000000	99.939409
2355.000000	99.928341
2354.000000	99.906400
2353.000000	99.890359
2352.000000	99.891910
2351.000000	99.905552
2350.000000	99.915222
2349.000000	99.912241
2348.000000	99.897544
2347.000000	99.879724
2346.000000	99.869931
2345.000000	99.872872
2344.000000	99.884235
2343.000000	99.891674
2342.000000	99.892335
2341.000000	99.889871
2340.000000	99.886675
2339.000000	99.883208
2338.000000	99.880569
2337.000000	99.881821
2336.000000	99.886877
2335.000000	99.893905
2334.000000	99.898223
2333.000000	99.898915
2332.000000	99.895419
2331.000000	99.893443
2330.000000	99.893580
2329.000000	99.896433
2328.000000	99.890857
2327.000000	99.868349
2326.000000	99.827935
2325.000000	99.783637
2324.000000	99.754879
2323.000000	99.752181
2322.000000	99.770330
2321.000000	99.795030
2320.000000	99.813953
2319.000000	99.825827
2318.000000	99.832843
2317.000000	99.840834
2316.000000	99.851242
2315.000000	99.866038
2314.000000	99.879902
2313.000000	99.887532
2312.000000	99.883833
2311.000000	99.873776
2310.000000	99.865414
2309.000000	99.867421
2308.000000	99.879469
2307.000000	99.895348
2306.000000	99.905649
2305.000000	99.906746
2304.000000	99.901084
2303.000000	99.894315
2302.000000	99.887444
2301.000000	99.879836
2300.000000	99.872028
2299.000000	99.869425
2298.000000	99.873058
2297.000000	99.878182
2296.000000	99.876468
2295.000000	99.866997
2294.000000	99.855409
2293.000000	99.848904
2292.000000	99.849071
2291.000000	99.852350
2290.000000	99.853174
2289.000000	99.847707
2288.000000	99.836557
2287.000000	99.824398
2286.000000	99.817397
2285.000000	99.818833
2284.000000	99.828108
2283.000000	99.841420
2282.000000	99.854796
2281.000000	99.866100
2280.000000	99.876180
2279.000000	99.886300
2278.000000	99.895226
2277.000000	99.900345
2276.000000	99.901907
2275.000000	99.903990
2274.000000	99.909235
2273.000000	99.915960
2272.000000	99.921153
2271.000000	99.924426
2270.000000	99.926474
2269.000000	99.927015
2268.000000	99.926520
2267.000000	99.927078
2266.000000	99.927886
2265.000000	99.923621
2264.000000	99.911768
2263.000000	99.899519
2262.000000	99.897440
2261.000000	99.907338
2260.000000	99.922290
2259.000000	99.936988
2258.000000	99.952096
2257.000000	99.966766
2256.000000	99.975066
2255.000000	99.973479
2254.000000	99.966743
2253.000000	99.961924
2252.000000	99.959520
2251.000000	99.955033
2250.000000	99.945458
2249.000000	99.931169
2248.000000	99.914203
2247.000000	99.900036
2246.000000	99.898202
2245.000000	99.914593
2244.000000	99.942403
2243.000000	99.966242
2242.000000	99.976422
2241.000000	99.974849
2240.000000	99.966692
2239.000000	99.952611
2238.000000	99.933169
2237.000000	99.914734
2236.000000	99.903669
2235.000000	99.896692
2234.000000	99.885333
2233.000000	99.870859
2232.000000	99.867572
2231.000000	99.887141
2230.000000	99.924163
2229.000000	99.961022
2228.000000	99.983672
2227.000000	99.988838
2226.000000	99.979731
2225.000000	99.962648
2224.000000	99.947532
2223.000000	99.943693
2222.000000	99.950282
2221.000000	99.954897
2220.000000	99.946559
2219.000000	99.930479
2218.000000	99.926903
2217.000000	99.953809
2216.000000	100.008993
2215.000000	100.067962
2214.000000	100.099661
2213.000000	100.086817
2212.000000	100.035513
2211.000000	99.968159
2210.000000	99.909400
2209.000000	99.876429
2208.000000	99.874211
2207.000000	99.894143
2206.000000	99.920038
2205.000000	99.939598
2204.000000	99.950322
2203.000000	99.953096
2202.000000	99.944656
2201.000000	99.922392
2200.000000	99.894108
2199.000000	99.874585
2198.000000	99.872025
2197.000000	99.883595
2196.000000	99.903927
2195.000000	99.930086
2194.000000	99.955566
2193.000000	99.967530
2192.000000	99.957055
2191.000000	99.928662
2190.000000	99.894932
2189.000000	99.866574
2188.000000	99.852037
2187.000000	99.860896
2186.000000	99.897205
2185.000000	99.948061
2184.000000	99.987504
2183.000000	99.998459
2182.000000	99.987865
2181.000000	99.975420
2180.000000	99.969852
2179.000000	99.962645
2178.000000	99.946437
2177.000000	99.931475
2176.000000	99.935006
2175.000000	99.955698
2174.000000	99.969617
2173.000000	99.958160
2172.000000	99.932617
2171.000000	99.920690
2170.000000	99.932415
2169.000000	99.947030
2168.000000	99.934761
2167.000000	99.887642
2166.000000	99.827472
2165.000000	99.787809
2164.000000	99.787233
2163.000000	99.815953
2162.000000	99.849950
2161.000000	99.881126
2160.000000	99.931896
2159.000000	100.029801
2158.000000	100.161555
2157.000000	100.271154
2156.000000	100.315503
2155.000000	100.302650
2154.000000	100.270392
2153.000000	100.246097
2152.000000	100.231085
2151.000000	100.214188
2150.000000	100.192551
2149.000000	100.175549
2148.000000	100.170371
2147.000000	100.171144
2146.000000	100.167571
2145.000000	100.159091
2144.000000	100.151669
2143.000000	100.143937
2142.000000	100.129485
2141.000000	100.114001
2140.000000	100.115346
2139.000000	100.138471
2138.000000	100.162837
2137.000000	100.167226
2136.000000	100.159291
2135.000000	100.165373
2134.000000	100.192704
2133.000000	100.218249
2132.000000	100.216825
2131.000000	100.187314
2130.000000	100.146522
2129.000000	100.108697
2128.000000	100.078314
2127.000000	100.057031
2126.000000	100.048738
2125.000000	100.054767
2124.000000	100.067569
2123.000000	100.074958
2122.000000	100.072650
2121.000000	100.069248
2120.000000	100.073731
2119.000000	100.080136
2118.000000	100.072662
2117.000000	100.046855
2116.000000	100.017370
2115.000000	99.999648
2114.000000	99.992872
2113.000000	99.987820
2112.000000	99.983066
2111.000000	99.982293
2110.000000	99.981578
2109.000000	99.973871
2108.000000	99.964230
2107.000000	99.965908
2106.000000	99.978672
2105.000000	99.984306
2104.000000	99.968820
2103.000000	99.938719
2102.000000	99.910535
2101.000000	99.893819
2100.000000	99.890704
2099.000000	99.903011
2098.000000	99.930664
2097.000000	99.966961
2096.000000	100.001868
2095.000000	100.027631
2094.000000	100.038343
2093.000000	100.030552
2092.000000	100.009670
2091.000000	99.990246
2090.000000	99.983862
2089.000000	99.988781
2088.000000	99.993866
2087.000000	99.989777
2086.000000	99.973878
2085.000000	99.949618
2084.000000	99.924970
2083.000000	99.907368
2082.000000	99.896828
2081.000000	99.887937
2080.000000	99.880940
2079.000000	99.885132
2078.000000	99.906372
2077.000000	99.936299
2076.000000	99.960309
2075.000000	99.972683
2074.000000	99.977657
2073.000000	99.978078
2072.000000	99.969765
2071.000000	99.947067
2070.000000	99.911741
2069.000000	99.878373
2068.000000	99.870706
2067.000000	99.904365
2066.000000	99.967292
2065.000000	100.021650
2064.000000	100.035528
2063.000000	100.013443
2062.000000	99.988068
2061.000000	99.985353
2060.000000	100.002063
2059.000000	100.014629
2058.000000	100.006203
2057.000000	99.984150
2056.000000	99.971255
2055.000000	99.978176
2054.000000	99.988441
2053.000000	99.978088
2052.000000	99.946335
2051.000000	99.914079
2050.000000	99.892859
2049.000000	99.871512
2048.000000	99.843140
2047.000000	99.829042
2046.000000	99.853966
2045.000000	99.907707
2044.000000	99.954227
2043.000000	99.975176
2042.000000	99.984170
2041.000000	100.000070
2040.000000	100.023914
2039.000000	100.044592
2038.000000	100.052220
2037.000000	100.042650
2036.000000	100.021746
2035.000000	100.006843
2034.000000	100.012484
2033.000000	100.034353
2032.000000	100.057065
2031.000000	100.075091
2030.000000	100.091713
2029.000000	100.101498
2028.000000	100.093845
2027.000000	100.076166
2026.000000	100.075744
2025.000000	100.110445
2024.000000	100.166494
2023.000000	100.211920
2022.000000	100.225163
2021.000000	100.206553
2020.000000	100.170534
2019.000000	100.132580
2018.000000	100.102908
2017.000000	100.088737
2016.000000	100.096068
2015.000000	100.123710
2014.000000	100.155164
2013.000000	100.163511
2012.000000	100.133412
2011.000000	100.078643
2010.000000	100.032636
2009.000000	100.022462
2008.000000	100.050421
2007.000000	100.094766
2006.000000	100.125369
2005.000000	100.123993
2004.000000	100.099686
2003.000000	100.082596
2002.000000	100.096296
2001.000000	100.133956
2000.000000	100.162915
1999.000000	100.155219
1998.000000	100.111911
1997.000000	100.059311
1996.000000	100.024923
1995.000000	100.018608
1994.000000	100.035400
1993.000000	100.067455
1992.000000	100.105074
1991.000000	100.129663
1990.000000	100.119579
1989.000000	100.073439
1988.000000	100.022874
1987.000000	100.007556
1986.000000	100.032205
1985.000000	100.057662
1984.000000	100.042117
1983.000000	99.985959
1982.000000	99.928894
1981.000000	99.909820
1980.000000	99.936500
1979.000000	99.988128
1978.000000	100.036145
1977.000000	100.062750
1976.000000	100.070738
1975.000000	100.078675
1974.000000	100.100732
1973.000000	100.129380
1972.000000	100.140953
1971.000000	100.121676
1970.000000	100.085573
1969.000000	100.064576
1968.000000	100.079735
1967.000000	100.121077
1966.000000	100.158026
1965.000000	100.168196
1964.000000	100.152081
1963.000000	100.124061
1962.000000	100.100185
1961.000000	100.094942
1960.000000	100.117849
1959.000000	100.164174
1958.000000	100.211132
1957.000000	100.230696
1956.000000	100.211169
1955.000000	100.166398
1954.000000	100.124042
1953.000000	100.104150
1952.000000	100.106190
1951.000000	100.115469
1950.000000	100.121744
1949.000000	100.127868
1948.000000	100.138259
1947.000000	100.144687
1946.000000	100.132668
1945.000000	100.102525
1944.000000	100.075353
1943.000000	100.073464
1942.000000	100.098314
1941.000000	100.132490
1940.000000	100.157994
1939.000000	100.163583
1938.000000	100.144055
1937.000000	100.105568
1936.000000	100.066638
1935.000000	100.043721
1934.000000	100.038435
1933.000000	100.043561
1932.000000	100.056184
1931.000000	100.077333
1930.000000	100.102445
1929.000000	100.120824
1928.000000	100.125693
1927.000000	100.118963
1926.000000	100.106125
1925.000000	100.093431
1924.000000	100.087329
1923.000000	100.089589
1922.000000	100.092565
1921.000000	100.087724
1920.000000	100.076966
1919.000000	100.069097
1918.000000	100.066138
1917.000000	100.060289
1916.000000	100.049029
1915.000000	100.041281
1914.000000	100.044671
1913.000000	100.055195
1912.000000	100.061082
1911.000000	100.056457
1910.000000	100.049588
1909.000000	100.056027
1908.000000	100.082483
1907.000000	100.118370
1906.000000	100.144493
1905.000000	100.149348
1904.000000	100.135010
1903.000000	100.109088
1902.000000	100.076508
1901.000000	100.043573
1900.000000	100.022574
1899.000000	100.022702
1898.000000	100.038901
1897.000000	100.056586
1896.000000	100.065924
1895.000000	100.067392
1894.000000	100.064686
1893.000000	100.059703
1892.000000	100.054926
1891.000000	100.053897
1890.000000	100.057017
1889.000000	100.060755
1888.000000	100.063644
1887.000000	100.066560
1886.000000	100.067927
1885.000000	100.066810
1884.000000	100.067500
1883.000000	100.073659
1882.000000	100.080167
1881.000000	100.078543
1880.000000	100.069836
1879.000000	100.063318
1878.000000	100.062089
1877.000000	100.059147
1876.000000	100.049514
1875.000000	100.038385
1874.000000	100.034230
1873.000000	100.039410
1872.000000	100.050755
1871.000000	100.064527
1870.000000	100.075787
1869.000000	100.076339
1868.000000	100.063708
1867.000000	100.048615
1866.000000	100.041211
1865.000000	100.042453
1864.000000	100.050669
1863.000000	100.064261
1862.000000	100.077436
1861.000000	100.080998
1860.000000	100.072031
1859.000000	100.058293
1858.000000	100.049449
1857.000000	100.047909
1856.000000	100.050111
1855.000000	100.052471
1854.000000	100.054286
1853.000000	100.057621
1852.000000	100.065108
1851.000000	100.076019
1850.000000	100.083752
1849.000000	100.082185
1848.000000	100.072873
1847.000000	100.062164
1846.000000	100.052542
1845.000000	100.042486
1844.000000	100.033435
1843.000000	100.031431
1842.000000	100.038254
1841.000000	100.047444
1840.000000	100.053058
1839.000000	100.054614
1838.000000	100.053604
1837.000000	100.051515
1836.000000	100.051145
1835.000000	100.054982
1834.000000	100.060997
1833.000000	100.065078
1832.000000	100.067064
1831.000000	100.069778
1830.000000	100.070814
1829.000000	100.066052
1828.000000	100.061776
1827.000000	100.065103
1826.000000	100.071317
1825.000000	100.069688
1824.000000	100.059049
1823.000000	100.050291
1822.000000	100.048678
1821.000000	100.048528
1820.000000	100.045895
1819.000000	100.045614
1818.000000	100.052882
1817.000000	100.064437
1816.000000	100.072592
1815.000000	100.073959
1814.000000	100.068332
1813.000000	100.055246
1812.000000	100.037683
1811.000000	100.023405
1810.000000	100.017289
1809.000000	100.015408
1808.000000	100.012667
1807.000000	100.010256
1806.000000	100.010718
1805.000000	100.012340
1804.000000	100.012991
1803.000000	100.014759
1802.000000	100.019490
1801.000000	100.022341
1800.000000	100.018982
1799.000000	100.014354
1798.000000	100.015230
1797.000000	100.020017
1796.000000	100.023169
1795.000000	100.023814
1794.000000	100.026022
1793.000000	100.031578
1792.000000	100.034793
1791.000000	100.030968
1790.000000	100.024749
1789.000000	100.020511
1788.000000	100.018961
1787.000000	100.019735
1786.000000	100.020518
1785.000000	100.017866
1784.000000	100.013366
1783.000000	100.012778
1782.000000	100.015892
1781.000000	100.014582
1780.000000	100.005829
1779.000000	99.997343
1778.000000	99.997027
1777.000000	100.003130
1776.000000	100.009581
1775.000000	100.013107
1774.000000	100.012835
1773.000000	100.007991
1772.000000	99.997817
1771.000000	99.988023
1770.000000	99.985921
1769.000000	99.987293
1768.000000	99.985000
1767.000000	99.981295
1766.000000	99.982890
1765.000000	99.989229
1764.000000	99.994826
1763.000000	99.997591
1762.000000	99.999828
1761.000000	100.004237
1760.000000	100.013606
1759.000000	100.027350
1758.000000	100.040656
1757.000000	100.048065
1756.000000	100.050714
1755.000000	100.057022
1754.000000	100.071582
1753.000000	100.091522
1752.000000	100.114279
1751.000000	100.139865
1750.000000	100.166240
1749.000000	100.188856
1748.000000	100.203031
1747.000000	100.210419
1746.000000	100.217414
1745.000000	100.226778
1744.000000	100.235338
1743.000000	100.239233
1742.000000	100.239673
1741.000000	100.239705
1740.000000	100.237958
1739.000000	100.230483
1738.000000	100.218573
1737.000000	100.203679
1736.000000	100.184496
1735.000000	100.165697
1734.000000	100.152352
1733.000000	100.142135
1732.000000	100.140171
1731.000000	100.143933
1730.000000	100.142974
1729.000000	100.131652
1728.000000	100.113716
1727.000000	100.096720
1726.000000	100.083936
1725.000000	100.074291
1724.000000	100.067065
1723.000000	100.062843
1722.000000	100.061664
1721.000000	100.060635
1720.000000	100.059423
1719.000000	100.066835
1718.000000	100.089950
1717.000000	100.111373
1716.000000	100.115905
1715.000000	100.114282
1714.000000	100.111974
1713.000000	100.103912
1712.000000	100.088363
1711.000000	100.070082
1710.000000	100.053042
1709.000000	100.034936
1708.000000	100.010807
1707.000000	99.977405
1706.000000	99.930016
1705.000000	99.866839
1704.000000	99.800022
1703.000000	99.738417
1702.000000	99.671122
1701.000000	99.586900
1700.000000	99.505900
1699.000000	99.469270
1698.000000	99.470560
1697.000000	99.455332
1696.000000	99.387614
1695.000000	99.297274
1694.000000	99.236958
1693.000000	99.205543
1692.000000	99.177456
1691.000000	99.143007
1690.000000	99.105910
1689.000000	99.067854
1688.000000	99.027682
1687.000000	98.987218
1686.000000	98.946584
1685.000000	98.899024
1684.000000	98.825946
1683.000000	98.742787
1682.000000	98.690592
1681.000000	98.655519
1680.000000	98.610794
1679.000000	98.553408
1678.000000	98.492601
1677.000000	98.430455
1676.000000	98.363871
1675.000000	98.296565
1674.000000	98.240320
1673.000000	98.198981
1672.000000	98.163045
1671.000000	98.121591
1670.000000	98.065395
1669.000000	97.989664
1668.000000	97.910877
1667.000000	97.848970
1666.000000	97.802384
1665.000000	97.757737
1664.000000	97.706069
1663.000000	97.647715
1662.000000	97.588146
1661.000000	97.532224
1660.000000	97.480913
1659.000000	97.431501
1658.000000	97.382112
1657.000000	97.332423
1656.000000	97.282372
1655.000000	97.232615
1654.000000	97.181850
1653.000000	97.109043
1652.000000	97.035072
1651.000000	97.013368
1650.000000	97.017258
1649.000000	97.014552
1648.000000	96.995545
1647.000000	96.961107
1646.000000	96.917075
1645.000000	96.881189
1644.000000	96.860535
1643.000000	96.847691
1642.000000	96.834409
1641.000000	96.814609
1640.000000	96.789003
1639.000000	96.764556
1638.000000	96.745344
1637.000000	96.725444
1636.000000	96.689297
1635.000000	96.636567
1634.000000	96.599472
1633.000000	96.589072
1632.000000	96.586777
1631.000000	96.580261
1630.000000	96.570602
1629.000000	96.563347
1628.000000	96.560768
1627.000000	96.562368
1626.000000	96.569077
1625.000000	96.584403
1624.000000	96.613923
1623.000000	96.657881
1622.000000	96.706545
1621.000000	96.751668
1620.000000	96.792192
1619.000000	96.832537
1618.000000	96.883335
1617.000000	96.951227
1616.000000	97.023198
1615.000000	97.085942
1614.000000	97.142766
1613.000000	97.200808
1612.000000	97.264672
1611.000000	97.334659
1610.000000	97.405611
1609.000000	97.472360
1608.000000	97.533835
1607.000000	97.589473
1606.000000	97.638759
1605.000000	97.685057
1604.000000	97.733830
1603.000000	97.784920
1602.000000	97.833114
1601.000000	97.876574
1600.000000	97.917147
1599.000000	97.953806
1598.000000	97.983851
1597.000000	98.009867
1596.000000	98.038085
1595.000000	98.069156
1594.000000	98.097349
1593.000000	98.119487
1592.000000	98.137078
1591.000000	98.149319
1590.000000	98.152671
1589.000000	98.148581
1588.000000	98.143545
1587.000000	98.139989
1586.000000	98.134894
1585.000000	98.127880
1584.000000	98.123124
1583.000000	98.121418
1582.000000	98.116546
1581.000000	98.104939
1580.000000	98.089927
1579.000000	98.073528
1578.000000	98.051646
1577.000000	98.019417
1576.000000	97.976258
1575.000000	97.930821
1574.000000	97.895947
1573.000000	97.870256
1572.000000	97.843746
1571.000000	97.808950
1570.000000	97.762271
1569.000000	97.708521
1568.000000	97.664068
1567.000000	97.632935
1566.000000	97.602393
1565.000000	97.565347
1564.000000	97.525851
1563.000000	97.487871
1562.000000	97.446184
1561.000000	97.398773
1560.000000	97.366091
1559.000000	97.341360
1558.000000	97.265294
1557.000000	97.206525
1556.000000	97.188753
1555.000000	97.177543
1554.000000	97.154100
1553.000000	97.122022
1552.000000	97.092104
1551.000000	97.067377
1550.000000	97.044150
1549.000000	97.020576
1548.000000	96.999984
1547.000000	96.985763
1546.000000	96.977687
1545.000000	96.972686
1544.000000	96.964117
1543.000000	96.949897
1542.000000	96.939518
1541.000000	96.942602
1540.000000	96.944360
1539.000000	96.929654
1538.000000	96.921647
1537.000000	96.925628
1536.000000	96.928205
1535.000000	96.926180
1534.000000	96.925633
1533.000000	96.926390
1532.000000	96.927408
1531.000000	96.934195
1530.000000	96.945896
1529.000000	96.959467
1528.000000	96.975476
1527.000000	96.995297
1526.000000	97.015786
1525.000000	97.030419
1524.000000	97.039112
1523.000000	97.052293
1522.000000	97.080559
1521.000000	97.113172
1520.000000	97.135806
1519.000000	97.157899
1518.000000	97.188418
1517.000000	97.222679
1516.000000	97.248414
1515.000000	97.266644
1514.000000	97.288571
1513.000000	97.317387
1512.000000	97.349307
1511.000000	97.380565
1510.000000	97.412929
1509.000000	97.454118
1508.000000	97.514293
1507.000000	97.579449
1506.000000	97.614431
1505.000000	97.644355
1504.000000	97.690711
1503.000000	97.741348
1502.000000	97.788665
1501.000000	97.832563
1500.000000	97.874220
1499.000000	97.915697
1498.000000	97.961413
1497.000000	98.010875
1496.000000	98.057231
1495.000000	98.101365
1494.000000	98.149539
1493.000000	98.200540
1492.000000	98.252580
1491.000000	98.310133
1490.000000	98.372621
1489.000000	98.423263
1488.000000	98.452732
1487.000000	98.470474
1486.000000	98.485829
1485.000000	98.499758
1484.000000	98.512557
1483.000000	98.528707
1482.000000	98.550782
1481.000000	98.572354
1480.000000	98.583783
1479.000000	98.585049
1478.000000	98.582460
1477.000000	98.578711
1476.000000	98.570755
1475.000000	98.559401
1474.000000	98.551821
1473.000000	98.548307
1472.000000	98.539570
1471.000000	98.529126
1470.000000	98.526568
1469.000000	98.526476
1468.000000	98.520228
1467.000000	98.507951
1466.000000	98.494902
1465.000000	98.480097
1464.000000	98.459518
1463.000000	98.438387
1462.000000	98.421284
1461.000000	98.402912
1460.000000	98.376671
1459.000000	98.343974
1458.000000	98.312228
1457.000000	98.279835
1456.000000	98.243797
1455.000000	98.217772
1454.000000	98.200128
1453.000000	98.181741
1452.000000	98.163579
1451.000000	98.152890
1450.000000	98.153262
1449.000000	98.160805
1448.000000	98.168201
1447.000000	98.172657
1446.000000	98.178479
1445.000000	98.187906
1444.000000	98.198373
1443.000000	98.206877
1442.000000	98.214421
1441.000000	98.223209
1440.000000	98.231326
1439.000000	98.234947
1438.000000	98.237768
1437.000000	98.251878
1436.000000	98.281039
1435.000000	98.318224
1434.000000	98.357060
1433.000000	98.391844
1432.000000	98.418882
1431.000000	98.436884
1430.000000	98.445594
1429.000000	98.446113
1428.000000	98.441841
1427.000000	98.438670
1426.000000	98.442036
1425.000000	98.453324
1424.000000	98.466096
1423.000000	98.469140
1422.000000	98.459439
1421.000000	98.442515
1420.000000	98.428482
1419.000000	98.426014
1418.000000	98.434943
1417.000000	98.450136
1416.000000	98.461927
1415.000000	98.463046
1414.000000	98.455341
1413.000000	98.444523
1412.000000	98.431460
1411.000000	98.412903
1410.000000	98.389303
1409.000000	98.365358
1408.000000	98.344056
1407.000000	98.326591
1406.000000	98.314623
1405.000000	98.307605
1404.000000	98.301400
1403.000000	98.293534
1402.000000	98.286693
1401.000000	98.285061
1400.000000	98.290261
1399.000000	98.297729
1398.000000	98.302154
1397.000000	98.305188
1396.000000	98.309839
1395.000000	98.314277
1394.000000	98.315528
1393.000000	98.316270
1392.000000	98.319408
1391.000000	98.323369
1390.000000	98.326885
1389.000000	98.332364
1388.000000	98.343107
1387.000000	98.357716
1386.000000	98.371710
1385.000000	98.383465
1384.000000	98.393772
1383.000000	98.404744
1382.000000	98.419834
1381.000000	98.441045
1380.000000	98.465885
1379.000000	98.488380
1378.000000	98.504004
1377.000000	98.514257
1376.000000	98.524674
1375.000000	98.537895
1374.000000	98.550273
1373.000000	98.559172
1372.000000	98.569013
1371.000000	98.584383
1370.000000	98.604790
1369.000000	98.627224
1368.000000	98.649209
1367.000000	98.670177
1366.000000	98.691388
1365.000000	98.714266
1364.000000	98.738863
1363.000000	98.761637
1362.000000	98.777512
1361.000000	98.787628
1360.000000	98.797552
1359.000000	98.809326
1358.000000	98.820845
1357.000000	98.829253
1356.000000	98.832413
1355.000000	98.829039
1354.000000	98.819811
1353.000000	98.807944
1352.000000	98.797067
1351.000000	98.788107
1350.000000	98.778675
1349.000000	98.766254
1348.000000	98.751052
1347.000000	98.734882
1346.000000	98.719070
1345.000000	98.704138
1344.000000	98.690726
1343.000000	98.680097
1342.000000	98.673793
1341.000000	98.671982
1340.000000	98.670762
1339.000000	98.663392
1338.000000	98.648569
1337.000000	98.633481
1336.000000	98.625695
1335.000000	98.626469
1334.000000	98.632224
1333.000000	98.640305
1332.000000	98.651448
1331.000000	98.666677
1330.000000	98.684292
1329.000000	98.701542
1328.000000	98.717481
1327.000000	98.732080
1326.000000	98.743933
1325.000000	98.751037
1324.000000	98.753112
1323.000000	98.752190
1322.000000	98.751315
1321.000000	98.752553
1320.000000	98.755405
1319.000000	98.757153
1318.000000	98.756171
1317.000000	98.754706
1316.000000	98.756885
1315.000000	98.764466
1314.000000	98.775622
1313.000000	98.787622
1312.000000	98.799546
1311.000000	98.812295
1310.000000	98.827031
1309.000000	98.843813
1308.000000	98.860688
1307.000000	98.873907
1306.000000	98.880384
1305.000000	98.880812
1304.000000	98.879318
1303.000000	98.879923
1302.000000	98.884093
1301.000000	98.891111
1300.000000	98.899342
1299.000000	98.907021
1298.000000	98.913229
1297.000000	98.918447
1296.000000	98.922954
1295.000000	98.924506
1294.000000	98.919654
1293.000000	98.908033
1292.000000	98.893690
1291.000000	98.881280
1290.000000	98.871954
1289.000000	98.864112
1288.000000	98.856535
1287.000000	98.848791
1286.000000	98.839642
1285.000000	98.827699
1284.000000	98.814042
1283.000000	98.802362
1282.000000	98.795648
1281.000000	98.793564
1280.000000	98.793975
1279.000000	98.795951
1278.000000	98.800441
1277.000000	98.808353
1276.000000	98.818332
1275.000000	98.826652
1274.000000	98.829786
1273.000000	98.827727
1272.000000	98.824405
1271.000000	98.823879
1270.000000	98.826186
1269.000000	98.827986
1268.000000	98.826974
1267.000000	98.824141
1266.000000	98.821561
1265.000000	98.819276
1264.000000	98.815478
1263.000000	98.809008
1262.000000	98.800326
1261.000000	98.790155
1260.000000	98.778215
1259.000000	98.763640
1258.000000	98.746285
1257.000000	98.727345
1256.000000	98.708947
1255.000000	98.692619
1254.000000	98.677341
1253.000000	98.659544
1252.000000	98.636376
1251.000000	98.609357
1250.000000	98.583667
1249.000000	98.562935
1248.000000	98.545245
1247.000000	98.525118
1246.000000	98.499438
1245.000000	98.470643
1244.000000	98.444214
1243.000000	98.423906
1242.000000	98.409826
1241.000000	98.400039
1240.000000	98.392581
1239.000000	98.385984
1238.000000	98.379271
1237.000000	98.372785
1236.000000	98.368360
1235.000000	98.368067
1234.000000	98.373098
1233.000000	98.383623
1232.000000	98.398857
1231.000000	98.416726
1230.000000	98.435048
1229.000000	98.454511
1228.000000	98.478896
1227.000000	98.510975
1226.000000	98.548699
1225.000000	98.586979
1224.000000	98.622918
1223.000000	98.657550
1222.000000	98.692681
1221.000000	98.727581
1220.000000	98.759306
1219.000000	98.785695
1218.000000	98.807966
1217.000000	98.830242
1216.000000	98.855818
1215.000000	98.883383
1214.000000	98.907104
1213.000000	98.921498
1212.000000	98.925932
1211.000000	98.924158
1210.000000	98.920152
1209.000000	98.914966
1208.000000	98.907806
1207.000000	98.898754
1206.000000	98.889610
1205.000000	98.882635
1204.000000	98.879431
1203.000000	98.881036
1202.000000	98.888222
1201.000000	98.901236
1200.000000	98.919240
1199.000000	98.940731
1198.000000	98.964557
1197.000000	98.990300
1196.000000	99.017592
1195.000000	99.045481
1194.000000	99.073499
1193.000000	99.102710
1192.000000	99.134473
1191.000000	99.168109
1190.000000	99.200967
1189.000000	99.231026
1188.000000	99.258196
1187.000000	99.282719
1186.000000	99.303545
1185.000000	99.319512
1184.000000	99.331269
1183.000000	99.341137
1182.000000	99.351211
1181.000000	99.361815
1180.000000	99.371888
1179.000000	99.380235
1178.000000	99.386397
1177.000000	99.390676
1176.000000	99.393644
1175.000000	99.395950
1174.000000	99.398525
1173.000000	99.402459
1172.000000	99.408111
1171.000000	99.413997
1170.000000	99.416991
1169.000000	99.413829
1168.000000	99.402849
1167.000000	99.385304
1166.000000	99.365843
1165.000000	99.351092
1164.000000	99.345913
1163.000000	99.349805
1162.000000	99.357400
1161.000000	99.363508
1160.000000	99.367346
1159.000000	99.371199
1158.000000	99.376120
1157.000000	99.380661
1156.000000	99.384061
1155.000000	99.388576
1154.000000	99.397329
1153.000000	99.410826
1152.000000	99.426867
1151.000000	99.443523
1150.000000	99.460688
1149.000000	99.478553
1148.000000	99.496010
1147.000000	99.511447
1146.000000	99.524441
1145.000000	99.535600
1144.000000	99.545224
1143.000000	99.553097
1142.000000	99.559494
1141.000000	99.565067
1140.000000	99.569665
1139.000000	99.572659
1138.000000	99.574673
1137.000000	99.577606
1136.000000	99.581837
1135.000000	99.584492
1134.000000	99.582180
1133.000000	99.575151
1132.000000	99.567568
1131.000000	99.563571
1130.000000	99.563924
1129.000000	99.566402
1128.000000	99.568452
1127.000000	99.569268
1126.000000	99.570154
1125.000000	99.573169
1124.000000	99.578546
1123.000000	99.583150
1122.000000	99.582730
1121.000000	99.576814
1120.000000	99.570651
1119.000000	99.570871
1118.000000	99.579012
1117.000000	99.590006
1116.000000	99.597097
1115.000000	99.597313
1114.000000	99.592247
1113.000000	99.584711
1112.000000	99.576142
1111.000000	99.567377
1110.000000	99.560430
1109.000000	99.557924
1108.000000	99.559802
1107.000000	99.561395
1106.000000	99.556381
1105.000000	99.543021
1104.000000	99.527271
1103.000000	99.518399
1102.000000	99.520341
1101.000000	99.527778
1100.000000	99.531033
1099.000000	99.525505
1098.000000	99.514766
1097.000000	99.505516
1096.000000	99.500592
1095.000000	99.497248
1094.000000	99.490649
1093.000000	99.477612
1092.000000	99.457699
1091.000000	99.432924
1090.000000	99.406657
1089.000000	99.381259
1088.000000	99.355947
1087.000000	99.327996
1086.000000	99.296935
1085.000000	99.266654
1084.000000	99.242326
1083.000000	99.225746
1082.000000	99.215075
1081.000000	99.208525
1080.000000	99.206665
1079.000000	99.210384
1078.000000	99.218529
1077.000000	99.229307
1076.000000	99.242516
1075.000000	99.259023
1074.000000	99.278157
1073.000000	99.296890
1072.000000	99.311561
1071.000000	99.319997
1070.000000	99.322500
1069.000000	99.321150
1068.000000	99.317837
1067.000000	99.313086
1066.000000	99.307653
1065.000000	99.304578
1064.000000	99.307569
1063.000000	99.316674
1062.000000	99.327560
1061.000000	99.336231
1060.000000	99.342512
1059.000000	99.347333
1058.000000	99.349148
1057.000000	99.345814
1056.000000	99.338659
1055.000000	99.331491
1054.000000	99.325708
1053.000000	99.319179
1052.000000	99.309713
1051.000000	99.297235
1050.000000	99.282529
1049.000000	99.267175
1048.000000	99.255120
1047.000000	99.250967
1046.000000	99.255002
1045.000000	99.262572
1044.000000	99.269679
1043.000000	99.276532
1042.000000	99.284398
1041.000000	99.291423
1040.000000	99.294368
1039.000000	99.293007
1038.000000	99.290119
1037.000000	99.287327
1036.000000	99.283104
1035.000000	99.275520
1034.000000	99.265758
1033.000000	99.258233
1032.000000	99.257463
1031.000000	99.264597
1030.000000	99.276520
1029.000000	99.288720
1028.000000	99.299299
1027.000000	99.310198
1026.000000	99.324919
1025.000000	99.345577
1024.000000	99.371604
1023.000000	99.399545
1022.000000	99.424311
1021.000000	99.442617
1020.000000	99.455971
1019.000000	99.469168
1018.000000	99.485123
1017.000000	99.502182
1016.000000	99.516889
1015.000000	99.528054
1014.000000	99.537447
1013.000000	99.547886
1012.000000	99.561541
1011.000000	99.579072
1010.000000	99.599276
1009.000000	99.620103
1008.000000	99.640401
1007.000000	99.660088
1006.000000	99.679032
1005.000000	99.697256
1004.000000	99.716284
1003.000000	99.738097
1002.000000	99.762065
1001.000000	99.784964
1000.000000	99.804919
999.000000	99.823240
998.000000	99.841209
997.000000	99.857761
996.000000	99.872406
995.000000	99.887831
994.000000	99.906310
993.000000	99.925273
992.000000	99.940423
991.000000	99.952029
990.000000	99.964080
989.000000	99.977202
988.000000	99.986988
987.000000	99.990545
986.000000	99.990719
985.000000	99.992190
984.000000	99.996364
983.000000	100.001796
982.000000	100.006294
981.000000	100.006654
980.000000	100.000160
979.000000	99.989516
978.000000	99.983073
977.000000	99.986048
976.000000	99.993211
975.000000	99.994330
974.000000	99.986308
973.000000	99.976104
972.000000	99.972057
971.000000	99.975820
970.000000	99.982978
969.000000	99.988577
968.000000	99.991287
967.000000	99.994539
966.000000	100.004285
965.000000	100.023164
964.000000	100.046266
963.000000	100.064408
962.000000	100.072135
961.000000	100.071111
960.000000	100.066076
959.000000	100.060747
958.000000	100.058367
957.000000	100.062428
956.000000	100.073866
955.000000	100.089083
954.000000	100.102983
953.000000	100.112896
952.000000	100.118140
951.000000	100.117499
950.000000	100.110243
949.000000	100.099367
948.000000	100.090879
947.000000	100.088463
946.000000	100.089786
945.000000	100.089314
944.000000	100.084456
943.000000	100.077950
942.000000	100.073812
941.000000	100.071753
940.000000	100.067562
939.000000	100.059510
938.000000	100.052831
937.000000	100.055489
936.000000	100.069777
935.000000	100.090253
934.000000	100.109815
933.000000	100.125919
932.000000	100.139842
931.000000	100.151938
930.000000	100.159896
929.000000	100.161226
928.000000	100.156547
927.000000	100.150631
926.000000	100.149823
925.000000	100.156553
924.000000	100.165955
923.000000	100.169944
922.000000	100.166074
921.000000	100.160191
920.000000	100.159219
919.000000	100.163599
918.000000	100.169225
917.000000	100.174672
916.000000	100.182491
915.000000	100.194166
914.000000	100.207395
913.000000	100.219129
912.000000	100.228410
911.000000	100.235123
910.000000	100.238446
909.000000	100.237935
908.000000	100.234513
907.000000	100.229078
906.000000	100.221669
905.000000	100.213124
904.000000	100.206377
903.000000	100.204438
902.000000	100.207613
901.000000	100.213625
900.000000	100.219761
899.000000	100.224247
898.000000	100.226337
897.000000	100.226624
896.000000	100.226903
895.000000	100.228633
894.000000	100.231222
893.000000	100.232486
892.000000	100.231204
891.000000	100.229074
890.000000	100.229468
889.000000	100.233166
888.000000	100.235469
887.000000	100.229295
886.000000	100.213023
885.000000	100.194380
884.000000	100.183755
883.000000	100.183824
882.000000	100.188143
881.000000	100.190104
880.000000	100.189843
879.000000	100.190384
878.000000	100.191105
877.000000	100.189211
876.000000	100.185422
875.000000	100.183382
874.000000	100.183420
873.000000	100.181624
872.000000	100.176078
871.000000	100.170312
870.000000	100.168807
869.000000	100.172018
868.000000	100.177464
867.000000	100.183213
866.000000	100.188725
865.000000	100.194627
864.000000	100.203303
863.000000	100.216832
862.000000	100.231927
861.000000	100.239805
860.000000	100.235188
859.000000	100.223833
858.000000	100.216996
857.000000	100.218474
856.000000	100.221042
855.000000	100.216440
854.000000	100.204729
853.000000	100.192506
852.000000	100.185470
851.000000	100.185284
850.000000	100.190776
849.000000	100.198525
848.000000	100.203517
847.000000	100.202680
846.000000	100.198128
845.000000	100.194773
844.000000	100.194813
843.000000	100.196202
842.000000	100.196416
841.000000	100.195489
840.000000	100.194621
839.000000	100.193729
838.000000	100.191931
837.000000	100.190010
836.000000	100.191455
835.000000	100.200423
834.000000	100.217719
833.000000	100.237785
832.000000	100.250811
831.000000	100.250290
830.000000	100.239406
829.000000	100.228576
828.000000	100.225352
827.000000	100.227953
826.000000	100.229571
825.000000	100.227004
824.000000	100.222770
823.000000	100.220252
822.000000	100.220286
821.000000	100.222660
820.000000	100.227325
819.000000	100.232760
818.000000	100.235705
817.000000	100.234767
816.000000	100.232667
815.000000	100.232369
814.000000	100.231568
813.000000	100.223954
812.000000	100.206815
811.000000	100.185663
810.000000	100.170257
809.000000	100.166739
808.000000	100.174374
807.000000	100.188457
806.000000	100.204412
805.000000	100.219225
804.000000	100.230597
803.000000	100.236432
802.000000	100.236090
801.000000	100.232090
800.000000	100.229228
799.000000	100.230287
798.000000	100.232396
797.000000	100.229011
796.000000	100.216161
795.000000	100.196626
794.000000	100.178002
793.000000	100.167353
792.000000	100.167257
791.000000	100.175115
790.000000	100.185498
789.000000	100.194398
788.000000	100.201674
787.000000	100.208585
786.000000	100.213616
785.000000	100.213449
784.000000	100.208752
783.000000	100.205500
782.000000	100.207817
781.000000	100.211503
780.000000	100.207975
779.000000	100.193698
778.000000	100.172715
777.000000	100.151099
776.000000	100.133363
775.000000	100.124237
774.000000	100.128130
773.000000	100.143253
772.000000	100.159596
771.000000	100.167450
770.000000	100.167617
769.000000	100.169926
768.000000	100.181695
767.000000	100.199897
766.000000	100.214792
765.000000	100.219181
764.000000	100.213630
763.000000	100.204502
762.000000	100.198094
761.000000	100.195967
760.000000	100.195403
759.000000	100.194160
758.000000	100.193278
757.000000	100.193875
756.000000	100.193101
755.000000	100.186906
754.000000	100.176743
753.000000	100.169567
752.000000	100.169346
751.000000	100.171846
750.000000	100.170511
749.000000	100.165218
748.000000	100.161467
747.000000	100.162011
746.000000	100.163457
745.000000	100.161733
744.000000	100.157443
743.000000	100.153839
742.000000	100.151626
741.000000	100.148054
740.000000	100.140707
739.000000	100.130595
738.000000	100.121448
737.000000	100.116868
736.000000	100.117768
735.000000	100.121740
734.000000	100.125013
733.000000	100.125745
732.000000	100.125931
731.000000	100.129940
730.000000	100.140209
729.000000	100.153154
728.000000	100.160257
727.000000	100.154906
726.000000	100.138676
725.000000	100.120836
724.000000	100.111000
723.000000	100.111927
722.000000	100.119026
721.000000	100.125766
720.000000	100.128778
719.000000	100.128359
718.000000	100.125557
717.000000	100.119131
716.000000	100.104774
715.000000	100.078635
714.000000	100.043564
713.000000	100.010746
712.000000	99.992039
711.000000	99.988848
710.000000	99.990090
709.000000	99.982732
708.000000	99.963865
707.000000	99.942377
706.000000	99.928933
705.000000	99.925971
704.000000	99.927179
703.000000	99.924136
702.000000	99.913290
701.000000	99.897637
700.000000	99.882620
699.000000	99.871732
698.000000	99.865333
697.000000	99.862753
696.000000	99.864391
695.000000	99.870545
694.000000	99.879803
693.000000	99.888515
692.000000	99.891687
691.000000	99.886920
690.000000	99.877229
689.000000	99.869019
688.000000	99.865781
687.000000	99.864944
686.000000	99.864751
685.000000	99.870292
684.000000	99.887154
683.000000	99.910436
682.000000	99.925178
681.000000	99.919730
680.000000	99.896660
679.000000	99.870382
678.000000	99.854399
677.000000	99.849812
676.000000	99.848381
675.000000	99.845003
674.000000	99.842768
673.000000	99.846280
672.000000	99.855872
671.000000	99.869912
670.000000	99.885356
669.000000	99.893647
668.000000	99.884127
667.000000	99.852605
666.000000	99.814902
665.000000	99.780021
664.000000	99.751974
663.000000	99.730823
662.000000	99.711427
661.000000	99.692324
660.000000	99.680261
659.000000	99.681567
658.000000	99.690136
657.000000	99.691171
656.000000	99.681339
655.000000	99.676157
654.000000	99.691130
653.000000	99.723702
652.000000	99.759206
651.000000	99.783532
650.000000	99.788332
649.000000	99.774120
648.000000	99.752572
647.000000	99.738180
646.000000	99.733910
645.000000	99.732308
644.000000	99.731059
643.000000	99.737673
642.000000	99.756932
641.000000	99.780445
640.000000	99.793940
639.000000	99.792824
638.000000	99.786810
637.000000	99.789878
636.000000	99.804552
635.000000	99.814444
634.000000	99.798862
633.000000	99.757546
632.000000	99.712973
631.000000	99.685085
630.000000	99.671622
629.000000	99.660622
628.000000	99.652622
627.000000	99.657293
626.000000	99.673418
625.000000	99.688848
624.000000	99.698920
623.000000	99.708382
622.000000	99.715933
621.000000	99.712111
620.000000	99.695523
619.000000	99.678616
618.000000	99.674689
617.000000	99.687518
616.000000	99.713362
615.000000	99.742389
614.000000	99.758529
613.000000	99.752456
612.000000	99.737176
611.000000	99.736837
610.000000	99.754886
609.000000	99.767147
608.000000	99.753593
607.000000	99.725325
606.000000	99.709568
605.000000	99.716305
604.000000	99.730601
603.000000	99.733357
602.000000	99.722669
601.000000	99.714823
600.000000	99.726026
599.000000	99.751049
598.000000	99.763139
597.000000	99.742024
596.000000	99.697447
595.000000	99.657033
594.000000	99.636930
593.000000	99.635494
592.000000	99.652149
591.000000	99.691566
590.000000	99.743804
589.000000	99.780480
588.000000	99.780956
587.000000	99.751417
586.000000	99.713542
585.000000	99.684428
584.000000	99.674343
583.000000	99.692215
582.000000	99.738547
581.000000	99.796172
580.000000	99.838828
579.000000	99.850343
578.000000	99.833190
577.000000	99.800871
576.000000	99.766520
575.000000	99.735405
574.000000	99.704387
573.000000	99.671651
572.000000	99.645017
571.000000	99.635851
570.000000	99.644921
569.000000	99.661956
568.000000	99.679436
567.000000	99.696928
566.000000	99.711910
565.000000	99.717849
564.000000	99.713155
563.000000	99.700891
562.000000	99.681304
561.000000	99.655848
560.000000	99.639670
559.000000	99.655105
558.000000	99.705164
557.000000	99.765525
556.000000	99.807748
555.000000	99.818993
554.000000	99.798393
553.000000	99.752671
552.000000	99.702325
551.000000	99.677507
550.000000	99.693067
549.000000	99.732301
548.000000	99.764868
547.000000	99.773302
546.000000	99.758600
545.000000	99.733083
544.000000	99.715083
543.000000	99.719202
542.000000	99.742740
541.000000	99.768784
540.000000	99.788442
539.000000	99.807861
538.000000	99.827947
537.000000	99.833432
536.000000	99.813366
535.000000	99.778983
534.000000	99.748296
533.000000	99.720221
532.000000	99.679942
531.000000	99.623904
530.000000	99.567112
529.000000	99.530032
528.000000	99.527497
527.000000	99.561987
526.000000	99.614008
525.000000	99.651288
524.000000	99.661204
523.000000	99.659878
522.000000	99.666818
521.000000	99.687395
520.000000	99.721236
519.000000	99.769372
518.000000	99.821971
517.000000	99.855534
516.000000	99.858725
515.000000	99.846497
514.000000	99.835941
513.000000	99.824383
512.000000	99.802794
511.000000	99.777025
510.000000	99.761973
509.000000	99.762627
508.000000	99.776142
507.000000	99.802184
506.000000	99.839733
505.000000	99.883809
504.000000	99.932623
503.000000	99.986730
502.000000	100.030973
501.000000	100.038940
500.000000	100.010834
499.000000	99.979494
498.000000	99.970256
497.000000	99.971339
496.000000	99.956771
495.000000	99.929542
494.000000	99.922611
493.000000	99.960012
492.000000	100.028625
491.000000	100.088080
490.000000	100.104239
489.000000	100.074526
488.000000	100.029737
487.000000	100.008234
486.000000	100.022204
485.000000	100.051667
484.000000	100.074324
483.000000	100.088623
482.000000	100.099610
481.000000	100.104494
480.000000	100.106122
479.000000	100.118095
478.000000	100.139952
477.000000	100.144510
476.000000	100.110980
475.000000	100.060502
474.000000	100.038798
473.000000	100.064573
472.000000	100.113226
471.000000	100.154696
470.000000	100.186756
469.000000	100.218723
468.000000	100.248909
467.000000	100.267448
466.000000	100.267432
465.000000	100.247149
464.000000	100.212325
463.000000	100.185347
462.000000	100.200450
461.000000	100.281270
460.000000	100.427906
459.000000	100.611120
458.000000	100.755075
457.000000	100.772829
456.000000	100.670440
455.000000	100.540497
454.000000	100.458953
453.000000	100.439716
452.000000	100.446581
451.000000	100.437818
450.000000	100.408516
