PE IR       SUBTECH     SPECTRUM    ASCII       PEDS        4.00        
   -1
CVT-Veau-C001_1.ASC
23/09/14
10:39:57.00
23/09/14
11:18:22.00
uco
Sample 001 By uco Date Thursday, September 14 2023
450.000000
#HDR
-1
-1
#GR
cm-1
%T
1.0
0.0
4000.000000
-1.000000
3551
8
99.565566
94.139902
#DATA
4000.000000	99.435011
3999.000000	99.436114
3998.000000	99.437940
3997.000000	99.439323
3996.000000	99.439930
3995.000000	99.440015
3994.000000	99.439870
3993.000000	99.439681
3992.000000	99.439505
3991.000000	99.439043
3990.000000	99.437520
3989.000000	99.434395
3988.000000	99.430432
3987.000000	99.427724
3986.000000	99.428064
3985.000000	99.430989
3984.000000	99.433756
3983.000000	99.433618
3982.000000	99.430069
3981.000000	99.424927
3980.000000	99.420562
3979.000000	99.418246
3978.000000	99.417857
3977.000000	99.418553
3976.000000	99.419475
3975.000000	99.419878
3974.000000	99.419153
3973.000000	99.417222
3972.000000	99.415034
3971.000000	99.414094
3970.000000	99.414950
3969.000000	99.416358
3968.000000	99.416283
3967.000000	99.414030
3966.000000	99.411281
3965.000000	99.410840
3964.000000	99.414090
3963.000000	99.419617
3962.000000	99.424352
3961.000000	99.426135
3960.000000	99.425595
3959.000000	99.425103
3958.000000	99.426220
3957.000000	99.428618
3956.000000	99.430703
3955.000000	99.430734
3954.000000	99.427547
3953.000000	99.421183
3952.000000	99.413600
3951.000000	99.408260
3950.000000	99.408036
3949.000000	99.412700
3948.000000	99.418708
3947.000000	99.422076
3946.000000	99.421393
3945.000000	99.418163
3944.000000	99.415004
3943.000000	99.413566
3942.000000	99.413708
3941.000000	99.413665
3940.000000	99.411505
3939.000000	99.406582
3938.000000	99.399747
3937.000000	99.393080
3936.000000	99.388812
3935.000000	99.388288
3934.000000	99.391411
3933.000000	99.396482
3932.000000	99.401185
3931.000000	99.403298
3930.000000	99.401384
3929.000000	99.395295
3928.000000	99.386455
3927.000000	99.378380
3926.000000	99.374712
3925.000000	99.376508
3924.000000	99.381829
3923.000000	99.387709
3922.000000	99.392172
3921.000000	99.394671
3920.000000	99.395413
3919.000000	99.394717
3918.000000	99.392385
3917.000000	99.388206
3916.000000	99.383365
3915.000000	99.379970
3914.000000	99.379118
3913.000000	99.379687
3912.000000	99.379983
3911.000000	99.379232
3910.000000	99.377836
3909.000000	99.376682
3908.000000	99.376600
3907.000000	99.378441
3906.000000	99.382768
3905.000000	99.388885
3904.000000	99.394622
3903.000000	99.397262
3902.000000	99.395035
3901.000000	99.388716
3900.000000	99.381187
3899.000000	99.376107
3898.000000	99.375288
3897.000000	99.376880
3896.000000	99.377727
3895.000000	99.376273
3894.000000	99.373569
3893.000000	99.372264
3892.000000	99.374169
3891.000000	99.377970
3890.000000	99.380667
3889.000000	99.381312
3888.000000	99.382352
3887.000000	99.386661
3886.000000	99.393835
3885.000000	99.400627
3884.000000	99.404677
3883.000000	99.406730
3882.000000	99.408873
3881.000000	99.412247
3880.000000	99.415916
3879.000000	99.417318
3878.000000	99.414685
3877.000000	99.409042
3876.000000	99.402980
3875.000000	99.398053
3874.000000	99.393899
3873.000000	99.389962
3872.000000	99.386958
3871.000000	99.385164
3870.000000	99.382963
3869.000000	99.379479
3868.000000	99.377108
3867.000000	99.379320
3866.000000	99.386070
3865.000000	99.392938
3864.000000	99.395850
3863.000000	99.394707
3862.000000	99.392178
3861.000000	99.390422
3860.000000	99.389412
3859.000000	99.387600
3858.000000	99.383083
3857.000000	99.375500
3856.000000	99.367528
3855.000000	99.364186
3854.000000	99.369487
3853.000000	99.380570
3852.000000	99.388515
3851.000000	99.389446
3850.000000	99.385953
3849.000000	99.380595
3848.000000	99.374823
3847.000000	99.369210
3846.000000	99.363419
3845.000000	99.357383
3844.000000	99.352658
3843.000000	99.350805
3842.000000	99.351373
3841.000000	99.352134
3840.000000	99.352449
3839.000000	99.355625
3838.000000	99.365059
3837.000000	99.378400
3836.000000	99.389565
3835.000000	99.395330
3834.000000	99.396733
3833.000000	99.395684
3832.000000	99.393069
3831.000000	99.389835
3830.000000	99.387105
3829.000000	99.385549
3828.000000	99.385454
3827.000000	99.386490
3826.000000	99.387487
3825.000000	99.386846
3824.000000	99.383667
3823.000000	99.377281
3822.000000	99.367715
3821.000000	99.357914
3820.000000	99.352636
3819.000000	99.353196
3818.000000	99.356980
3817.000000	99.360294
3816.000000	99.360516
3815.000000	99.359819
3814.000000	99.362146
3813.000000	99.367221
3812.000000	99.370749
3811.000000	99.368580
3810.000000	99.360253
3809.000000	99.349151
3808.000000	99.339926
3807.000000	99.335335
3806.000000	99.335041
3805.000000	99.337218
3804.000000	99.341446
3803.000000	99.347531
3802.000000	99.353005
3801.000000	99.355523
3800.000000	99.356975
3799.000000	99.360340
3798.000000	99.366227
3797.000000	99.372454
3796.000000	99.376452
3795.000000	99.377596
3794.000000	99.376568
3793.000000	99.373981
3792.000000	99.370458
3791.000000	99.367187
3790.000000	99.365432
3789.000000	99.366037
3788.000000	99.369495
3787.000000	99.375920
3786.000000	99.383526
3785.000000	99.388208
3784.000000	99.386500
3783.000000	99.378975
3782.000000	99.369393
3781.000000	99.361754
3780.000000	99.358486
3779.000000	99.359433
3778.000000	99.362045
3777.000000	99.363599
3776.000000	99.363611
3775.000000	99.363017
3774.000000	99.362518
3773.000000	99.362590
3772.000000	99.364339
3771.000000	99.368668
3770.000000	99.374661
3769.000000	99.379836
3768.000000	99.382283
3767.000000	99.382232
3766.000000	99.380679
3765.000000	99.378085
3764.000000	99.375475
3763.000000	99.374922
3762.000000	99.377495
3761.000000	99.382159
3760.000000	99.387511
3759.000000	99.392756
3758.000000	99.395722
3757.000000	99.392715
3756.000000	99.382875
3755.000000	99.370226
3754.000000	99.361330
3753.000000	99.361561
3752.000000	99.372240
3751.000000	99.388851
3750.000000	99.402185
3749.000000	99.405835
3748.000000	99.401694
3747.000000	99.395838
3746.000000	99.390994
3745.000000	99.384586
3744.000000	99.377406
3743.000000	99.376655
3742.000000	99.385991
3741.000000	99.402300
3740.000000	99.420299
3739.000000	99.436447
3738.000000	99.447935
3737.000000	99.451400
3736.000000	99.446005
3735.000000	99.437972
3734.000000	99.435671
3733.000000	99.438633
3732.000000	99.440290
3731.000000	99.437532
3730.000000	99.432118
3729.000000	99.426833
3728.000000	99.422676
3727.000000	99.418953
3726.000000	99.415051
3725.000000	99.412144
3724.000000	99.412349
3723.000000	99.415998
3722.000000	99.420277
3721.000000	99.420613
3720.000000	99.415344
3719.000000	99.407567
3718.000000	99.400977
3717.000000	99.396402
3716.000000	99.393568
3715.000000	99.392718
3714.000000	99.392314
3713.000000	99.388153
3712.000000	99.379113
3711.000000	99.372838
3710.000000	99.377297
3709.000000	99.390872
3708.000000	99.406366
3707.000000	99.419020
3706.000000	99.429045
3705.000000	99.438069
3704.000000	99.446371
3703.000000	99.451612
3702.000000	99.450214
3701.000000	99.441390
3700.000000	99.429330
3699.000000	99.420297
3698.000000	99.417709
3697.000000	99.420167
3696.000000	99.424142
3695.000000	99.427149
3694.000000	99.427644
3693.000000	99.424420
3692.000000	99.417405
3691.000000	99.409188
3690.000000	99.403014
3689.000000	99.399735
3688.000000	99.397702
3687.000000	99.395057
3686.000000	99.390504
3685.000000	99.382978
3684.000000	99.373508
3683.000000	99.366294
3682.000000	99.365947
3681.000000	99.372966
3680.000000	99.383039
3679.000000	99.392251
3678.000000	99.401042
3677.000000	99.410019
3676.000000	99.414377
3675.000000	99.409846
3674.000000	99.400177
3673.000000	99.390727
3672.000000	99.383287
3671.000000	99.375265
3670.000000	99.363651
3669.000000	99.351850
3668.000000	99.345926
3667.000000	99.346738
3666.000000	99.351003
3665.000000	99.354891
3664.000000	99.356833
3663.000000	99.357634
3662.000000	99.358064
3661.000000	99.357589
3660.000000	99.355905
3659.000000	99.354556
3658.000000	99.355349
3657.000000	99.357431
3656.000000	99.357624
3655.000000	99.354097
3654.000000	99.348326
3653.000000	99.343459
3652.000000	99.342369
3651.000000	99.345338
3650.000000	99.346817
3649.000000	99.338286
3648.000000	99.320241
3647.000000	99.304040
3646.000000	99.297084
3645.000000	99.296924
3644.000000	99.298291
3643.000000	99.298864
3642.000000	99.299234
3641.000000	99.300436
3640.000000	99.301640
3639.000000	99.300311
3638.000000	99.295170
3637.000000	99.288216
3636.000000	99.283436
3635.000000	99.283105
3634.000000	99.286088
3633.000000	99.290211
3632.000000	99.294946
3631.000000	99.299495
3630.000000	99.299039
3629.000000	99.287735
3628.000000	99.269831
3627.000000	99.255080
3626.000000	99.245114
3625.000000	99.237181
3624.000000	99.231115
3623.000000	99.229753
3622.000000	99.234294
3621.000000	99.240148
3620.000000	99.239274
3619.000000	99.229139
3618.000000	99.216105
3617.000000	99.207703
3616.000000	99.206521
3615.000000	99.210371
3614.000000	99.213966
3613.000000	99.212549
3612.000000	99.206464
3611.000000	99.199420
3610.000000	99.192263
3609.000000	99.181600
3608.000000	99.166102
3607.000000	99.150474
3606.000000	99.140008
3605.000000	99.135077
3604.000000	99.132515
3603.000000	99.128967
3602.000000	99.122274
3601.000000	99.112401
3600.000000	99.102903
3599.000000	99.099199
3598.000000	99.102423
3597.000000	99.106980
3596.000000	99.105656
3595.000000	99.096275
3594.000000	99.083767
3593.000000	99.074929
3592.000000	99.072069
3591.000000	99.072256
3590.000000	99.070024
3589.000000	99.060515
3588.000000	99.043080
3587.000000	99.022953
3586.000000	99.006855
3585.000000	98.996264
3584.000000	98.988750
3583.000000	98.982014
3582.000000	98.974888
3581.000000	98.966780
3580.000000	98.958363
3579.000000	98.951163
3578.000000	98.945637
3577.000000	98.940863
3576.000000	98.936418
3575.000000	98.933266
3574.000000	98.931838
3573.000000	98.931233
3572.000000	98.929809
3571.000000	98.925895
3570.000000	98.917118
3569.000000	98.901151
3568.000000	98.878368
3567.000000	98.854598
3566.000000	98.837884
3565.000000	98.831558
3564.000000	98.832522
3563.000000	98.835196
3562.000000	98.834276
3561.000000	98.826840
3560.000000	98.814236
3559.000000	98.801082
3558.000000	98.790486
3557.000000	98.781972
3556.000000	98.774049
3555.000000	98.766489
3554.000000	98.758963
3553.000000	98.750108
3552.000000	98.739916
3551.000000	98.731122
3550.000000	98.725987
3549.000000	98.723219
3548.000000	98.719159
3547.000000	98.710526
3546.000000	98.695668
3545.000000	98.675249
3544.000000	98.653095
3543.000000	98.634470
3542.000000	98.622596
3541.000000	98.617035
3540.000000	98.615274
3539.000000	98.614848
3538.000000	98.613612
3537.000000	98.609788
3536.000000	98.603280
3535.000000	98.596150
3534.000000	98.590659
3533.000000	98.587137
3532.000000	98.584355
3531.000000	98.580810
3530.000000	98.575356
3529.000000	98.568072
3528.000000	98.561068
3527.000000	98.556981
3526.000000	98.555327
3525.000000	98.551527
3524.000000	98.540865
3523.000000	98.523252
3522.000000	98.503474
3521.000000	98.487367
3520.000000	98.478208
3519.000000	98.475463
3518.000000	98.475453
3517.000000	98.473883
3516.000000	98.469374
3515.000000	98.463711
3514.000000	98.458929
3513.000000	98.454984
3512.000000	98.450442
3511.000000	98.444037
3510.000000	98.435324
3509.000000	98.425090
3508.000000	98.415729
3507.000000	98.409916
3506.000000	98.408006
3505.000000	98.407937
3504.000000	98.407758
3503.000000	98.407223
3502.000000	98.406186
3501.000000	98.402887
3500.000000	98.395426
3499.000000	98.384302
3498.000000	98.372434
3497.000000	98.362914
3496.000000	98.356980
3495.000000	98.353390
3494.000000	98.349339
3493.000000	98.342659
3492.000000	98.333470
3491.000000	98.323231
3490.000000	98.312460
3489.000000	98.300487
3488.000000	98.287726
3487.000000	98.276544
3486.000000	98.269002
3485.000000	98.264885
3484.000000	98.262878
3483.000000	98.262354
3482.000000	98.263115
3481.000000	98.263971
3480.000000	98.262556
3479.000000	98.256468
3478.000000	98.244697
3477.000000	98.228874
3476.000000	98.213123
3475.000000	98.201537
3474.000000	98.195127
3473.000000	98.192098
3472.000000	98.190729
3471.000000	98.190455
3470.000000	98.190424
3469.000000	98.189153
3468.000000	98.186130
3467.000000	98.182243
3466.000000	98.178018
3465.000000	98.172895
3464.000000	98.166559
3463.000000	98.159133
3462.000000	98.149460
3461.000000	98.135279
3460.000000	98.116718
3459.000000	98.098264
3458.000000	98.085730
3457.000000	98.081797
3456.000000	98.084664
3455.000000	98.089810
3454.000000	98.092706
3453.000000	98.090903
3452.000000	98.084892
3451.000000	98.076675
3450.000000	98.067600
3449.000000	98.058399
3448.000000	98.050766
3447.000000	98.046873
3446.000000	98.046736
3445.000000	98.047781
3444.000000	98.047584
3443.000000	98.045359
3442.000000	98.040558
3441.000000	98.032366
3440.000000	98.021520
3439.000000	98.010851
3438.000000	98.002717
3437.000000	97.996877
3436.000000	97.991712
3435.000000	97.986259
3434.000000	97.980247
3433.000000	97.972925
3432.000000	97.963430
3431.000000	97.952013
3430.000000	97.940340
3429.000000	97.930579
3428.000000	97.923933
3427.000000	97.919524
3426.000000	97.914899
3425.000000	97.908335
3424.000000	97.900335
3423.000000	97.892212
3422.000000	97.884169
3421.000000	97.876090
3420.000000	97.869142
3419.000000	97.864353
3418.000000	97.860158
3417.000000	97.853896
3416.000000	97.845746
3415.000000	97.838990
3414.000000	97.835948
3413.000000	97.835512
3412.000000	97.834999
3411.000000	97.832357
3410.000000	97.826136
3409.000000	97.815562
3408.000000	97.802033
3407.000000	97.789210
3406.000000	97.780469
3405.000000	97.776797
3404.000000	97.777018
3403.000000	97.778545
3402.000000	97.777979
3401.000000	97.772973
3400.000000	97.764273
3399.000000	97.754580
3398.000000	97.745236
3397.000000	97.735643
3396.000000	97.726081
3395.000000	97.718906
3394.000000	97.715932
3393.000000	97.716242
3392.000000	97.717384
3391.000000	97.717400
3390.000000	97.715025
3389.000000	97.709610
3388.000000	97.702047
3387.000000	97.694537
3386.000000	97.688358
3385.000000	97.682726
3384.000000	97.676628
3383.000000	97.670465
3382.000000	97.665149
3381.000000	97.660662
3380.000000	97.656431
3379.000000	97.652121
3378.000000	97.647447
3377.000000	97.642149
3376.000000	97.636628
3375.000000	97.631671
3374.000000	97.627162
3373.000000	97.622088
3372.000000	97.616031
3371.000000	97.609424
3370.000000	97.602080
3369.000000	97.593131
3368.000000	97.582966
3367.000000	97.573746
3366.000000	97.567068
3365.000000	97.562262
3364.000000	97.557578
3363.000000	97.551721
3362.000000	97.543672
3361.000000	97.532577
3360.000000	97.518870
3359.000000	97.504393
3358.000000	97.490728
3357.000000	97.478294
3356.000000	97.467436
3355.000000	97.459098
3354.000000	97.453604
3353.000000	97.449783
3352.000000	97.445951
3351.000000	97.440959
3350.000000	97.434104
3349.000000	97.425349
3348.000000	97.415834
3347.000000	97.406876
3346.000000	97.398054
3345.000000	97.387636
3344.000000	97.375640
3343.000000	97.365008
3342.000000	97.358661
3341.000000	97.356146
3340.000000	97.353780
3339.000000	97.347435
3338.000000	97.335204
3337.000000	97.318886
3336.000000	97.303307
3335.000000	97.292825
3334.000000	97.287555
3333.000000	97.283566
3332.000000	97.276942
3331.000000	97.266571
3330.000000	97.253209
3329.000000	97.237728
3328.000000	97.221228
3327.000000	97.205884
3326.000000	97.194558
3325.000000	97.189252
3324.000000	97.189453
3323.000000	97.191377
3322.000000	97.189861
3321.000000	97.182699
3320.000000	97.172786
3319.000000	97.164558
3318.000000	97.158799
3317.000000	97.152805
3316.000000	97.145332
3315.000000	97.138664
3314.000000	97.135077
3313.000000	97.133648
3312.000000	97.131623
3311.000000	97.127080
3310.000000	97.119422
3309.000000	97.109083
3308.000000	97.098229
3307.000000	97.090307
3306.000000	97.087337
3305.000000	97.088203
3304.000000	97.090017
3303.000000	97.090349
3302.000000	97.088124
3301.000000	97.083696
3300.000000	97.078647
3299.000000	97.074347
3298.000000	97.070471
3297.000000	97.066024
3296.000000	97.061631
3295.000000	97.058981
3294.000000	97.057804
3293.000000	97.055807
3292.000000	97.052330
3291.000000	97.049715
3290.000000	97.049770
3289.000000	97.050681
3288.000000	97.049170
3287.000000	97.044505
3286.000000	97.038801
3285.000000	97.034469
3284.000000	97.032833
3283.000000	97.034290
3282.000000	97.038122
3281.000000	97.042210
3280.000000	97.044187
3279.000000	97.043217
3278.000000	97.040386
3277.000000	97.037416
3276.000000	97.035107
3275.000000	97.032911
3274.000000	97.030260
3273.000000	97.028577
3272.000000	97.031031
3271.000000	97.038951
3270.000000	97.048787
3269.000000	97.054383
3268.000000	97.052493
3267.000000	97.045274
3266.000000	97.037839
3265.000000	97.034627
3264.000000	97.037637
3263.000000	97.045741
3262.000000	97.055115
3261.000000	97.062269
3260.000000	97.067419
3259.000000	97.073499
3258.000000	97.081721
3257.000000	97.090217
3256.000000	97.097368
3255.000000	97.103926
3254.000000	97.110491
3253.000000	97.115372
3252.000000	97.117370
3251.000000	97.119020
3250.000000	97.124584
3249.000000	97.135025
3248.000000	97.146854
3247.000000	97.155714
3246.000000	97.159783
3245.000000	97.159814
3244.000000	97.157345
3243.000000	97.153822
3242.000000	97.151094
3241.000000	97.151809
3240.000000	97.158229
3239.000000	97.169848
3238.000000	97.182772
3237.000000	97.192699
3236.000000	97.198667
3235.000000	97.202867
3234.000000	97.206847
3233.000000	97.209514
3232.000000	97.209359
3231.000000	97.207272
3230.000000	97.206234
3229.000000	97.209007
3228.000000	97.216486
3227.000000	97.227113
3226.000000	97.237198
3225.000000	97.242967
3224.000000	97.243583
3223.000000	97.241937
3222.000000	97.241864
3221.000000	97.245036
3220.000000	97.250621
3219.000000	97.256897
3218.000000	97.262352
3217.000000	97.265964
3216.000000	97.267734
3215.000000	97.269167
3214.000000	97.272669
3213.000000	97.279965
3212.000000	97.290734
3211.000000	97.302253
3210.000000	97.310636
3209.000000	97.313526
3208.000000	97.312235
3207.000000	97.311071
3206.000000	97.313963
3205.000000	97.321552
3204.000000	97.331076
3203.000000	97.338999
3202.000000	97.344252
3201.000000	97.349103
3200.000000	97.356348
3199.000000	97.365473
3198.000000	97.372841
3197.000000	97.376272
3196.000000	97.378093
3195.000000	97.382235
3194.000000	97.389614
3193.000000	97.398300
3192.000000	97.407158
3191.000000	97.416826
3190.000000	97.427016
3189.000000	97.435312
3188.000000	97.439723
3187.000000	97.441134
3186.000000	97.442442
3185.000000	97.446212
3184.000000	97.453422
3183.000000	97.463448
3182.000000	97.474495
3181.000000	97.484582
3180.000000	97.492479
3179.000000	97.497634
3178.000000	97.499850
3177.000000	97.499929
3176.000000	97.500162
3175.000000	97.503049
3174.000000	97.509497
3173.000000	97.518826
3172.000000	97.529759
3171.000000	97.540638
3170.000000	97.549711
3169.000000	97.556766
3168.000000	97.563871
3167.000000	97.572854
3166.000000	97.582745
3165.000000	97.591387
3164.000000	97.598803
3163.000000	97.606739
3162.000000	97.615360
3161.000000	97.623000
3160.000000	97.629323
3159.000000	97.636080
3158.000000	97.644011
3157.000000	97.651368
3156.000000	97.656614
3155.000000	97.660763
3154.000000	97.665833
3153.000000	97.672470
3152.000000	97.680101
3151.000000	97.688105
3150.000000	97.695755
3149.000000	97.702110
3148.000000	97.707111
3147.000000	97.712237
3146.000000	97.719306
3145.000000	97.728930
3144.000000	97.740061
3143.000000	97.750294
3142.000000	97.756835
3141.000000	97.758495
3140.000000	97.757339
3139.000000	97.757480
3138.000000	97.761924
3137.000000	97.770771
3136.000000	97.781827
3135.000000	97.791815
3134.000000	97.797898
3133.000000	97.799897
3132.000000	97.801004
3131.000000	97.804310
3130.000000	97.808913
3129.000000	97.811542
3128.000000	97.812041
3127.000000	97.814496
3126.000000	97.821880
3125.000000	97.831749
3124.000000	97.838764
3123.000000	97.840013
3122.000000	97.836466
3121.000000	97.830713
3120.000000	97.825018
3119.000000	97.821035
3118.000000	97.819798
3117.000000	97.821640
3116.000000	97.826231
3115.000000	97.832472
3114.000000	97.838542
3113.000000	97.843041
3112.000000	97.846104
3111.000000	97.848373
3110.000000	97.848944
3109.000000	97.845799
3108.000000	97.838686
3107.000000	97.830213
3106.000000	97.823661
3105.000000	97.820639
3104.000000	97.820922
3103.000000	97.823108
3102.000000	97.825018
3101.000000	97.825005
3100.000000	97.823853
3099.000000	97.824279
3098.000000	97.827836
3097.000000	97.832887
3096.000000	97.836173
3095.000000	97.835811
3094.000000	97.832473
3093.000000	97.828180
3092.000000	97.824235
3091.000000	97.820004
3090.000000	97.813905
3089.000000	97.806129
3088.000000	97.799784
3087.000000	97.798136
3086.000000	97.800977
3085.000000	97.805094
3084.000000	97.808056
3083.000000	97.810018
3082.000000	97.811668
3081.000000	97.812334
3080.000000	97.810976
3079.000000	97.807918
3078.000000	97.804716
3077.000000	97.802979
3076.000000	97.803646
3075.000000	97.806589
3074.000000	97.810618
3073.000000	97.814591
3072.000000	97.818692
3071.000000	97.823850
3070.000000	97.830010
3069.000000	97.835887
3068.000000	97.840237
3067.000000	97.842322
3066.000000	97.841502
3065.000000	97.838085
3064.000000	97.834797
3063.000000	97.835787
3062.000000	97.843148
3061.000000	97.855084
3060.000000	97.867714
3059.000000	97.878037
3058.000000	97.885212
3057.000000	97.890073
3056.000000	97.893862
3055.000000	97.896837
3054.000000	97.898169
3053.000000	97.897773
3052.000000	97.897873
3051.000000	97.901600
3050.000000	97.909952
3049.000000	97.921011
3048.000000	97.932040
3047.000000	97.941387
3046.000000	97.948540
3045.000000	97.953866
3044.000000	97.958704
3043.000000	97.964516
3042.000000	97.971211
3041.000000	97.977055
3040.000000	97.980744
3039.000000	97.983255
3038.000000	97.987376
3037.000000	97.995483
3036.000000	98.007482
3035.000000	98.020468
3034.000000	98.030810
3033.000000	98.037263
3032.000000	98.041628
3031.000000	98.046118
3030.000000	98.051028
3029.000000	98.055744
3028.000000	98.060671
3027.000000	98.066523
3026.000000	98.072765
3025.000000	98.078787
3024.000000	98.086053
3023.000000	98.096788
3022.000000	98.110238
3021.000000	98.122083
3020.000000	98.128174
3019.000000	98.127978
3018.000000	98.124511
3017.000000	98.122165
3016.000000	98.124210
3015.000000	98.130688
3014.000000	98.138461
3013.000000	98.144652
3012.000000	98.149801
3011.000000	98.156210
3010.000000	98.163594
3009.000000	98.168553
3008.000000	98.168600
3007.000000	98.164863
3006.000000	98.160317
3005.000000	98.157066
3004.000000	98.155845
3003.000000	98.156654
3002.000000	98.158936
3001.000000	98.162056
3000.000000	98.166066
2999.000000	98.171211
2998.000000	98.176364
2997.000000	98.179049
2996.000000	98.177415
2995.000000	98.171664
2994.000000	98.163557
2993.000000	98.155177
2992.000000	98.147745
2991.000000	98.140511
2990.000000	98.131250
2989.000000	98.119145
2988.000000	98.106823
2987.000000	98.097924
2986.000000	98.093016
2985.000000	98.089680
2984.000000	98.086423
2983.000000	98.084250
2982.000000	98.083970
2981.000000	98.083979
2980.000000	98.081653
2979.000000	98.075543
2978.000000	98.065752
2977.000000	98.053692
2976.000000	98.042143
2975.000000	98.033894
2974.000000	98.029123
2973.000000	98.025040
2972.000000	98.018677
2971.000000	98.009244
2970.000000	97.997592
2969.000000	97.984855
2968.000000	97.972262
2967.000000	97.961094
2966.000000	97.951866
2965.000000	97.944010
2964.000000	97.936520
2963.000000	97.928542
2962.000000	97.919850
2961.000000	97.911972
2960.000000	97.908160
2959.000000	97.910186
2958.000000	97.915149
2957.000000	97.917319
2956.000000	97.913750
2955.000000	97.906585
2954.000000	97.899922
2953.000000	97.896331
2952.000000	97.896492
2951.000000	97.899573
2950.000000	97.902750
2949.000000	97.902442
2948.000000	97.897787
2947.000000	97.891831
2946.000000	97.888070
2945.000000	97.886755
2944.000000	97.885307
2943.000000	97.881077
2942.000000	97.872792
2941.000000	97.860622
2940.000000	97.846128
2939.000000	97.831508
2938.000000	97.817894
2937.000000	97.804750
2936.000000	97.791021
2935.000000	97.775913
2934.000000	97.758493
2933.000000	97.738063
2932.000000	97.715604
2931.000000	97.693461
2930.000000	97.672874
2929.000000	97.653191
2928.000000	97.634055
2927.000000	97.616594
2926.000000	97.601125
2925.000000	97.585252
2924.000000	97.566086
2923.000000	97.543943
2922.000000	97.522810
2921.000000	97.507508
2920.000000	97.501120
2919.000000	97.504191
2918.000000	97.515496
2917.000000	97.533819
2916.000000	97.559302
2915.000000	97.592319
2914.000000	97.630669
2913.000000	97.669427
2912.000000	97.704782
2911.000000	97.737269
2910.000000	97.769964
2909.000000	97.803716
2908.000000	97.835432
2907.000000	97.860981
2906.000000	97.879349
2905.000000	97.893622
2904.000000	97.908187
2903.000000	97.924739
2902.000000	97.941164
2901.000000	97.953842
2900.000000	97.961601
2899.000000	97.966101
2898.000000	97.970129
2897.000000	97.976136
2896.000000	97.985615
2895.000000	97.998022
2894.000000	98.010397
2893.000000	98.019857
2892.000000	98.026751
2891.000000	98.033737
2890.000000	98.041403
2889.000000	98.046799
2888.000000	98.047145
2887.000000	98.043281
2886.000000	98.038338
2885.000000	98.034600
2884.000000	98.033023
2883.000000	98.034490
2882.000000	98.039603
2881.000000	98.047674
2880.000000	98.057145
2879.000000	98.066529
2878.000000	98.073989
2877.000000	98.076891
2876.000000	98.073584
2875.000000	98.065648
2874.000000	98.057250
2873.000000	98.051994
2872.000000	98.050921
2871.000000	98.053239
2870.000000	98.058001
2869.000000	98.064820
2868.000000	98.073336
2867.000000	98.082368
2866.000000	98.089891
2865.000000	98.094509
2864.000000	98.096720
2863.000000	98.097817
2862.000000	98.097221
2861.000000	98.092085
2860.000000	98.080375
2859.000000	98.063485
2858.000000	98.045132
2857.000000	98.028281
2856.000000	98.013615
2855.000000	97.999863
2854.000000	97.984725
2853.000000	97.966514
2852.000000	97.946606
2851.000000	97.930455
2850.000000	97.925164
2849.000000	97.935627
2848.000000	97.962312
2847.000000	98.001443
2846.000000	98.046433
2845.000000	98.090316
2844.000000	98.128498
2843.000000	98.159953
2842.000000	98.185780
2841.000000	98.207171
2840.000000	98.225167
2839.000000	98.241086
2838.000000	98.255861
2837.000000	98.269210
2836.000000	98.280358
2835.000000	98.289256
2834.000000	98.296314
2833.000000	98.301394
2832.000000	98.304225
2831.000000	98.305798
2830.000000	98.308332
2829.000000	98.313570
2828.000000	98.321589
2827.000000	98.331221
2826.000000	98.340990
2825.000000	98.349458
2824.000000	98.355288
2823.000000	98.357526
2822.000000	98.356092
2821.000000	98.352136
2820.000000	98.347806
2819.000000	98.345124
2818.000000	98.344899
2817.000000	98.346974
2816.000000	98.351437
2815.000000	98.358737
2814.000000	98.368280
2813.000000	98.377838
2812.000000	98.385059
2811.000000	98.389101
2810.000000	98.390407
2809.000000	98.389751
2808.000000	98.388304
2807.000000	98.387736
2806.000000	98.388949
2805.000000	98.391003
2804.000000	98.392373
2803.000000	98.393021
2802.000000	98.394090
2801.000000	98.395850
2800.000000	98.397365
2799.000000	98.398363
2798.000000	98.400025
2797.000000	98.403217
2796.000000	98.406926
2795.000000	98.409410
2794.000000	98.410370
2793.000000	98.411143
2792.000000	98.413033
2791.000000	98.416256
2790.000000	98.420526
2789.000000	98.425841
2788.000000	98.432108
2787.000000	98.438321
2786.000000	98.442771
2785.000000	98.444401
2784.000000	98.443812
2783.000000	98.442749
2782.000000	98.442747
2781.000000	98.444448
2780.000000	98.447827
2779.000000	98.452369
2778.000000	98.456958
2777.000000	98.460336
2776.000000	98.462236
2775.000000	98.463816
2774.000000	98.466598
2773.000000	98.471256
2772.000000	98.477560
2771.000000	98.484835
2770.000000	98.491759
2769.000000	98.496257
2768.000000	98.496738
2767.000000	98.493705
2766.000000	98.489606
2765.000000	98.486890
2764.000000	98.486566
2763.000000	98.488497
2762.000000	98.492116
2761.000000	98.496341
2760.000000	98.499529
2759.000000	98.500461
2758.000000	98.499435
2757.000000	98.497890
2756.000000	98.497028
2755.000000	98.497247
2754.000000	98.498857
2753.000000	98.502513
2752.000000	98.508390
2751.000000	98.515202
2750.000000	98.520693
2749.000000	98.523378
2748.000000	98.523833
2747.000000	98.524173
2746.000000	98.526150
2745.000000	98.529502
2744.000000	98.532178
2743.000000	98.532499
2742.000000	98.531207
2741.000000	98.530993
2740.000000	98.533592
2739.000000	98.537698
2738.000000	98.540282
2737.000000	98.539881
2736.000000	98.537999
2735.000000	98.537406
2734.000000	98.539749
2733.000000	98.544756
2732.000000	98.550694
2731.000000	98.555135
2730.000000	98.556251
2729.000000	98.554475
2728.000000	98.552589
2727.000000	98.553277
2726.000000	98.556578
2725.000000	98.560215
2724.000000	98.562294
2723.000000	98.562979
2722.000000	98.563565
2721.000000	98.564686
2720.000000	98.565788
2719.000000	98.566007
2718.000000	98.565386
2717.000000	98.565381
2716.000000	98.567945
2715.000000	98.573588
2714.000000	98.580326
2713.000000	98.585065
2712.000000	98.586160
2711.000000	98.584370
2710.000000	98.581527
2709.000000	98.578978
2708.000000	98.577404
2707.000000	98.577254
2706.000000	98.578575
2705.000000	98.580644
2704.000000	98.582355
2703.000000	98.583110
2702.000000	98.583127
2701.000000	98.582948
2700.000000	98.582983
2699.000000	98.583678
2698.000000	98.585815
2697.000000	98.589967
2696.000000	98.595240
2695.000000	98.598981
2694.000000	98.598765
2693.000000	98.595051
2692.000000	98.591371
2691.000000	98.591337
2690.000000	98.595752
2689.000000	98.602822
2688.000000	98.610276
2687.000000	98.616402
2686.000000	98.619727
2685.000000	98.619246
2684.000000	98.615244
2683.000000	98.609043
2682.000000	98.601843
2681.000000	98.594686
2680.000000	98.589546
2679.000000	98.589007
2678.000000	98.593890
2677.000000	98.601735
2676.000000	98.608358
2675.000000	98.610720
2674.000000	98.608298
2673.000000	98.602746
2672.000000	98.597039
2671.000000	98.594200
2670.000000	98.595559
2669.000000	98.599839
2668.000000	98.604212
2667.000000	98.606192
2666.000000	98.604603
2665.000000	98.599685
2664.000000	98.593235
2663.000000	98.588147
2662.000000	98.586466
2661.000000	98.587553
2660.000000	98.588824
2659.000000	98.588493
2658.000000	98.586933
2657.000000	98.585335
2656.000000	98.584240
2655.000000	98.584088
2654.000000	98.586175
2653.000000	98.591578
2652.000000	98.599184
2651.000000	98.606071
2650.000000	98.610246
2649.000000	98.612312
2648.000000	98.614287
2647.000000	98.617721
2646.000000	98.623312
2645.000000	98.631086
2644.000000	98.639652
2643.000000	98.646003
2642.000000	98.647648
2641.000000	98.644997
2640.000000	98.640711
2639.000000	98.636929
2638.000000	98.634442
2637.000000	98.634353
2636.000000	98.638359
2635.000000	98.646301
2634.000000	98.655067
2633.000000	98.661603
2632.000000	98.666259
2631.000000	98.671697
2630.000000	98.678900
2629.000000	98.685790
2628.000000	98.689637
2627.000000	98.689587
2626.000000	98.686793
2625.000000	98.683326
2624.000000	98.681353
2623.000000	98.682298
2622.000000	98.686101
2621.000000	98.691446
2620.000000	98.696742
2619.000000	98.700817
2618.000000	98.703431
2617.000000	98.705923
2616.000000	98.710598
2615.000000	98.718105
2614.000000	98.725796
2613.000000	98.730315
2612.000000	98.731837
2611.000000	98.733995
2610.000000	98.739214
2609.000000	98.745918
2608.000000	98.751003
2607.000000	98.753408
2606.000000	98.754052
2605.000000	98.753863
2604.000000	98.753635
2603.000000	98.754673
2602.000000	98.757631
2601.000000	98.761102
2600.000000	98.763300
2599.000000	98.764940
2598.000000	98.768636
2597.000000	98.775075
2596.000000	98.781455
2595.000000	98.784444
2594.000000	98.783418
2593.000000	98.780167
2592.000000	98.776683
2591.000000	98.774424
2590.000000	98.774851
2589.000000	98.779148
2588.000000	98.787225
2587.000000	98.797512
2586.000000	98.807516
2585.000000	98.814364
2584.000000	98.816025
2583.000000	98.813489
2582.000000	98.811324
2581.000000	98.814148
2580.000000	98.821896
2579.000000	98.829618
2578.000000	98.832787
2577.000000	98.831753
2576.000000	98.830279
2575.000000	98.830650
2574.000000	98.831647
2573.000000	98.831054
2572.000000	98.828564
2571.000000	98.825774
2570.000000	98.824311
2569.000000	98.824755
2568.000000	98.826886
2567.000000	98.830120
2566.000000	98.833513
2565.000000	98.835724
2564.000000	98.835544
2563.000000	98.833020
2562.000000	98.830068
2561.000000	98.829144
2560.000000	98.830495
2559.000000	98.831302
2558.000000	98.828877
2557.000000	98.824815
2556.000000	98.824626
2555.000000	98.832412
2554.000000	98.846407
2553.000000	98.860049
2552.000000	98.866619
2551.000000	98.862858
2550.000000	98.850432
2549.000000	98.836344
2548.000000	98.830938
2547.000000	98.841760
2546.000000	98.866628
2545.000000	98.893519
2544.000000	98.909216
2543.000000	98.909184
2542.000000	98.899071
2541.000000	98.887800
2540.000000	98.880397
2539.000000	98.876927
2538.000000	98.875475
2537.000000	98.874142
2536.000000	98.871015
2535.000000	98.864656
2534.000000	98.855541
2533.000000	98.846050
2532.000000	98.838437
2531.000000	98.833559
2530.000000	98.832133
2529.000000	98.836159
2528.000000	98.847456
2527.000000	98.864720
2526.000000	98.882818
2525.000000	98.895328
2524.000000	98.897939
2523.000000	98.890542
2522.000000	98.877381
2521.000000	98.864987
2520.000000	98.858420
2519.000000	98.858237
2518.000000	98.861067
2517.000000	98.863195
2516.000000	98.863675
2515.000000	98.864483
2514.000000	98.868131
2513.000000	98.874559
2512.000000	98.879704
2511.000000	98.878195
2510.000000	98.868944
2509.000000	98.857722
2508.000000	98.852277
2507.000000	98.854619
2506.000000	98.859771
2505.000000	98.862352
2504.000000	98.862446
2503.000000	98.864098
2502.000000	98.869830
2501.000000	98.878087
2500.000000	98.884742
2499.000000	98.885560
2498.000000	98.878518
2497.000000	98.866174
2496.000000	98.855414
2495.000000	98.852648
2494.000000	98.858108
2493.000000	98.865863
2492.000000	98.869943
2491.000000	98.869900
2490.000000	98.870155
2489.000000	98.874714
2488.000000	98.882985
2487.000000	98.890416
2486.000000	98.893034
2485.000000	98.891509
2484.000000	98.890678
2483.000000	98.894542
2482.000000	98.901959
2481.000000	98.907929
2480.000000	98.908975
2479.000000	98.906343
2478.000000	98.903878
2477.000000	98.904215
2476.000000	98.908098
2475.000000	98.915952
2474.000000	98.927773
2473.000000	98.940834
2472.000000	98.949369
2471.000000	98.948292
2470.000000	98.937469
2469.000000	98.921908
2468.000000	98.907919
2467.000000	98.899390
2466.000000	98.896847
2465.000000	98.898493
2464.000000	98.901813
2463.000000	98.905020
2462.000000	98.907626
2461.000000	98.909657
2460.000000	98.910710
2459.000000	98.910431
2458.000000	98.909436
2457.000000	98.908575
2456.000000	98.907580
2455.000000	98.906114
2454.000000	98.906181
2453.000000	98.911305
2452.000000	98.922117
2451.000000	98.934568
2450.000000	98.944063
2449.000000	98.949828
2448.000000	98.953557
2447.000000	98.955572
2446.000000	98.954852
2445.000000	98.951969
2444.000000	98.948963
2443.000000	98.946256
2442.000000	98.942554
2441.000000	98.938443
2440.000000	98.937455
2439.000000	98.941928
2438.000000	98.949286
2437.000000	98.953694
2436.000000	98.950740
2435.000000	98.940206
2434.000000	98.925896
2433.000000	98.913648
2432.000000	98.907725
2431.000000	98.907289
2430.000000	98.907314
2429.000000	98.904557
2428.000000	98.902017
2427.000000	98.905796
2426.000000	98.917630
2425.000000	98.932512
2424.000000	98.944198
2423.000000	98.951347
2422.000000	98.956611
2421.000000	98.960673
2420.000000	98.959978
2419.000000	98.951638
2418.000000	98.938700
2417.000000	98.928291
2416.000000	98.924908
2415.000000	98.927705
2414.000000	98.934070
2413.000000	98.942806
2412.000000	98.952438
2411.000000	98.959449
2410.000000	98.961310
2409.000000	98.959900
2408.000000	98.959102
2407.000000	98.959797
2406.000000	98.960279
2405.000000	98.961019
2404.000000	98.965112
2403.000000	98.973162
2402.000000	98.981136
2401.000000	98.985087
2400.000000	98.985456
2399.000000	98.984812
2398.000000	98.983498
2397.000000	98.980148
2396.000000	98.975215
2395.000000	98.971056
2394.000000	98.968531
2393.000000	98.965886
2392.000000	98.961609
2391.000000	98.956919
2390.000000	98.954305
2389.000000	98.954297
2388.000000	98.955166
2387.000000	98.955448
2386.000000	98.956746
2385.000000	98.962748
2384.000000	98.975230
2383.000000	98.992396
2382.000000	99.010417
2381.000000	99.026802
2380.000000	99.039779
2379.000000	99.045523
2378.000000	99.039673
2377.000000	99.022546
2376.000000	99.001233
2375.000000	98.984582
2374.000000	98.978492
2373.000000	98.985126
2372.000000	99.002147
2371.000000	99.020432
2370.000000	99.028678
2369.000000	99.025215
2368.000000	99.019046
2367.000000	99.018979
2366.000000	99.025050
2365.000000	99.031404
2364.000000	99.031859
2363.000000	99.021725
2362.000000	99.002507
2361.000000	98.984286
2360.000000	98.975808
2359.000000	98.974741
2358.000000	98.975561
2357.000000	98.981149
2356.000000	98.993856
2355.000000	99.006764
2354.000000	99.019414
2353.000000	99.038033
2352.000000	99.057057
2351.000000	99.059219
2350.000000	99.039620
2349.000000	99.008696
2348.000000	98.981703
2347.000000	98.970420
2346.000000	98.973461
2345.000000	98.973769
2344.000000	98.959377
2343.000000	98.938782
2342.000000	98.925666
2341.000000	98.924783
2340.000000	98.930858
2339.000000	98.937101
2338.000000	98.942705
2337.000000	98.949932
2336.000000	98.955999
2335.000000	98.957119
2334.000000	98.957056
2333.000000	98.963588
2332.000000	98.973330
2331.000000	98.975764
2330.000000	98.967255
2329.000000	98.953102
2328.000000	98.933389
2327.000000	98.902533
2326.000000	98.861995
2325.000000	98.826942
2324.000000	98.813483
2323.000000	98.824520
2322.000000	98.845430
2321.000000	98.857921
2320.000000	98.854262
2319.000000	98.841708
2318.000000	98.831869
2317.000000	98.832040
2316.000000	98.842474
2315.000000	98.861084
2314.000000	98.884436
2313.000000	98.908718
2312.000000	98.929307
2311.000000	98.943656
2310.000000	98.951262
2309.000000	98.953401
2308.000000	98.952867
2307.000000	98.954335
2306.000000	98.960333
2305.000000	98.968105
2304.000000	98.971424
2303.000000	98.967598
2302.000000	98.959398
2301.000000	98.951097
2300.000000	98.943880
2299.000000	98.937487
2298.000000	98.932131
2297.000000	98.928401
2296.000000	98.924023
2295.000000	98.915739
2294.000000	98.903536
2293.000000	98.892921
2292.000000	98.890292
2291.000000	98.896943
2290.000000	98.906935
2289.000000	98.911314
2288.000000	98.905132
2287.000000	98.891674
2286.000000	98.879948
2285.000000	98.877515
2284.000000	98.886115
2283.000000	98.902743
2282.000000	98.923130
2281.000000	98.942673
2280.000000	98.956923
2279.000000	98.963662
2278.000000	98.963854
2277.000000	98.958850
2276.000000	98.948009
2275.000000	98.932398
2274.000000	98.919234
2273.000000	98.917544
2272.000000	98.928503
2271.000000	98.945262
2270.000000	98.963288
2269.000000	98.984443
2268.000000	99.006958
2267.000000	99.018256
2266.000000	99.006276
2265.000000	98.976486
2264.000000	98.950199
2263.000000	98.944056
2262.000000	98.955822
2261.000000	98.970925
2260.000000	98.977943
2259.000000	98.976257
2258.000000	98.972910
2257.000000	98.975916
2256.000000	98.988801
2255.000000	99.007331
2254.000000	99.020943
2253.000000	99.019713
2252.000000	99.002550
2251.000000	98.978905
2250.000000	98.961791
2249.000000	98.958095
2248.000000	98.965160
2247.000000	98.976251
2246.000000	98.988509
2245.000000	99.002794
2244.000000	99.017022
2243.000000	99.024735
2242.000000	99.023053
2241.000000	99.018624
2240.000000	99.021292
2239.000000	99.032961
2238.000000	99.046926
2237.000000	99.057602
2236.000000	99.066455
2235.000000	99.076964
2234.000000	99.087555
2233.000000	99.092697
2232.000000	99.089294
2231.000000	99.079058
2230.000000	99.064760
2229.000000	99.047325
2228.000000	99.028382
2227.000000	99.013935
2226.000000	99.011863
2225.000000	99.023496
2224.000000	99.039557
2223.000000	99.048006
2222.000000	99.045143
2221.000000	99.035852
2220.000000	99.024119
2219.000000	99.008454
2218.000000	98.987462
2217.000000	98.964157
2216.000000	98.942471
2215.000000	98.925029
2214.000000	98.918001
2213.000000	98.931250
2212.000000	98.966710
2211.000000	99.010708
2210.000000	99.045106
2209.000000	99.063603
2208.000000	99.071257
2207.000000	99.070893
2206.000000	99.059100
2205.000000	99.036722
2204.000000	99.013738
2203.000000	98.998837
2202.000000	98.989619
2201.000000	98.978796
2200.000000	98.967587
2199.000000	98.967269
2198.000000	98.986000
2197.000000	99.016272
2196.000000	99.038374
2195.000000	99.038307
2194.000000	99.020947
2193.000000	99.003411
2192.000000	98.996420
2191.000000	98.996351
2190.000000	98.996190
2189.000000	98.996952
2188.000000	99.004062
2187.000000	99.017752
2186.000000	99.034412
2185.000000	99.055423
2184.000000	99.086415
2183.000000	99.124795
2182.000000	99.152376
2181.000000	99.147263
2180.000000	99.107183
2179.000000	99.059730
2178.000000	99.043397
2177.000000	99.072809
2176.000000	99.122323
2175.000000	99.150669
2174.000000	99.141543
2173.000000	99.111192
2172.000000	99.078123
2171.000000	99.042447
2170.000000	99.000705
2169.000000	98.964729
2168.000000	98.951410
2167.000000	98.959793
2166.000000	98.972201
2165.000000	98.974604
2164.000000	98.967499
2163.000000	98.961921
2162.000000	98.978441
2161.000000	99.046166
2160.000000	99.181146
2159.000000	99.354993
2158.000000	99.500654
2157.000000	99.565566
2156.000000	99.551619
2155.000000	99.499449
2154.000000	99.450410
2153.000000	99.422996
2152.000000	99.408314
2151.000000	99.384017
2150.000000	99.339185
2149.000000	99.287422
2148.000000	99.253766
2147.000000	99.250694
2146.000000	99.270010
2145.000000	99.294649
2144.000000	99.313740
2143.000000	99.326863
2142.000000	99.337122
2141.000000	99.342087
2140.000000	99.333663
2139.000000	99.309448
2138.000000	99.281967
2137.000000	99.270642
2136.000000	99.282730
2135.000000	99.305948
2134.000000	99.321822
2133.000000	99.321658
2132.000000	99.308945
2131.000000	99.292452
2130.000000	99.279871
2129.000000	99.273062
2128.000000	99.264945
2127.000000	99.244373
2126.000000	99.207743
2125.000000	99.164273
2124.000000	99.127105
2123.000000	99.102007
2122.000000	99.087226
2121.000000	99.080778
2120.000000	99.082922
2119.000000	99.092658
2118.000000	99.105735
2117.000000	99.116348
2116.000000	99.119897
2115.000000	99.115488
2114.000000	99.106877
2113.000000	99.099506
2112.000000	99.095522
2111.000000	99.093066
2110.000000	99.089971
2109.000000	99.084509
2108.000000	99.073469
2107.000000	99.056074
2106.000000	99.041432
2105.000000	99.043991
2104.000000	99.066175
2103.000000	99.091995
2102.000000	99.104578
2101.000000	99.105034
2100.000000	99.106406
2099.000000	99.113495
2098.000000	99.118615
2097.000000	99.116726
2096.000000	99.115863
2095.000000	99.128274
2094.000000	99.155244
2093.000000	99.182538
2092.000000	99.189479
2091.000000	99.164981
2090.000000	99.118856
2089.000000	99.076011
2088.000000	99.055147
2087.000000	99.054468
2086.000000	99.062145
2085.000000	99.073460
2084.000000	99.089117
2083.000000	99.101985
2082.000000	99.099534
2081.000000	99.081770
2080.000000	99.065576
2079.000000	99.066247
2078.000000	99.082111
2077.000000	99.101130
2076.000000	99.114331
2075.000000	99.117830
2074.000000	99.109919
2073.000000	99.093973
2072.000000	99.079081
2071.000000	99.071201
2070.000000	99.067608
2069.000000	99.065060
2068.000000	99.068248
2067.000000	99.083484
2066.000000	99.107913
2065.000000	99.131570
2064.000000	99.148155
2063.000000	99.157212
2062.000000	99.157702
2061.000000	99.148378
2060.000000	99.134384
2059.000000	99.125423
2058.000000	99.125543
2057.000000	99.129774
2056.000000	99.130704
2055.000000	99.122820
2054.000000	99.100632
2053.000000	99.061518
2052.000000	99.015542
2051.000000	98.986759
2050.000000	98.997662
2049.000000	99.049370
2048.000000	99.119072
2047.000000	99.180000
2046.000000	99.218308
2045.000000	99.230164
2044.000000	99.217132
2043.000000	99.190607
2042.000000	99.170771
2041.000000	99.172572
2040.000000	99.194770
2039.000000	99.226613
2038.000000	99.258609
2037.000000	99.281263
2036.000000	99.284097
2035.000000	99.268148
2034.000000	99.253086
2033.000000	99.259127
2032.000000	99.283729
2031.000000	99.308818
2030.000000	99.327033
2029.000000	99.344642
2028.000000	99.363340
2027.000000	99.376226
2026.000000	99.381841
2025.000000	99.387497
2024.000000	99.396337
2023.000000	99.405094
2022.000000	99.415472
2021.000000	99.433342
2020.000000	99.454991
2019.000000	99.468706
2018.000000	99.471622
2017.000000	99.469428
2016.000000	99.456301
2015.000000	99.414286
2014.000000	99.341942
2013.000000	99.267727
2012.000000	99.222175
2011.000000	99.206903
2010.000000	99.205816
2009.000000	99.216008
2008.000000	99.249856
2007.000000	99.308776
2006.000000	99.370497
2005.000000	99.407378
2004.000000	99.411803
2003.000000	99.400094
2002.000000	99.391399
2001.000000	99.385898
2000.000000	99.367030
1999.000000	99.327263
1998.000000	99.286216
1997.000000	99.271359
1996.000000	99.282705
1995.000000	99.292867
1994.000000	99.283573
1993.000000	99.265361
1992.000000	99.256130
1991.000000	99.254991
1990.000000	99.250172
1989.000000	99.239252
1988.000000	99.227692
1987.000000	99.219176
1986.000000	99.219305
1985.000000	99.237492
1984.000000	99.270297
1983.000000	99.290382
1982.000000	99.268115
1981.000000	99.205144
1980.000000	99.138731
1979.000000	99.111571
1978.000000	99.140480
1977.000000	99.205118
1976.000000	99.264251
1975.000000	99.293811
1974.000000	99.307926
1973.000000	99.334370
1972.000000	99.376136
1971.000000	99.412823
1970.000000	99.435217
1969.000000	99.454722
1968.000000	99.474631
1967.000000	99.476407
1966.000000	99.448510
1965.000000	99.407941
1964.000000	99.377003
1963.000000	99.358518
1962.000000	99.347595
1961.000000	99.348393
1960.000000	99.362802
1959.000000	99.376855
1958.000000	99.376881
1957.000000	99.369229
1956.000000	99.368107
1955.000000	99.371982
1954.000000	99.366641
1953.000000	99.346142
1952.000000	99.318047
1951.000000	99.291383
1950.000000	99.270354
1949.000000	99.259915
1948.000000	99.266306
1947.000000	99.288579
1946.000000	99.316102
1945.000000	99.336882
1944.000000	99.345791
1943.000000	99.345715
1942.000000	99.343603
1941.000000	99.343882
1940.000000	99.342822
1939.000000	99.333296
1938.000000	99.316511
1937.000000	99.303015
1936.000000	99.299262
1935.000000	99.299705
1934.000000	99.296931
1933.000000	99.292292
1932.000000	99.291219
1931.000000	99.293949
1930.000000	99.296086
1929.000000	99.297133
1928.000000	99.300374
1927.000000	99.304760
1926.000000	99.304507
1925.000000	99.295470
1924.000000	99.280621
1923.000000	99.267052
1922.000000	99.261339
1921.000000	99.267525
1920.000000	99.284913
1919.000000	99.306270
1918.000000	99.318983
1917.000000	99.312624
1916.000000	99.289529
1915.000000	99.261284
1914.000000	99.240476
1913.000000	99.235885
1912.000000	99.247538
1911.000000	99.266530
1910.000000	99.282185
1909.000000	99.290438
1908.000000	99.293372
1907.000000	99.292045
1906.000000	99.285450
1905.000000	99.274869
1904.000000	99.266735
1903.000000	99.266099
1902.000000	99.270356
1901.000000	99.272570
1900.000000	99.268432
1899.000000	99.259526
1898.000000	99.252011
1897.000000	99.250814
1896.000000	99.255900
1895.000000	99.263026
1894.000000	99.267912
1893.000000	99.268770
1892.000000	99.265095
1891.000000	99.258170
1890.000000	99.253760
1889.000000	99.257725
1888.000000	99.266723
1887.000000	99.268337
1886.000000	99.254496
1885.000000	99.231417
1884.000000	99.213107
1883.000000	99.206853
1882.000000	99.209040
1881.000000	99.213389
1880.000000	99.215482
1879.000000	99.212727
1878.000000	99.208354
1877.000000	99.212488
1876.000000	99.232760
1875.000000	99.264136
1874.000000	99.291986
1873.000000	99.305537
1872.000000	99.305846
1871.000000	99.300513
1870.000000	99.295611
1869.000000	99.291213
1868.000000	99.283489
1867.000000	99.272388
1866.000000	99.261636
1865.000000	99.255182
1864.000000	99.253883
1863.000000	99.253530
1862.000000	99.248421
1861.000000	99.237638
1860.000000	99.225987
1859.000000	99.218927
1858.000000	99.219560
1857.000000	99.229759
1856.000000	99.248592
1855.000000	99.268975
1854.000000	99.280800
1853.000000	99.279180
1852.000000	99.267497
1851.000000	99.251502
1850.000000	99.238333
1849.000000	99.236008
1848.000000	99.247779
1847.000000	99.267147
1846.000000	99.284053
1845.000000	99.296466
1844.000000	99.308870
1843.000000	99.317887
1842.000000	99.315365
1841.000000	99.303797
1840.000000	99.292343
1839.000000	99.285301
1838.000000	99.280449
1837.000000	99.275067
1836.000000	99.271866
1835.000000	99.273335
1834.000000	99.275110
1833.000000	99.270174
1832.000000	99.257072
1831.000000	99.244701
1830.000000	99.246320
1829.000000	99.260403
1828.000000	99.271557
1827.000000	99.270022
1826.000000	99.260350
1825.000000	99.253238
1824.000000	99.252470
1823.000000	99.253743
1822.000000	99.253049
1821.000000	99.251459
1820.000000	99.252061
1819.000000	99.257072
1818.000000	99.266786
1817.000000	99.277556
1816.000000	99.283972
1815.000000	99.282367
1814.000000	99.273186
1813.000000	99.261027
1812.000000	99.251087
1811.000000	99.247702
1810.000000	99.250454
1809.000000	99.253746
1808.000000	99.253335
1807.000000	99.248920
1806.000000	99.241958
1805.000000	99.235036
1804.000000	99.232078
1803.000000	99.234928
1802.000000	99.240140
1801.000000	99.241563
1800.000000	99.236240
1799.000000	99.228245
1798.000000	99.221011
1797.000000	99.216807
1796.000000	99.219889
1795.000000	99.231473
1794.000000	99.245642
1793.000000	99.255706
1792.000000	99.259389
1791.000000	99.258965
1790.000000	99.255288
1789.000000	99.246091
1788.000000	99.231965
1787.000000	99.220286
1786.000000	99.221338
1785.000000	99.237924
1784.000000	99.260362
1783.000000	99.274932
1782.000000	99.277355
1781.000000	99.276392
1780.000000	99.280286
1779.000000	99.288408
1778.000000	99.293421
1777.000000	99.294094
1776.000000	99.297920
1775.000000	99.309538
1774.000000	99.325954
1773.000000	99.343873
1772.000000	99.356938
1771.000000	99.354437
1770.000000	99.337573
1769.000000	99.316838
1768.000000	99.300879
1767.000000	99.292338
1766.000000	99.287097
1765.000000	99.279572
1764.000000	99.268252
1763.000000	99.258187
1762.000000	99.256389
1761.000000	99.260280
1760.000000	99.258692
1759.000000	99.248712
1758.000000	99.236366
1757.000000	99.230969
1756.000000	99.233572
1755.000000	99.236562
1754.000000	99.236751
1753.000000	99.237362
1752.000000	99.241875
1751.000000	99.247468
1750.000000	99.245564
1749.000000	99.234542
1748.000000	99.223696
1747.000000	99.217606
1746.000000	99.213077
1745.000000	99.207962
1744.000000	99.203845
1743.000000	99.203652
1742.000000	99.206999
1741.000000	99.212164
1740.000000	99.223237
1739.000000	99.246869
1738.000000	99.280517
1737.000000	99.318672
1736.000000	99.358329
1735.000000	99.405768
1734.000000	99.464775
1733.000000	99.499818
1732.000000	99.485925
1731.000000	99.447968
1730.000000	99.418228
1729.000000	99.409553
1728.000000	99.416039
1727.000000	99.425045
1726.000000	99.430855
1725.000000	99.435443
1724.000000	99.440640
1723.000000	99.445711
1722.000000	99.447898
1721.000000	99.446976
1720.000000	99.446025
1719.000000	99.450553
1718.000000	99.461965
1717.000000	99.454222
1716.000000	99.406203
1715.000000	99.337639
1714.000000	99.273635
1713.000000	99.221171
1712.000000	99.176787
1711.000000	99.136470
1710.000000	99.098151
1709.000000	99.058958
1708.000000	99.013503
1707.000000	98.958158
1706.000000	98.896573
1705.000000	98.839070
1704.000000	98.799124
1703.000000	98.777640
1702.000000	98.750546
1701.000000	98.695543
1700.000000	98.632511
1699.000000	98.588379
1698.000000	98.545257
1697.000000	98.472905
1696.000000	98.362668
1695.000000	98.249016
1694.000000	98.157492
1693.000000	98.079738
1692.000000	98.008566
1691.000000	97.939792
1690.000000	97.872698
1689.000000	97.817715
1688.000000	97.788388
1687.000000	97.780646
1686.000000	97.760138
1685.000000	97.685291
1684.000000	97.556494
1683.000000	97.422941
1682.000000	97.312385
1681.000000	97.215459
1680.000000	97.124832
1679.000000	97.042184
1678.000000	96.964545
1677.000000	96.876363
1676.000000	96.765753
1675.000000	96.648563
1674.000000	96.551123
1673.000000	96.472106
1672.000000	96.391993
1671.000000	96.295387
1670.000000	96.175318
1669.000000	96.043096
1668.000000	95.923150
1667.000000	95.827653
1666.000000	95.750985
1665.000000	95.675489
1664.000000	95.582762
1663.000000	95.472192
1662.000000	95.361372
1661.000000	95.265172
1660.000000	95.181932
1659.000000	95.106984
1658.000000	95.046076
1657.000000	95.011996
1656.000000	95.008768
1655.000000	95.008036
1654.000000	94.961231
1653.000000	94.857520
1652.000000	94.763836
1651.000000	94.691312
1650.000000	94.628779
1649.000000	94.583272
1648.000000	94.547478
1647.000000	94.508848
1646.000000	94.470697
1645.000000	94.437881
1644.000000	94.404193
1643.000000	94.371643
1642.000000	94.346113
1641.000000	94.328574
1640.000000	94.318694
1639.000000	94.318301
1638.000000	94.321852
1637.000000	94.308987
1636.000000	94.264182
1635.000000	94.205048
1634.000000	94.165135
1633.000000	94.145811
1632.000000	94.139902
1631.000000	94.142228
1630.000000	94.147848
1629.000000	94.156838
1628.000000	94.173649
1627.000000	94.198753
1626.000000	94.228769
1625.000000	94.262783
1624.000000	94.303925
1623.000000	94.355297
1622.000000	94.414158
1621.000000	94.480874
1620.000000	94.560573
1619.000000	94.654323
1618.000000	94.755696
1617.000000	94.858335
1616.000000	94.952754
1615.000000	95.025555
1614.000000	95.083157
1613.000000	95.146389
1612.000000	95.224169
1611.000000	95.308692
1610.000000	95.389683
1609.000000	95.468515
1608.000000	95.550798
1607.000000	95.633527
1606.000000	95.710635
1605.000000	95.785112
1604.000000	95.860955
1603.000000	95.932991
1602.000000	95.993825
1601.000000	96.045622
1600.000000	96.094612
1599.000000	96.139995
1598.000000	96.179197
1597.000000	96.216286
1596.000000	96.256395
1595.000000	96.296691
1594.000000	96.331188
1593.000000	96.360983
1592.000000	96.389051
1591.000000	96.411381
1590.000000	96.423414
1589.000000	96.429955
1588.000000	96.436423
1587.000000	96.436972
1586.000000	96.423137
1585.000000	96.398638
1584.000000	96.373642
1583.000000	96.347881
1582.000000	96.315803
1581.000000	96.282683
1580.000000	96.263086
1579.000000	96.262671
1578.000000	96.270412
1577.000000	96.266949
1576.000000	96.239568
1575.000000	96.187885
1574.000000	96.127662
1573.000000	96.081909
1572.000000	96.053916
1571.000000	96.025134
1570.000000	95.981548
1569.000000	95.934067
1568.000000	95.896638
1567.000000	95.860365
1566.000000	95.816462
1565.000000	95.773474
1564.000000	95.748253
1563.000000	95.745949
1562.000000	95.755610
1561.000000	95.749259
1560.000000	95.701859
1559.000000	95.607381
1558.000000	95.482996
1557.000000	95.387423
1556.000000	95.309374
1555.000000	95.227490
1554.000000	95.139750
1553.000000	95.057345
1552.000000	94.983832
1551.000000	94.915443
1550.000000	94.854309
1549.000000	94.808698
1548.000000	94.777900
1547.000000	94.747101
1546.000000	94.708896
1545.000000	94.673963
1544.000000	94.655064
1543.000000	94.650287
1542.000000	94.651718
1541.000000	94.655559
1540.000000	94.660768
1539.000000	94.660850
1538.000000	94.653521
1537.000000	94.644651
1536.000000	94.647216
1535.000000	94.663114
1534.000000	94.690873
1533.000000	94.731947
1532.000000	94.777430
1531.000000	94.816465
1530.000000	94.845789
1529.000000	94.871229
1528.000000	94.903610
1527.000000	94.948355
1526.000000	95.003975
1525.000000	95.066184
1524.000000	95.129217
1523.000000	95.185517
1522.000000	95.229027
1521.000000	95.256659
1520.000000	95.269215
1519.000000	95.271084
1518.000000	95.275533
1517.000000	95.298537
1516.000000	95.342231
1515.000000	95.393692
1514.000000	95.442032
1513.000000	95.486390
1512.000000	95.529454
1511.000000	95.575870
1510.000000	95.632637
1509.000000	95.709648
1508.000000	95.814061
1507.000000	95.934666
1506.000000	96.029316
1505.000000	96.080769
1504.000000	96.095338
1503.000000	96.101510
1502.000000	96.124087
1501.000000	96.167893
1500.000000	96.225496
1499.000000	96.289897
1498.000000	96.361258
1497.000000	96.435585
1496.000000	96.497972
1495.000000	96.540317
1494.000000	96.571023
1493.000000	96.602451
1492.000000	96.639079
1491.000000	96.681826
1490.000000	96.730278
1489.000000	96.774936
1488.000000	96.809316
1487.000000	96.837441
1486.000000	96.859714
1485.000000	96.874446
1484.000000	96.882013
1483.000000	96.881991
1482.000000	96.877152
1481.000000	96.869400
1480.000000	96.856940
1479.000000	96.835305
1478.000000	96.804360
1477.000000	96.772603
1476.000000	96.750507
1475.000000	96.737364
1474.000000	96.717602
1473.000000	96.678805
1472.000000	96.625267
1471.000000	96.574061
1470.000000	96.531099
1469.000000	96.493004
1468.000000	96.456814
1467.000000	96.419649
1466.000000	96.377052
1465.000000	96.329853
1464.000000	96.285849
1463.000000	96.250055
1462.000000	96.220542
1461.000000	96.195635
1460.000000	96.177099
1459.000000	96.159357
1458.000000	96.128920
1457.000000	96.077952
1456.000000	96.018839
1455.000000	95.962915
1454.000000	95.913893
1453.000000	95.880097
1452.000000	95.861832
1451.000000	95.850363
1450.000000	95.837807
1449.000000	95.823586
1448.000000	95.812122
1447.000000	95.806554
1446.000000	95.806090
1445.000000	95.810518
1444.000000	95.818107
1443.000000	95.825702
1442.000000	95.831627
1441.000000	95.839022
1440.000000	95.850202
1439.000000	95.860055
1438.000000	95.863553
1437.000000	95.868101
1436.000000	95.883353
1435.000000	95.900932
1434.000000	95.912383
1433.000000	95.920397
1432.000000	95.928323
1431.000000	95.934574
1430.000000	95.939584
1429.000000	95.947398
1428.000000	95.958375
1427.000000	95.966454
1426.000000	95.967301
1425.000000	95.967801
1424.000000	95.975757
1423.000000	95.989478
1422.000000	96.002499
1421.000000	96.007175
1420.000000	95.998276
1419.000000	95.980096
1418.000000	95.964796
1417.000000	95.960306
1416.000000	95.963751
1415.000000	95.966492
1414.000000	95.963383
1413.000000	95.957344
1412.000000	95.952558
1411.000000	95.948958
1410.000000	95.946649
1409.000000	95.946665
1408.000000	95.946595
1407.000000	95.942732
1406.000000	95.936008
1405.000000	95.933601
1404.000000	95.937834
1403.000000	95.943258
1402.000000	95.946040
1401.000000	95.948249
1400.000000	95.954677
1399.000000	95.966079
1398.000000	95.981110
1397.000000	96.000997
1396.000000	96.025854
1395.000000	96.050671
1394.000000	96.072980
1393.000000	96.096819
1392.000000	96.120613
1391.000000	96.139280
1390.000000	96.153146
1389.000000	96.168811
1388.000000	96.190446
1387.000000	96.212206
1386.000000	96.226954
1385.000000	96.238616
1384.000000	96.253114
1383.000000	96.269932
1382.000000	96.286726
1381.000000	96.303805
1380.000000	96.322660
1379.000000	96.342206
1378.000000	96.361203
1377.000000	96.381106
1376.000000	96.403372
1375.000000	96.427469
1374.000000	96.454824
1373.000000	96.489661
1372.000000	96.530211
1371.000000	96.567717
1370.000000	96.598988
1369.000000	96.633656
1368.000000	96.679166
1367.000000	96.729380
1366.000000	96.775063
1365.000000	96.816246
1364.000000	96.858826
1363.000000	96.904040
1362.000000	96.947753
1361.000000	96.989311
1360.000000	97.028079
1359.000000	97.059062
1358.000000	97.081448
1357.000000	97.102703
1356.000000	97.127161
1355.000000	97.148140
1354.000000	97.157860
1353.000000	97.157817
1352.000000	97.153633
1351.000000	97.146229
1350.000000	97.133625
1349.000000	97.119122
1348.000000	97.105504
1347.000000	97.089601
1346.000000	97.068746
1345.000000	97.047159
1344.000000	97.028692
1343.000000	97.010236
1342.000000	96.988362
1341.000000	96.966540
1340.000000	96.948536
1339.000000	96.931317
1338.000000	96.914406
1337.000000	96.905196
1336.000000	96.906455
1335.000000	96.911269
1334.000000	96.913765
1333.000000	96.916583
1332.000000	96.923324
1331.000000	96.931382
1330.000000	96.938132
1329.000000	96.947125
1328.000000	96.960518
1327.000000	96.972527
1326.000000	96.977811
1325.000000	96.980374
1324.000000	96.984747
1323.000000	96.987623
1322.000000	96.986372
1321.000000	96.987762
1320.000000	96.999275
1319.000000	97.017561
1318.000000	97.034206
1317.000000	97.047494
1316.000000	97.060884
1315.000000	97.076805
1314.000000	97.098559
1313.000000	97.130453
1312.000000	97.169401
1311.000000	97.203828
1310.000000	97.226833
1309.000000	97.243424
1308.000000	97.260613
1307.000000	97.279092
1306.000000	97.298245
1305.000000	97.320985
1304.000000	97.346268
1303.000000	97.367262
1302.000000	97.382490
1301.000000	97.399816
1300.000000	97.423482
1299.000000	97.447311
1298.000000	97.466711
1297.000000	97.486237
1296.000000	97.508798
1295.000000	97.527612
1294.000000	97.537119
1293.000000	97.540867
1292.000000	97.541495
1291.000000	97.534223
1290.000000	97.518096
1289.000000	97.502869
1288.000000	97.495404
1287.000000	97.489136
1286.000000	97.476056
1285.000000	97.459445
1284.000000	97.445830
1283.000000	97.434738
1282.000000	97.424841
1281.000000	97.420937
1280.000000	97.425668
1279.000000	97.432099
1278.000000	97.433383
1277.000000	97.432051
1276.000000	97.432492
1275.000000	97.432664
1274.000000	97.431090
1273.000000	97.432848
1272.000000	97.440208
1271.000000	97.445369
1270.000000	97.441175
1269.000000	97.431064
1268.000000	97.420699
1267.000000	97.408389
1266.000000	97.391742
1265.000000	97.374334
1264.000000	97.358207
1263.000000	97.338818
1262.000000	97.314701
1261.000000	97.293139
1260.000000	97.278674
1259.000000	97.265513
1258.000000	97.248763
1257.000000	97.232435
1256.000000	97.219142
1255.000000	97.202787
1254.000000	97.178886
1253.000000	97.152412
1252.000000	97.128204
1251.000000	97.103082
1250.000000	97.074477
1249.000000	97.047188
1248.000000	97.024291
1247.000000	97.000380
1246.000000	96.971376
1245.000000	96.941664
1244.000000	96.914710
1243.000000	96.885818
1242.000000	96.851400
1241.000000	96.816535
1240.000000	96.786890
1239.000000	96.762208
1238.000000	96.743354
1237.000000	96.736318
1236.000000	96.742286
1235.000000	96.752879
1234.000000	96.761702
1233.000000	96.771566
1232.000000	96.785224
1231.000000	96.799548
1230.000000	96.815003
1229.000000	96.839879
1228.000000	96.877463
1227.000000	96.920307
1226.000000	96.963936
1225.000000	97.014679
1224.000000	97.075951
1223.000000	97.138025
1222.000000	97.191297
1221.000000	97.239008
1220.000000	97.287675
1219.000000	97.334937
1218.000000	97.376239
1217.000000	97.413308
1216.000000	97.446682
1215.000000	97.469786
1214.000000	97.479132
1213.000000	97.481636
1212.000000	97.483301
1211.000000	97.480386
1210.000000	97.469621
1209.000000	97.456479
1208.000000	97.445641
1207.000000	97.433299
1206.000000	97.416768
1205.000000	97.402086
1204.000000	97.394656
1203.000000	97.391954
1202.000000	97.392160
1201.000000	97.400102
1200.000000	97.417895
1199.000000	97.440643
1198.000000	97.467374
1197.000000	97.504584
1196.000000	97.552182
1195.000000	97.597795
1194.000000	97.633062
1193.000000	97.663926
1192.000000	97.697599
1191.000000	97.731752
1190.000000	97.764113
1189.000000	97.799740
1188.000000	97.839883
1187.000000	97.875707
1186.000000	97.901485
1185.000000	97.922604
1184.000000	97.942950
1183.000000	97.957351
1182.000000	97.964023
1181.000000	97.970528
1180.000000	97.979142
1179.000000	97.979927
1178.000000	97.967462
1177.000000	97.949858
1176.000000	97.932828
1175.000000	97.911046
1174.000000	97.883407
1173.000000	97.860954
1172.000000	97.849543
1171.000000	97.839460
1170.000000	97.822202
1169.000000	97.802528
1168.000000	97.784174
1167.000000	97.759873
1166.000000	97.727051
1165.000000	97.697813
1164.000000	97.680971
1163.000000	97.668617
1162.000000	97.651991
1161.000000	97.635803
1160.000000	97.624956
1159.000000	97.612611
1158.000000	97.594978
1157.000000	97.582780
1156.000000	97.584613
1155.000000	97.592810
1154.000000	97.599177
1153.000000	97.610431
1152.000000	97.633674
1151.000000	97.660698
1150.000000	97.681319
1149.000000	97.699311
1148.000000	97.720778
1147.000000	97.740054
1146.000000	97.751713
1145.000000	97.763410
1144.000000	97.782232
1143.000000	97.800754
1142.000000	97.810373
1141.000000	97.815814
1140.000000	97.823207
1139.000000	97.827417
1138.000000	97.824909
1137.000000	97.825708
1136.000000	97.837930
1135.000000	97.852448
1134.000000	97.856990
1133.000000	97.853906
1132.000000	97.851396
1131.000000	97.848943
1130.000000	97.843412
1129.000000	97.837017
1128.000000	97.827338
1127.000000	97.803354
1126.000000	97.763790
1125.000000	97.725991
1124.000000	97.704441
1123.000000	97.693570
1122.000000	97.682499
1121.000000	97.671907
1120.000000	97.663908
1119.000000	97.650698
1118.000000	97.626794
1117.000000	97.599258
1116.000000	97.573819
1115.000000	97.545389
1114.000000	97.513047
1113.000000	97.488574
1112.000000	97.478168
1111.000000	97.471778
1110.000000	97.462254
1109.000000	97.457466
1108.000000	97.460853
1107.000000	97.459119
1106.000000	97.444111
1105.000000	97.428865
1104.000000	97.426176
1103.000000	97.428180
1102.000000	97.423095
1101.000000	97.415653
1100.000000	97.414286
1099.000000	97.415430
1098.000000	97.414122
1097.000000	97.415913
1096.000000	97.422077
1095.000000	97.418313
1094.000000	97.393753
1093.000000	97.357186
1092.000000	97.320600
1091.000000	97.282908
1090.000000	97.242466
1089.000000	97.208591
1088.000000	97.185472
1087.000000	97.160687
1086.000000	97.123863
1085.000000	97.081002
1084.000000	97.038088
1083.000000	96.988639
1082.000000	96.931984
1081.000000	96.884954
1080.000000	96.859864
1079.000000	96.847336
1078.000000	96.836184
1077.000000	96.832506
1076.000000	96.843413
1075.000000	96.860017
1074.000000	96.872717
1073.000000	96.886543
1072.000000	96.906182
1071.000000	96.922740
1070.000000	96.930175
1069.000000	96.937296
1068.000000	96.948343
1067.000000	96.950481
1066.000000	96.936229
1065.000000	96.920332
1064.000000	96.917777
1063.000000	96.923125
1062.000000	96.926619
1061.000000	96.932357
1060.000000	96.943849
1059.000000	96.950186
1058.000000	96.944081
1057.000000	96.936210
1056.000000	96.935468
1055.000000	96.932152
1054.000000	96.917708
1053.000000	96.903302
1052.000000	96.901302
1051.000000	96.904365
1050.000000	96.901060
1049.000000	96.895637
1048.000000	96.895299
1047.000000	96.895805
1046.000000	96.894921
1045.000000	96.900846
1044.000000	96.912424
1043.000000	96.911297
1042.000000	96.888520
1041.000000	96.860693
1040.000000	96.844197
1039.000000	96.832829
1038.000000	96.815109
1037.000000	96.794025
1036.000000	96.773823
1035.000000	96.747367
1034.000000	96.713261
1033.000000	96.686296
1032.000000	96.674988
1031.000000	96.667726
1030.000000	96.656690
1029.000000	96.654776
1028.000000	96.672503
1027.000000	96.698665
1026.000000	96.721867
1025.000000	96.749516
1024.000000	96.787113
1023.000000	96.819038
1022.000000	96.831004
1021.000000	96.833492
1020.000000	96.843030
1019.000000	96.858067
1018.000000	96.870980
1017.000000	96.886488
1016.000000	96.909437
1015.000000	96.931934
1014.000000	96.949146
1013.000000	96.970907
1012.000000	97.001886
1011.000000	97.029880
1010.000000	97.048614
1009.000000	97.072149
1008.000000	97.110290
1007.000000	97.150462
1006.000000	97.181367
1005.000000	97.213421
1004.000000	97.258182
1003.000000	97.306731
1002.000000	97.347585
1001.000000	97.386833
1000.000000	97.432599
999.000000	97.477319
998.000000	97.513590
997.000000	97.549772
996.000000	97.593140
995.000000	97.635615
994.000000	97.671979
993.000000	97.712863
992.000000	97.762898
991.000000	97.806717
990.000000	97.833811
989.000000	97.858008
988.000000	97.893836
987.000000	97.934425
986.000000	97.970056
985.000000	98.008011
984.000000	98.053914
983.000000	98.093354
982.000000	98.112883
981.000000	98.121214
980.000000	98.131259
979.000000	98.138956
978.000000	98.138787
977.000000	98.140791
976.000000	98.153583
975.000000	98.168272
974.000000	98.177914
973.000000	98.194005
972.000000	98.225497
971.000000	98.260147
970.000000	98.285202
969.000000	98.308134
968.000000	98.338373
967.000000	98.368135
966.000000	98.389796
965.000000	98.413438
964.000000	98.447089
963.000000	98.479245
962.000000	98.499999
961.000000	98.521609
960.000000	98.557672
959.000000	98.599871
958.000000	98.634245
957.000000	98.662892
956.000000	98.691272
955.000000	98.712202
954.000000	98.721800
953.000000	98.732910
952.000000	98.754966
951.000000	98.777549
950.000000	98.791239
949.000000	98.804937
948.000000	98.826129
947.000000	98.844399
946.000000	98.853014
945.000000	98.865447
944.000000	98.891189
943.000000	98.915646
942.000000	98.923761
941.000000	98.924804
940.000000	98.933668
939.000000	98.947701
938.000000	98.960207
937.000000	98.977666
936.000000	99.003673
935.000000	99.025586
934.000000	99.035615
933.000000	99.046135
932.000000	99.065821
931.000000	99.081958
930.000000	99.085459
929.000000	99.090997
928.000000	99.112058
927.000000	99.136311
926.000000	99.147643
925.000000	99.152165
924.000000	99.162511
923.000000	99.175286
922.000000	99.184479
921.000000	99.197245
920.000000	99.216371
919.000000	99.227230
918.000000	99.222721
917.000000	99.221376
916.000000	99.239585
915.000000	99.266025
914.000000	99.282889
913.000000	99.293342
912.000000	99.306188
911.000000	99.314268
910.000000	99.310227
909.000000	99.306037
908.000000	99.314896
907.000000	99.330255
906.000000	99.341532
905.000000	99.352515
904.000000	99.366972
903.000000	99.375289
902.000000	99.373649
901.000000	99.375853
900.000000	99.389525
899.000000	99.401396
898.000000	99.403322
897.000000	99.408701
896.000000	99.425681
895.000000	99.438627
894.000000	99.436248
893.000000	99.433124
892.000000	99.442324
891.000000	99.451594
890.000000	99.447634
889.000000	99.440700
888.000000	99.442451
887.000000	99.443197
886.000000	99.431981
885.000000	99.416304
884.000000	99.399899
883.000000	99.365695
882.000000	99.301842
881.000000	99.221613
880.000000	99.136915
879.000000	99.038625
878.000000	98.924972
877.000000	98.820669
876.000000	98.745485
875.000000	98.691123
874.000000	98.653265
873.000000	98.654478
872.000000	98.710512
871.000000	98.800411
870.000000	98.895974
869.000000	98.992977
868.000000	99.089093
867.000000	99.162807
866.000000	99.202930
865.000000	99.232763
864.000000	99.275714
863.000000	99.321754
862.000000	99.351205
861.000000	99.366765
860.000000	99.376209
859.000000	99.371283
858.000000	99.350687
857.000000	99.338033
856.000000	99.349202
855.000000	99.366365
854.000000	99.369232
853.000000	99.366637
852.000000	99.372839
851.000000	99.378546
850.000000	99.372367
849.000000	99.364829
848.000000	99.366121
847.000000	99.365204
846.000000	99.355766
845.000000	99.355280
844.000000	99.373962
843.000000	99.392669
842.000000	99.396904
841.000000	99.403849
840.000000	99.428492
839.000000	99.452110
838.000000	99.452142
837.000000	99.437824
836.000000	99.428688
835.000000	99.424929
834.000000	99.423924
833.000000	99.437684
832.000000	99.466402
831.000000	99.482574
830.000000	99.469548
829.000000	99.449296
828.000000	99.445031
827.000000	99.445209
826.000000	99.433344
825.000000	99.421067
824.000000	99.420556
823.000000	99.417460
822.000000	99.403850
821.000000	99.401584
820.000000	99.421546
819.000000	99.436063
818.000000	99.423115
817.000000	99.403013
816.000000	99.400601
815.000000	99.404790
814.000000	99.397098
813.000000	99.389313
812.000000	99.398555
811.000000	99.413148
810.000000	99.415624
809.000000	99.414184
808.000000	99.420525
807.000000	99.422587
806.000000	99.408798
805.000000	99.394009
804.000000	99.393768
803.000000	99.398470
802.000000	99.397965
801.000000	99.402909
800.000000	99.417332
799.000000	99.421219
798.000000	99.405950
797.000000	99.394252
796.000000	99.399844
795.000000	99.402808
794.000000	99.391669
793.000000	99.391463
792.000000	99.418749
791.000000	99.444452
790.000000	99.435564
789.000000	99.403169
788.000000	99.377271
787.000000	99.364050
786.000000	99.357893
785.000000	99.365539
784.000000	99.387368
783.000000	99.400797
782.000000	99.391102
781.000000	99.374424
780.000000	99.366818
779.000000	99.358673
778.000000	99.342851
777.000000	99.337178
776.000000	99.353356
775.000000	99.373805
774.000000	99.384017
773.000000	99.397145
772.000000	99.421750
771.000000	99.438451
770.000000	99.435100
769.000000	99.432216
768.000000	99.445805
767.000000	99.457658
766.000000	99.450579
765.000000	99.440253
764.000000	99.443683
763.000000	99.448107
762.000000	99.440189
761.000000	99.433223
760.000000	99.436944
759.000000	99.433260
758.000000	99.412160
757.000000	99.398263
756.000000	99.410694
755.000000	99.428625
754.000000	99.427894
753.000000	99.420526
752.000000	99.426082
751.000000	99.435612
750.000000	99.434852
749.000000	99.433189
748.000000	99.438232
747.000000	99.432591
746.000000	99.406385
745.000000	99.383443
744.000000	99.385201
743.000000	99.398713
742.000000	99.407369
741.000000	99.419270
740.000000	99.437854
739.000000	99.440921
738.000000	99.420570
737.000000	99.407250
736.000000	99.421914
735.000000	99.438232
734.000000	99.426299
733.000000	99.398603
732.000000	99.379874
731.000000	99.366898
730.000000	99.352539
729.000000	99.352533
728.000000	99.373787
727.000000	99.389569
726.000000	99.378581
725.000000	99.360051
724.000000	99.356323
723.000000	99.353895
722.000000	99.334415
721.000000	99.313023
720.000000	99.309824
719.000000	99.312723
718.000000	99.304477
717.000000	99.294566
716.000000	99.289843
715.000000	99.268005
714.000000	99.217542
713.000000	99.171355
712.000000	99.165775
711.000000	99.193204
710.000000	99.227818
709.000000	99.263333
708.000000	99.293689
707.000000	99.293633
706.000000	99.253329
705.000000	99.204162
704.000000	99.176727
703.000000	99.159394
702.000000	99.131979
701.000000	99.108088
700.000000	99.105223
699.000000	99.110191
698.000000	99.105011
697.000000	99.099131
696.000000	99.104359
695.000000	99.106117
694.000000	99.096343
693.000000	99.097642
692.000000	99.118763
691.000000	99.129759
690.000000	99.111627
689.000000	99.092192
688.000000	99.097104
687.000000	99.102951
686.000000	99.088568
685.000000	99.080641
684.000000	99.101368
683.000000	99.120970
682.000000	99.108325
681.000000	99.083513
680.000000	99.074636
679.000000	99.067923
678.000000	99.045747
677.000000	99.024481
676.000000	99.021991
675.000000	99.021240
674.000000	99.005791
673.000000	98.996171
672.000000	99.015642
671.000000	99.056782
670.000000	99.108938
669.000000	99.173948
668.000000	99.187340
667.000000	99.078642
666.000000	98.972501
665.000000	98.926906
664.000000	98.919854
663.000000	98.918871
662.000000	98.901776
661.000000	98.880210
660.000000	98.873081
659.000000	98.874869
658.000000	98.876552
657.000000	98.882643
656.000000	98.896670
655.000000	98.905310
654.000000	98.898090
653.000000	98.886283
652.000000	98.883859
651.000000	98.886212
650.000000	98.888737
649.000000	98.900766
648.000000	98.921899
647.000000	98.930154
646.000000	98.914130
645.000000	98.895709
644.000000	98.892560
643.000000	98.888933
642.000000	98.872870
641.000000	98.863746
640.000000	98.873301
639.000000	98.877254
638.000000	98.856092
637.000000	98.830409
636.000000	98.826092
635.000000	98.832179
634.000000	98.829750
633.000000	98.828057
632.000000	98.835931
631.000000	98.835112
630.000000	98.816712
629.000000	98.806191
628.000000	98.818574
627.000000	98.826187
626.000000	98.803376
625.000000	98.772544
624.000000	98.762701
623.000000	98.761766
622.000000	98.751073
621.000000	98.746896
620.000000	98.763327
619.000000	98.774918
618.000000	98.759761
617.000000	98.743791
616.000000	98.756852
615.000000	98.782272
614.000000	98.792433
613.000000	98.791182
612.000000	98.782540
611.000000	98.744301
610.000000	98.677892
609.000000	98.635519
608.000000	98.650776
607.000000	98.683354
606.000000	98.681976
605.000000	98.661774
604.000000	98.663251
603.000000	98.678052
602.000000	98.672902
601.000000	98.649805
600.000000	98.630358
599.000000	98.617234
598.000000	98.615687
597.000000	98.650458
596.000000	98.716222
595.000000	98.757720
594.000000	98.742114
593.000000	98.709411
592.000000	98.705925
591.000000	98.717036
590.000000	98.713839
589.000000	98.709829
588.000000	98.718524
587.000000	98.710971
586.000000	98.668315
585.000000	98.624970
584.000000	98.612720
583.000000	98.611229
582.000000	98.603760
581.000000	98.619726
580.000000	98.671476
579.000000	98.708847
578.000000	98.694820
577.000000	98.664310
576.000000	98.654990
575.000000	98.644598
574.000000	98.611768
573.000000	98.591767
572.000000	98.608182
571.000000	98.620537
570.000000	98.594981
569.000000	98.568784
568.000000	98.578503
567.000000	98.590122
566.000000	98.566044
565.000000	98.534664
564.000000	98.532541
563.000000	98.545281
562.000000	98.564026
561.000000	98.623637
560.000000	98.721198
559.000000	98.771275
558.000000	98.720384
557.000000	98.635835
556.000000	98.609657
555.000000	98.641412
554.000000	98.681781
553.000000	98.716576
552.000000	98.731977
551.000000	98.674464
550.000000	98.534547
549.000000	98.406824
548.000000	98.378261
547.000000	98.422008
546.000000	98.467904
545.000000	98.510598
544.000000	98.568672
543.000000	98.609400
542.000000	98.601170
541.000000	98.580741
540.000000	98.589697
539.000000	98.599578
538.000000	98.570670
537.000000	98.526189
536.000000	98.502381
535.000000	98.483891
534.000000	98.455355
533.000000	98.447345
532.000000	98.474185
531.000000	98.490820
530.000000	98.470341
529.000000	98.450371
528.000000	98.448919
527.000000	98.415495
526.000000	98.332765
525.000000	98.281934
524.000000	98.312575
523.000000	98.360062
522.000000	98.371014
521.000000	98.396521
520.000000	98.486750
519.000000	98.582420
518.000000	98.605450
517.000000	98.590547
516.000000	98.610651
515.000000	98.653867
514.000000	98.682473
513.000000	98.717927
512.000000	98.779766
511.000000	98.817452
510.000000	98.791126
509.000000	98.749596
508.000000	98.748837
507.000000	98.757615
506.000000	98.726430
505.000000	98.678569
504.000000	98.651200
503.000000	98.634838
502.000000	98.641433
501.000000	98.734183
500.000000	98.904977
499.000000	99.033354
498.000000	99.040723
497.000000	98.990594
496.000000	98.974113
495.000000	98.983143
494.000000	98.976097
493.000000	98.976900
492.000000	99.008429
491.000000	99.010921
490.000000	98.937727
489.000000	98.845010
488.000000	98.796112
487.000000	98.771216
486.000000	98.748434
485.000000	98.775564
484.000000	98.867903
483.000000	98.929226
482.000000	98.893351
481.000000	98.836695
480.000000	98.848575
479.000000	98.904907
478.000000	98.958787
477.000000	99.036444
476.000000	99.142651
475.000000	99.182214
474.000000	99.097075
473.000000	98.988948
472.000000	98.975615
471.000000	99.005664
470.000000	98.987980
469.000000	98.956529
468.000000	98.959735
467.000000	98.942739
466.000000	98.862186
465.000000	98.794122
464.000000	98.799551
463.000000	98.814010
462.000000	98.781466
461.000000	98.776828
460.000000	98.865963
459.000000	98.972030
458.000000	99.010947
457.000000	99.060573
456.000000	99.207023
455.000000	99.437870
454.000000	99.511075
453.000000	99.539045
452.000000	99.537185
451.000000	99.469190
450.000000	99.363420
