PE IR       SUBTECH     SPECTRUM    ASCII       PEDS        4.00        
   -1
Veau1-C002_1.ASC
23/09/14
14:15:41.00
23/09/14
14:38:06.00
uco
Sample 002 By uco Date Thursday, September 14 2023
450.000000
#HDR
-1
-1
#GR
cm-1
%T
1.0
0.0
4000.000000
-1.000000
3551
8
99.575680
94.482262
#DATA
4000.000000	99.441777
3999.000000	99.443452
3998.000000	99.445263
3997.000000	99.449463
3996.000000	99.453365
3995.000000	99.454498
3994.000000	99.452110
3993.000000	99.446870
3992.000000	99.439848
3991.000000	99.432223
3990.000000	99.425588
3989.000000	99.421675
3988.000000	99.421291
3987.000000	99.423629
3986.000000	99.426731
3985.000000	99.428649
3984.000000	99.428257
3983.000000	99.425701
3982.000000	99.422567
3981.000000	99.421334
3980.000000	99.423769
3979.000000	99.429173
3978.000000	99.434441
3977.000000	99.436255
3976.000000	99.433481
3975.000000	99.427735
3974.000000	99.421882
3973.000000	99.418378
3972.000000	99.418577
3971.000000	99.422481
3970.000000	99.428389
3969.000000	99.432950
3968.000000	99.432864
3967.000000	99.427351
3966.000000	99.419053
3965.000000	99.412305
3964.000000	99.410011
3963.000000	99.412028
3962.000000	99.416134
3961.000000	99.420136
3960.000000	99.423115
3959.000000	99.424857
3958.000000	99.425057
3957.000000	99.423391
3956.000000	99.420080
3955.000000	99.416048
3954.000000	99.412499
3953.000000	99.410498
3952.000000	99.410547
3951.000000	99.412196
3950.000000	99.413913
3949.000000	99.413852
3948.000000	99.411599
3947.000000	99.408965
3946.000000	99.408532
3945.000000	99.411325
3944.000000	99.415957
3943.000000	99.419734
3942.000000	99.420709
3941.000000	99.418908
3940.000000	99.415556
3939.000000	99.411465
3938.000000	99.406885
3937.000000	99.402463
3936.000000	99.399436
3935.000000	99.398816
3934.000000	99.400532
3933.000000	99.403305
3932.000000	99.405181
3931.000000	99.404647
3930.000000	99.401844
3929.000000	99.398668
3928.000000	99.397654
3927.000000	99.400440
3926.000000	99.406323
3925.000000	99.412193
3924.000000	99.414683
3923.000000	99.412883
3922.000000	99.408389
3921.000000	99.403237
3920.000000	99.398736
3919.000000	99.395542
3918.000000	99.394086
3917.000000	99.394870
3916.000000	99.398346
3915.000000	99.404157
3914.000000	99.410404
3913.000000	99.414376
3912.000000	99.414694
3911.000000	99.412450
3910.000000	99.410367
3909.000000	99.410266
3908.000000	99.411514
3907.000000	99.411730
3906.000000	99.409057
3905.000000	99.404447
3904.000000	99.401251
3903.000000	99.401907
3902.000000	99.405205
3901.000000	99.407353
3900.000000	99.405893
3899.000000	99.402234
3898.000000	99.399838
3897.000000	99.400668
3896.000000	99.404073
3895.000000	99.408546
3894.000000	99.413489
3893.000000	99.418259
3892.000000	99.420364
3891.000000	99.417023
3890.000000	99.409948
3889.000000	99.404385
3888.000000	99.402528
3887.000000	99.401975
3886.000000	99.399509
3885.000000	99.395274
3884.000000	99.394193
3883.000000	99.400660
3882.000000	99.412141
3881.000000	99.420530
3880.000000	99.419265
3879.000000	99.410400
3878.000000	99.402557
3877.000000	99.400807
3876.000000	99.403004
3875.000000	99.404561
3874.000000	99.403273
3873.000000	99.400780
3872.000000	99.399825
3871.000000	99.400502
3870.000000	99.400160
3869.000000	99.397069
3868.000000	99.393463
3867.000000	99.391683
3866.000000	99.391027
3865.000000	99.391240
3864.000000	99.393709
3863.000000	99.398229
3862.000000	99.402465
3861.000000	99.404268
3860.000000	99.403883
3859.000000	99.402893
3858.000000	99.402124
3857.000000	99.400915
3856.000000	99.398445
3855.000000	99.395685
3854.000000	99.393979
3853.000000	99.391078
3852.000000	99.387283
3851.000000	99.389179
3850.000000	99.397467
3849.000000	99.406427
3848.000000	99.412313
3847.000000	99.415049
3846.000000	99.416272
3845.000000	99.417855
3844.000000	99.421180
3843.000000	99.426876
3842.000000	99.434511
3841.000000	99.441547
3840.000000	99.443701
3839.000000	99.437977
3838.000000	99.426318
3837.000000	99.414875
3836.000000	99.408490
3835.000000	99.407531
3834.000000	99.409664
3833.000000	99.412976
3832.000000	99.416752
3831.000000	99.420152
3830.000000	99.421703
3829.000000	99.420012
3828.000000	99.414861
3827.000000	99.407994
3826.000000	99.402649
3825.000000	99.401293
3824.000000	99.403969
3823.000000	99.408885
3822.000000	99.413850
3821.000000	99.416167
3820.000000	99.415221
3819.000000	99.415251
3818.000000	99.419366
3817.000000	99.425649
3816.000000	99.429716
3815.000000	99.428902
3814.000000	99.425269
3813.000000	99.422193
3812.000000	99.419917
3811.000000	99.417825
3810.000000	99.416780
3809.000000	99.418141
3808.000000	99.421859
3807.000000	99.425894
3806.000000	99.428623
3805.000000	99.431107
3804.000000	99.433857
3803.000000	99.434137
3802.000000	99.428927
3801.000000	99.418446
3800.000000	99.408264
3799.000000	99.405227
3798.000000	99.409984
3797.000000	99.417983
3796.000000	99.424528
3795.000000	99.427433
3794.000000	99.427025
3793.000000	99.424049
3792.000000	99.419092
3791.000000	99.413840
3790.000000	99.411056
3789.000000	99.412459
3788.000000	99.417059
3787.000000	99.421802
3786.000000	99.423652
3785.000000	99.421486
3784.000000	99.416612
3783.000000	99.411394
3782.000000	99.407206
3781.000000	99.403924
3780.000000	99.401369
3779.000000	99.400665
3778.000000	99.403758
3777.000000	99.410869
3776.000000	99.418747
3775.000000	99.422679
3774.000000	99.420828
3773.000000	99.415835
3772.000000	99.412013
3771.000000	99.411189
3770.000000	99.411431
3769.000000	99.410337
3768.000000	99.409139
3767.000000	99.411074
3766.000000	99.416923
3765.000000	99.424441
3764.000000	99.431217
3763.000000	99.436799
3762.000000	99.441287
3761.000000	99.444082
3760.000000	99.444623
3759.000000	99.442996
3758.000000	99.440459
3757.000000	99.439173
3756.000000	99.440365
3755.000000	99.443014
3754.000000	99.444880
3753.000000	99.445126
3752.000000	99.444872
3751.000000	99.443660
3750.000000	99.438086
3749.000000	99.428091
3748.000000	99.419220
3747.000000	99.415734
3746.000000	99.417863
3745.000000	99.423335
3744.000000	99.426395
3743.000000	99.426048
3742.000000	99.429432
3741.000000	99.436923
3740.000000	99.442742
3739.000000	99.444387
3738.000000	99.443232
3737.000000	99.441877
3736.000000	99.442663
3735.000000	99.446611
3734.000000	99.452119
3733.000000	99.454981
3732.000000	99.451522
3731.000000	99.442762
3730.000000	99.433374
3729.000000	99.426481
3728.000000	99.421773
3727.000000	99.418517
3726.000000	99.418057
3725.000000	99.422964
3724.000000	99.433268
3723.000000	99.444472
3722.000000	99.450474
3721.000000	99.448341
3720.000000	99.440174
3719.000000	99.430500
3718.000000	99.423208
3717.000000	99.420058
3716.000000	99.420578
3715.000000	99.423060
3714.000000	99.426415
3713.000000	99.431620
3712.000000	99.439424
3711.000000	99.447201
3710.000000	99.451370
3709.000000	99.451996
3708.000000	99.451319
3707.000000	99.450100
3706.000000	99.447357
3705.000000	99.442040
3704.000000	99.434671
3703.000000	99.427353
3702.000000	99.422801
3701.000000	99.422658
3700.000000	99.427280
3699.000000	99.435517
3698.000000	99.444330
3697.000000	99.450391
3696.000000	99.452568
3695.000000	99.452094
3694.000000	99.449998
3693.000000	99.445762
3692.000000	99.438778
3691.000000	99.430869
3690.000000	99.425762
3689.000000	99.424987
3688.000000	99.425541
3687.000000	99.424817
3686.000000	99.423542
3685.000000	99.422617
3684.000000	99.422838
3683.000000	99.425612
3682.000000	99.431280
3681.000000	99.437520
3680.000000	99.441182
3679.000000	99.442068
3678.000000	99.443657
3677.000000	99.449546
3676.000000	99.457510
3675.000000	99.458373
3674.000000	99.449689
3673.000000	99.439450
3672.000000	99.431790
3671.000000	99.425523
3670.000000	99.419787
3669.000000	99.414397
3668.000000	99.410917
3667.000000	99.411782
3666.000000	99.416710
3665.000000	99.422907
3664.000000	99.426735
3663.000000	99.424766
3662.000000	99.415797
3661.000000	99.402433
3660.000000	99.389577
3659.000000	99.381467
3658.000000	99.379817
3657.000000	99.384185
3656.000000	99.392374
3655.000000	99.401953
3654.000000	99.411379
3653.000000	99.417923
3652.000000	99.418187
3651.000000	99.411461
3650.000000	99.400071
3649.000000	99.386528
3648.000000	99.372509
3647.000000	99.360185
3646.000000	99.351911
3645.000000	99.348526
3644.000000	99.349358
3643.000000	99.353323
3642.000000	99.359309
3641.000000	99.365686
3640.000000	99.370336
3639.000000	99.371444
3638.000000	99.368522
3637.000000	99.362898
3636.000000	99.356673
3635.000000	99.351147
3634.000000	99.346172
3633.000000	99.340803
3632.000000	99.334257
3631.000000	99.326694
3630.000000	99.320361
3629.000000	99.317362
3628.000000	99.316454
3627.000000	99.317533
3626.000000	99.321082
3625.000000	99.323283
3624.000000	99.320425
3623.000000	99.313117
3622.000000	99.304854
3621.000000	99.299006
3620.000000	99.296612
3619.000000	99.295493
3618.000000	99.293008
3617.000000	99.289462
3616.000000	99.286158
3615.000000	99.282790
3614.000000	99.278562
3613.000000	99.273720
3612.000000	99.269162
3611.000000	99.265056
3610.000000	99.260016
3609.000000	99.252624
3608.000000	99.244003
3607.000000	99.237881
3606.000000	99.237189
3605.000000	99.240797
3604.000000	99.244521
3603.000000	99.244721
3602.000000	99.240877
3601.000000	99.235169
3600.000000	99.229947
3599.000000	99.225757
3598.000000	99.221660
3597.000000	99.216995
3596.000000	99.211690
3595.000000	99.205658
3594.000000	99.198510
3593.000000	99.190612
3592.000000	99.183129
3591.000000	99.176905
3590.000000	99.171861
3589.000000	99.167288
3588.000000	99.161274
3587.000000	99.151401
3586.000000	99.138685
3585.000000	99.127637
3584.000000	99.120877
3583.000000	99.117061
3582.000000	99.113809
3581.000000	99.110376
3580.000000	99.107821
3579.000000	99.107249
3578.000000	99.108278
3577.000000	99.109713
3576.000000	99.111039
3575.000000	99.112686
3574.000000	99.114687
3573.000000	99.115771
3572.000000	99.113907
3571.000000	99.107528
3570.000000	99.095915
3569.000000	99.079533
3568.000000	99.060612
3567.000000	99.043067
3566.000000	99.030808
3565.000000	99.025435
3564.000000	99.025173
3563.000000	99.026739
3562.000000	99.028273
3561.000000	99.029717
3560.000000	99.030709
3559.000000	99.029537
3558.000000	99.024690
3557.000000	99.016373
3556.000000	99.005890
3555.000000	98.994102
3554.000000	98.981386
3553.000000	98.968979
3552.000000	98.959137
3551.000000	98.953149
3550.000000	98.949698
3549.000000	98.946029
3548.000000	98.940570
3547.000000	98.933962
3546.000000	98.927544
3545.000000	98.921453
3544.000000	98.914952
3543.000000	98.907922
3542.000000	98.901271
3541.000000	98.895857
3540.000000	98.891322
3539.000000	98.885984
3538.000000	98.878047
3537.000000	98.867124
3536.000000	98.854652
3535.000000	98.842977
3534.000000	98.834025
3533.000000	98.828690
3532.000000	98.826913
3531.000000	98.828047
3530.000000	98.830912
3529.000000	98.833697
3528.000000	98.834321
3527.000000	98.831572
3526.000000	98.826100
3525.000000	98.819682
3524.000000	98.813325
3523.000000	98.806736
3522.000000	98.800011
3521.000000	98.794687
3520.000000	98.791915
3519.000000	98.790111
3518.000000	98.785893
3517.000000	98.777869
3516.000000	98.768653
3515.000000	98.762519
3514.000000	98.761597
3513.000000	98.764422
3512.000000	98.767210
3511.000000	98.766073
3510.000000	98.759224
3509.000000	98.748326
3508.000000	98.737394
3507.000000	98.729414
3506.000000	98.723909
3505.000000	98.717993
3504.000000	98.709426
3503.000000	98.698707
3502.000000	98.688607
3501.000000	98.681894
3500.000000	98.679268
3499.000000	98.679064
3498.000000	98.678686
3497.000000	98.676313
3496.000000	98.671624
3495.000000	98.665579
3494.000000	98.660121
3493.000000	98.657591
3492.000000	98.659108
3491.000000	98.663020
3490.000000	98.665604
3489.000000	98.663758
3488.000000	98.656673
3487.000000	98.645174
3486.000000	98.630831
3485.000000	98.616271
3484.000000	98.604969
3483.000000	98.599161
3482.000000	98.597970
3481.000000	98.598544
3480.000000	98.598693
3479.000000	98.597443
3478.000000	98.593840
3477.000000	98.587065
3476.000000	98.578030
3475.000000	98.569555
3474.000000	98.564363
3473.000000	98.563269
3472.000000	98.565020
3471.000000	98.566979
3470.000000	98.566253
3469.000000	98.561600
3468.000000	98.554708
3467.000000	98.548773
3466.000000	98.545307
3465.000000	98.542956
3464.000000	98.539337
3463.000000	98.533070
3462.000000	98.523905
3461.000000	98.512359
3460.000000	98.500253
3459.000000	98.490801
3458.000000	98.486736
3457.000000	98.488057
3456.000000	98.491757
3455.000000	98.493754
3454.000000	98.491153
3453.000000	98.483605
3452.000000	98.473456
3451.000000	98.464580
3450.000000	98.460084
3449.000000	98.460339
3448.000000	98.462637
3447.000000	98.462667
3446.000000	98.457228
3445.000000	98.446671
3444.000000	98.435164
3443.000000	98.428279
3442.000000	98.429168
3441.000000	98.436079
3440.000000	98.443681
3439.000000	98.447034
3438.000000	98.444581
3437.000000	98.438119
3436.000000	98.430639
3435.000000	98.424140
3434.000000	98.418766
3433.000000	98.413563
3432.000000	98.407977
3431.000000	98.402610
3430.000000	98.398387
3429.000000	98.395193
3428.000000	98.391657
3427.000000	98.386290
3426.000000	98.378593
3425.000000	98.369071
3424.000000	98.358650
3423.000000	98.348539
3422.000000	98.340456
3421.000000	98.336106
3420.000000	98.335694
3419.000000	98.337157
3418.000000	98.337697
3417.000000	98.336333
3416.000000	98.334434
3415.000000	98.333427
3414.000000	98.332378
3413.000000	98.328564
3412.000000	98.320451
3411.000000	98.309468
3410.000000	98.298730
3409.000000	98.290413
3408.000000	98.284408
3407.000000	98.278881
3406.000000	98.272007
3405.000000	98.263786
3404.000000	98.256426
3403.000000	98.252328
3402.000000	98.251260
3401.000000	98.250136
3400.000000	98.246040
3399.000000	98.239002
3398.000000	98.231335
3397.000000	98.224889
3396.000000	98.219919
3395.000000	98.216191
3394.000000	98.213772
3393.000000	98.212237
3392.000000	98.210173
3391.000000	98.206390
3390.000000	98.201157
3389.000000	98.195558
3388.000000	98.190116
3387.000000	98.184837
3386.000000	98.180223
3385.000000	98.177020
3384.000000	98.174549
3383.000000	98.170311
3382.000000	98.162156
3381.000000	98.150599
3380.000000	98.138375
3379.000000	98.127851
3378.000000	98.119466
3377.000000	98.112582
3376.000000	98.107024
3375.000000	98.103363
3374.000000	98.102179
3373.000000	98.103501
3372.000000	98.106586
3371.000000	98.109679
3370.000000	98.110177
3369.000000	98.106002
3368.000000	98.097481
3367.000000	98.087652
3366.000000	98.079971
3365.000000	98.075278
3364.000000	98.071049
3363.000000	98.063833
3362.000000	98.052477
3361.000000	98.039047
3360.000000	98.026795
3359.000000	98.017410
3358.000000	98.010191
3357.000000	98.003470
3356.000000	97.996468
3355.000000	97.989830
3354.000000	97.984647
3353.000000	97.981027
3352.000000	97.977519
3351.000000	97.972109
3350.000000	97.964149
3349.000000	97.955251
3348.000000	97.947753
3347.000000	97.941972
3346.000000	97.935418
3345.000000	97.925372
3344.000000	97.912175
3343.000000	97.899416
3342.000000	97.890553
3341.000000	97.885691
3340.000000	97.881918
3339.000000	97.876534
3338.000000	97.869552
3337.000000	97.863137
3336.000000	97.859013
3335.000000	97.856630
3334.000000	97.853641
3333.000000	97.847797
3332.000000	97.838424
3331.000000	97.826678
3330.000000	97.814962
3329.000000	97.805917
3328.000000	97.801099
3327.000000	97.799880
3326.000000	97.799616
3325.000000	97.797355
3324.000000	97.791677
3323.000000	97.782857
3322.000000	97.771615
3321.000000	97.758639
3320.000000	97.745607
3319.000000	97.735637
3318.000000	97.731144
3317.000000	97.730797
3316.000000	97.729557
3315.000000	97.722754
3314.000000	97.710126
3313.000000	97.695573
3312.000000	97.683434
3311.000000	97.675574
3310.000000	97.671556
3309.000000	97.670232
3308.000000	97.670384
3307.000000	97.670266
3306.000000	97.667474
3305.000000	97.659956
3304.000000	97.647725
3303.000000	97.633675
3302.000000	97.622008
3301.000000	97.615037
3300.000000	97.611663
3299.000000	97.609474
3298.000000	97.607820
3297.000000	97.607912
3296.000000	97.610256
3295.000000	97.613248
3294.000000	97.614543
3293.000000	97.612666
3292.000000	97.607115
3291.000000	97.598463
3290.000000	97.589085
3289.000000	97.582335
3288.000000	97.579573
3287.000000	97.578664
3286.000000	97.576604
3285.000000	97.573045
3284.000000	97.570157
3283.000000	97.569611
3282.000000	97.570915
3281.000000	97.572488
3280.000000	97.573123
3279.000000	97.572446
3278.000000	97.571233
3277.000000	97.571334
3276.000000	97.574126
3275.000000	97.578688
3274.000000	97.582350
3273.000000	97.583112
3272.000000	97.580945
3271.000000	97.577016
3270.000000	97.572843
3269.000000	97.570307
3268.000000	97.571091
3267.000000	97.575310
3266.000000	97.581227
3265.000000	97.586744
3264.000000	97.590764
3263.000000	97.593086
3262.000000	97.593930
3261.000000	97.594053
3260.000000	97.594695
3259.000000	97.596796
3258.000000	97.600467
3257.000000	97.605365
3256.000000	97.611283
3255.000000	97.618459
3254.000000	97.627629
3253.000000	97.639516
3252.000000	97.653560
3251.000000	97.667331
3250.000000	97.678127
3249.000000	97.685291
3248.000000	97.690235
3247.000000	97.694274
3246.000000	97.697342
3245.000000	97.698854
3244.000000	97.698824
3243.000000	97.697849
3242.000000	97.696970
3241.000000	97.697832
3240.000000	97.701759
3239.000000	97.708026
3238.000000	97.713981
3237.000000	97.717654
3236.000000	97.719734
3235.000000	97.722452
3234.000000	97.727120
3233.000000	97.733195
3232.000000	97.738964
3231.000000	97.742614
3230.000000	97.743373
3229.000000	97.742469
3228.000000	97.742609
3227.000000	97.745744
3226.000000	97.751505
3225.000000	97.758180
3224.000000	97.764675
3223.000000	97.770915
3222.000000	97.776643
3221.000000	97.780752
3220.000000	97.782109
3219.000000	97.781005
3218.000000	97.779802
3217.000000	97.781979
3216.000000	97.789908
3215.000000	97.802891
3214.000000	97.817224
3213.000000	97.828453
3212.000000	97.833934
3211.000000	97.834139
3210.000000	97.832235
3209.000000	97.832021
3208.000000	97.835181
3207.000000	97.840194
3206.000000	97.844595
3205.000000	97.848168
3204.000000	97.853122
3203.000000	97.861159
3202.000000	97.871386
3201.000000	97.881412
3200.000000	97.889476
3199.000000	97.895058
3198.000000	97.898246
3197.000000	97.899313
3196.000000	97.898675
3195.000000	97.897003
3194.000000	97.895625
3193.000000	97.896588
3192.000000	97.901394
3191.000000	97.909432
3190.000000	97.918324
3189.000000	97.925884
3188.000000	97.931233
3187.000000	97.934500
3186.000000	97.936823
3185.000000	97.940472
3184.000000	97.947180
3183.000000	97.955942
3182.000000	97.963920
3181.000000	97.969950
3180.000000	97.975446
3179.000000	97.981367
3178.000000	97.986422
3177.000000	97.989628
3176.000000	97.992582
3175.000000	97.997132
3174.000000	98.002280
3173.000000	98.005784
3172.000000	98.008025
3171.000000	98.011994
3170.000000	98.019516
3169.000000	98.029509
3168.000000	98.039994
3167.000000	98.050081
3166.000000	98.059711
3165.000000	98.069127
3164.000000	98.079160
3163.000000	98.090617
3162.000000	98.102649
3161.000000	98.112730
3160.000000	98.118979
3159.000000	98.122006
3158.000000	98.124159
3157.000000	98.127605
3156.000000	98.133273
3155.000000	98.140746
3154.000000	98.148551
3153.000000	98.154938
3152.000000	98.158908
3151.000000	98.160548
3150.000000	98.160759
3149.000000	98.161072
3148.000000	98.163260
3147.000000	98.168110
3146.000000	98.174564
3145.000000	98.180916
3144.000000	98.186860
3143.000000	98.193558
3142.000000	98.201635
3141.000000	98.210173
3140.000000	98.217986
3139.000000	98.224910
3138.000000	98.231332
3137.000000	98.237390
3136.000000	98.243285
3135.000000	98.249526
3134.000000	98.255923
3133.000000	98.260919
3132.000000	98.263192
3131.000000	98.263762
3130.000000	98.265338
3129.000000	98.269249
3128.000000	98.273884
3127.000000	98.276665
3126.000000	98.276968
3125.000000	98.276466
3124.000000	98.277215
3123.000000	98.280418
3122.000000	98.286694
3121.000000	98.295869
3120.000000	98.305699
3119.000000	98.312205
3118.000000	98.313028
3117.000000	98.310149
3116.000000	98.307756
3115.000000	98.307239
3114.000000	98.306068
3113.000000	98.302246
3112.000000	98.298152
3111.000000	98.298398
3110.000000	98.304425
3109.000000	98.312597
3108.000000	98.317603
3107.000000	98.316994
3106.000000	98.312421
3105.000000	98.307512
3104.000000	98.304872
3103.000000	98.304509
3102.000000	98.304524
3101.000000	98.303146
3100.000000	98.300099
3099.000000	98.296190
3098.000000	98.292187
3097.000000	98.288448
3096.000000	98.285133
3095.000000	98.282222
3094.000000	98.279636
3093.000000	98.277715
3092.000000	98.277124
3091.000000	98.277719
3090.000000	98.277888
3089.000000	98.275715
3088.000000	98.270844
3087.000000	98.264839
3086.000000	98.259804
3085.000000	98.256728
3084.000000	98.254750
3083.000000	98.251775
3082.000000	98.246545
3081.000000	98.240642
3080.000000	98.237718
3079.000000	98.239789
3078.000000	98.244675
3077.000000	98.247969
3076.000000	98.247248
3075.000000	98.243606
3074.000000	98.239574
3073.000000	98.236798
3072.000000	98.235860
3071.000000	98.237037
3070.000000	98.240246
3069.000000	98.244409
3068.000000	98.247520
3067.000000	98.247757
3066.000000	98.244864
3065.000000	98.240465
3064.000000	98.236622
3063.000000	98.234059
3062.000000	98.232474
3061.000000	98.232728
3060.000000	98.237387
3059.000000	98.247756
3058.000000	98.260736
3057.000000	98.270179
3056.000000	98.272235
3055.000000	98.269034
3054.000000	98.266711
3053.000000	98.269755
3052.000000	98.277191
3051.000000	98.284061
3050.000000	98.286776
3049.000000	98.287005
3048.000000	98.289592
3047.000000	98.296721
3046.000000	98.305462
3045.000000	98.311701
3044.000000	98.315055
3043.000000	98.318569
3042.000000	98.324598
3041.000000	98.332728
3040.000000	98.341328
3039.000000	98.349106
3038.000000	98.354872
3037.000000	98.357487
3036.000000	98.357189
3035.000000	98.356258
3034.000000	98.357556
3033.000000	98.362443
3032.000000	98.370004
3031.000000	98.377695
3030.000000	98.382887
3029.000000	98.384815
3028.000000	98.385470
3027.000000	98.388124
3026.000000	98.394587
3025.000000	98.403986
3024.000000	98.413954
3023.000000	98.422492
3022.000000	98.428833
3021.000000	98.433424
3020.000000	98.437434
3019.000000	98.441866
3018.000000	98.447037
3017.000000	98.453103
3016.000000	98.460604
3015.000000	98.469723
3014.000000	98.479235
3013.000000	98.487180
3012.000000	98.492704
3011.000000	98.496520
3010.000000	98.499653
3009.000000	98.502578
3008.000000	98.505557
3007.000000	98.508682
3006.000000	98.511204
3005.000000	98.511843
3004.000000	98.510339
3003.000000	98.508103
3002.000000	98.506729
3001.000000	98.506336
3000.000000	98.505823
2999.000000	98.504240
2998.000000	98.501441
2997.000000	98.497720
2996.000000	98.493503
2995.000000	98.489465
2994.000000	98.486577
2993.000000	98.485627
2992.000000	98.486435
2991.000000	98.487558
2990.000000	98.487076
2989.000000	98.483851
2988.000000	98.477848
2987.000000	98.469450
2986.000000	98.459256
2985.000000	98.448778
2984.000000	98.440242
2983.000000	98.434740
2982.000000	98.431192
2981.000000	98.428099
2980.000000	98.425820
2979.000000	98.425909
2978.000000	98.428347
2977.000000	98.430759
2976.000000	98.430725
2975.000000	98.428139
2974.000000	98.424976
2973.000000	98.423198
2972.000000	98.423042
2971.000000	98.422991
2970.000000	98.421450
2969.000000	98.418558
2968.000000	98.415819
2967.000000	98.413789
2966.000000	98.411090
2965.000000	98.406490
2964.000000	98.400798
2963.000000	98.395350
2962.000000	98.389679
2961.000000	98.382655
2960.000000	98.375550
2959.000000	98.371734
2958.000000	98.372967
2957.000000	98.377572
2956.000000	98.382712
2955.000000	98.387029
2954.000000	98.390704
2953.000000	98.394252
2952.000000	98.397821
2951.000000	98.400663
2950.000000	98.401122
2949.000000	98.398430
2948.000000	98.394716
2947.000000	98.393785
2946.000000	98.397378
2945.000000	98.403939
2944.000000	98.411347
2943.000000	98.419250
2942.000000	98.427899
2941.000000	98.436315
2940.000000	98.442945
2939.000000	98.447268
2938.000000	98.449872
2937.000000	98.451944
2936.000000	98.455492
2935.000000	98.462629
2934.000000	98.473110
2933.000000	98.483383
2932.000000	98.489712
2931.000000	98.491931
2930.000000	98.492884
2929.000000	98.494430
2928.000000	98.495221
2927.000000	98.492541
2926.000000	98.485452
2925.000000	98.475796
2924.000000	98.466277
2923.000000	98.457301
2922.000000	98.445725
2921.000000	98.427520
2920.000000	98.402251
2919.000000	98.374425
2918.000000	98.350083
2917.000000	98.332823
2916.000000	98.323257
2915.000000	98.321147
2914.000000	98.326638
2913.000000	98.339480
2912.000000	98.357810
2911.000000	98.377926
2910.000000	98.395500
2909.000000	98.407874
2908.000000	98.415570
2907.000000	98.421099
2906.000000	98.426151
2905.000000	98.430597
2904.000000	98.434156
2903.000000	98.437517
2902.000000	98.441043
2901.000000	98.443701
2900.000000	98.444658
2899.000000	98.445224
2898.000000	98.447622
2897.000000	98.452265
2896.000000	98.457351
2895.000000	98.461082
2894.000000	98.463398
2893.000000	98.465570
2892.000000	98.468851
2891.000000	98.473355
2890.000000	98.477513
2889.000000	98.478820
2888.000000	98.475963
2887.000000	98.470155
2886.000000	98.463709
2885.000000	98.457542
2884.000000	98.451036
2883.000000	98.444412
2882.000000	98.440054
2881.000000	98.440643
2880.000000	98.446139
2879.000000	98.453211
2878.000000	98.457859
2877.000000	98.458662
2876.000000	98.457637
2875.000000	98.457978
2874.000000	98.461104
2873.000000	98.465994
2872.000000	98.470978
2871.000000	98.475519
2870.000000	98.480234
2869.000000	98.485961
2868.000000	98.493262
2867.000000	98.502309
2866.000000	98.512721
2865.000000	98.523827
2864.000000	98.535500
2863.000000	98.548399
2862.000000	98.562972
2861.000000	98.578453
2860.000000	98.593210
2859.000000	98.605737
2858.000000	98.615053
2857.000000	98.620530
2856.000000	98.621729
2855.000000	98.618159
2854.000000	98.609098
2853.000000	98.594358
2852.000000	98.575639
2851.000000	98.556500
2850.000000	98.540349
2849.000000	98.528778
2848.000000	98.521802
2847.000000	98.518897
2846.000000	98.519481
2845.000000	98.523353
2844.000000	98.531368
2843.000000	98.544593
2842.000000	98.561716
2841.000000	98.578059
2840.000000	98.588721
2839.000000	98.592734
2838.000000	98.593343
2837.000000	98.594565
2836.000000	98.598220
2835.000000	98.603654
2834.000000	98.608601
2833.000000	98.610321
2832.000000	98.607705
2831.000000	98.603125
2830.000000	98.600951
2829.000000	98.603197
2828.000000	98.607322
2827.000000	98.609241
2826.000000	98.608085
2825.000000	98.606869
2824.000000	98.608621
2823.000000	98.613087
2822.000000	98.617728
2821.000000	98.621100
2820.000000	98.624121
2819.000000	98.628115
2818.000000	98.632824
2817.000000	98.637115
2816.000000	98.640854
2815.000000	98.644740
2814.000000	98.648176
2813.000000	98.648766
2812.000000	98.644951
2811.000000	98.638585
2810.000000	98.633899
2809.000000	98.633872
2808.000000	98.638154
2807.000000	98.644321
2806.000000	98.650360
2805.000000	98.655831
2804.000000	98.661204
2803.000000	98.666398
2802.000000	98.670012
2801.000000	98.670265
2800.000000	98.667121
2799.000000	98.663295
2798.000000	98.662431
2797.000000	98.665957
2796.000000	98.671924
2795.000000	98.677072
2794.000000	98.679891
2793.000000	98.681578
2792.000000	98.684207
2791.000000	98.688220
2790.000000	98.691927
2789.000000	98.693546
2788.000000	98.693271
2787.000000	98.692755
2786.000000	98.692842
2785.000000	98.692792
2784.000000	98.691974
2783.000000	98.691181
2782.000000	98.691483
2781.000000	98.692735
2780.000000	98.694405
2779.000000	98.697126
2778.000000	98.701672
2777.000000	98.706310
2776.000000	98.706996
2775.000000	98.701468
2774.000000	98.692588
2773.000000	98.686688
2772.000000	98.688474
2771.000000	98.697492
2770.000000	98.708972
2769.000000	98.717616
2768.000000	98.721140
2767.000000	98.721106
2766.000000	98.720819
2765.000000	98.722344
2764.000000	98.725341
2763.000000	98.728217
2762.000000	98.729727
2761.000000	98.729447
2760.000000	98.727501
2759.000000	98.724644
2758.000000	98.722445
2757.000000	98.722677
2756.000000	98.726107
2755.000000	98.731887
2754.000000	98.738149
2753.000000	98.743147
2752.000000	98.746062
2751.000000	98.747085
2750.000000	98.746972
2749.000000	98.746513
2748.000000	98.746292
2747.000000	98.746695
2746.000000	98.747793
2745.000000	98.749053
2744.000000	98.749501
2743.000000	98.748674
2742.000000	98.747484
2741.000000	98.747732
2740.000000	98.750417
2739.000000	98.754634
2738.000000	98.758383
2737.000000	98.760439
2736.000000	98.761301
2735.000000	98.762432
2734.000000	98.764925
2733.000000	98.768859
2732.000000	98.773415
2731.000000	98.777287
2730.000000	98.779229
2729.000000	98.778754
2728.000000	98.776532
2727.000000	98.774075
2726.000000	98.773072
2725.000000	98.774864
2724.000000	98.779841
2723.000000	98.786669
2722.000000	98.792308
2721.000000	98.793872
2720.000000	98.791326
2719.000000	98.788196
2718.000000	98.788868
2717.000000	98.794591
2716.000000	98.802057
2715.000000	98.806184
2714.000000	98.804630
2713.000000	98.799716
2712.000000	98.795943
2711.000000	98.795841
2710.000000	98.798436
2709.000000	98.801276
2708.000000	98.802949
2707.000000	98.803500
2706.000000	98.803614
2705.000000	98.804313
2704.000000	98.806579
2703.000000	98.809981
2702.000000	98.812085
2701.000000	98.810802
2700.000000	98.807486
2699.000000	98.806251
2698.000000	98.809622
2697.000000	98.815848
2696.000000	98.821004
2695.000000	98.822635
2694.000000	98.820635
2693.000000	98.816024
2692.000000	98.810638
2691.000000	98.807360
2690.000000	98.808569
2689.000000	98.813770
2688.000000	98.819974
2687.000000	98.824963
2686.000000	98.829164
2685.000000	98.833671
2684.000000	98.837584
2683.000000	98.838715
2682.000000	98.836548
2681.000000	98.832993
2680.000000	98.829937
2679.000000	98.827377
2678.000000	98.824913
2677.000000	98.823998
2676.000000	98.826872
2675.000000	98.833095
2674.000000	98.838654
2673.000000	98.839604
2672.000000	98.836048
2671.000000	98.831707
2670.000000	98.829919
2669.000000	98.830879
2668.000000	98.832402
2667.000000	98.832153
2666.000000	98.829017
2665.000000	98.823545
2664.000000	98.817982
2663.000000	98.815297
2662.000000	98.817046
2661.000000	98.821743
2660.000000	98.825584
2659.000000	98.825242
2658.000000	98.820484
2657.000000	98.814307
2656.000000	98.810362
2655.000000	98.809920
2654.000000	98.811409
2653.000000	98.812932
2652.000000	98.814553
2651.000000	98.817578
2650.000000	98.822271
2649.000000	98.827526
2648.000000	98.832616
2647.000000	98.837807
2646.000000	98.842835
2645.000000	98.846172
2644.000000	98.846827
2643.000000	98.846040
2642.000000	98.846136
2641.000000	98.848144
2640.000000	98.851370
2639.000000	98.854857
2638.000000	98.858170
2637.000000	98.860930
2636.000000	98.862607
2635.000000	98.863134
2634.000000	98.863193
2633.000000	98.863606
2632.000000	98.864579
2631.000000	98.865463
2630.000000	98.865199
2629.000000	98.863442
2628.000000	98.861657
2627.000000	98.862660
2626.000000	98.868354
2625.000000	98.877847
2624.000000	98.888063
2623.000000	98.896076
2622.000000	98.900641
2621.000000	98.902114
2620.000000	98.901866
2619.000000	98.901838
2618.000000	98.903812
2617.000000	98.908444
2616.000000	98.914710
2615.000000	98.920078
2614.000000	98.921487
2613.000000	98.917251
2612.000000	98.909129
2611.000000	98.902243
2610.000000	98.901607
2609.000000	98.907971
2608.000000	98.917329
2607.000000	98.924909
2606.000000	98.929352
2605.000000	98.932540
2604.000000	98.935793
2603.000000	98.937317
2602.000000	98.934358
2601.000000	98.927690
2600.000000	98.922633
2599.000000	98.924369
2598.000000	98.932284
2597.000000	98.940085
2596.000000	98.942267
2595.000000	98.939747
2594.000000	98.938302
2593.000000	98.941872
2592.000000	98.948661
2591.000000	98.954062
2590.000000	98.955961
2589.000000	98.955897
2588.000000	98.955659
2587.000000	98.954802
2586.000000	98.952498
2585.000000	98.950453
2584.000000	98.952200
2583.000000	98.959510
2582.000000	98.970708
2581.000000	98.982386
2580.000000	98.991308
2579.000000	98.994634
2578.000000	98.990572
2577.000000	98.980706
2576.000000	98.970841
2575.000000	98.967682
2574.000000	98.974125
2573.000000	98.987772
2572.000000	99.002906
2571.000000	99.013276
2570.000000	99.014666
2569.000000	99.007419
2568.000000	98.997092
2567.000000	98.991012
2566.000000	98.992826
2565.000000	98.999837
2564.000000	99.005294
2563.000000	99.003713
2562.000000	98.995360
2561.000000	98.986434
2560.000000	98.983738
2559.000000	98.988101
2558.000000	98.993854
2557.000000	98.995217
2556.000000	98.991665
2555.000000	98.986195
2554.000000	98.981068
2553.000000	98.977876
2552.000000	98.979560
2551.000000	98.988212
2550.000000	99.001011
2549.000000	99.011816
2548.000000	99.017244
2547.000000	99.018559
2546.000000	99.017597
2545.000000	99.014260
2544.000000	99.009114
2543.000000	99.005298
2542.000000	99.005932
2541.000000	99.011322
2540.000000	99.019714
2539.000000	99.028963
2538.000000	99.036578
2537.000000	99.040379
2536.000000	99.040636
2535.000000	99.040011
2534.000000	99.040352
2533.000000	99.041036
2532.000000	99.040950
2531.000000	99.040046
2530.000000	99.038233
2529.000000	99.035224
2528.000000	99.032584
2527.000000	99.033100
2526.000000	99.036367
2525.000000	99.037740
2524.000000	99.034282
2523.000000	99.029411
2522.000000	99.028476
2521.000000	99.031221
2520.000000	99.032369
2519.000000	99.029500
2518.000000	99.026801
2517.000000	99.029973
2516.000000	99.039467
2515.000000	99.050085
2514.000000	99.056144
2513.000000	99.056158
2512.000000	99.053292
2511.000000	99.052052
2510.000000	99.054421
2509.000000	99.058507
2508.000000	99.060535
2507.000000	99.058161
2506.000000	99.052504
2505.000000	99.047656
2504.000000	99.047803
2503.000000	99.053683
2502.000000	99.061849
2501.000000	99.068066
2500.000000	99.070999
2499.000000	99.071877
2498.000000	99.071702
2497.000000	99.070815
2496.000000	99.070198
2495.000000	99.070254
2494.000000	99.068420
2493.000000	99.061536
2492.000000	99.051519
2491.000000	99.045184
2490.000000	99.046672
2489.000000	99.052721
2488.000000	99.057569
2487.000000	99.059700
2486.000000	99.061127
2485.000000	99.062839
2484.000000	99.064548
2483.000000	99.067271
2482.000000	99.071977
2481.000000	99.076053
2480.000000	99.074960
2479.000000	99.068140
2478.000000	99.060417
2477.000000	99.056525
2476.000000	99.056418
2475.000000	99.056797
2474.000000	99.055366
2473.000000	99.052396
2472.000000	99.049413
2471.000000	99.047674
2470.000000	99.047491
2469.000000	99.048488
2468.000000	99.050772
2467.000000	99.055557
2466.000000	99.063583
2465.000000	99.072654
2464.000000	99.077911
2463.000000	99.075612
2462.000000	99.066771
2461.000000	99.056957
2460.000000	99.052246
2459.000000	99.054767
2458.000000	99.061450
2457.000000	99.066801
2456.000000	99.067097
2455.000000	99.062260
2454.000000	99.054684
2453.000000	99.047609
2452.000000	99.044243
2451.000000	99.046278
2450.000000	99.051881
2449.000000	99.056407
2448.000000	99.056956
2447.000000	99.055841
2446.000000	99.057871
2445.000000	99.063964
2444.000000	99.069021
2443.000000	99.067157
2442.000000	99.058613
2441.000000	99.050371
2440.000000	99.049216
2439.000000	99.054748
2438.000000	99.060494
2437.000000	99.062142
2436.000000	99.062944
2435.000000	99.068948
2434.000000	99.079848
2433.000000	99.087448
2432.000000	99.084214
2431.000000	99.071681
2430.000000	99.059008
2429.000000	99.054320
2428.000000	99.058526
2427.000000	99.066524
2426.000000	99.072959
2425.000000	99.076376
2424.000000	99.078303
2423.000000	99.079251
2422.000000	99.077398
2421.000000	99.072516
2420.000000	99.069425
2419.000000	99.074113
2418.000000	99.085930
2417.000000	99.096508
2416.000000	99.098008
2415.000000	99.090356
2414.000000	99.079091
2413.000000	99.068505
2412.000000	99.059576
2411.000000	99.053387
2410.000000	99.053258
2409.000000	99.062158
2408.000000	99.078617
2407.000000	99.095855
2406.000000	99.105647
2405.000000	99.104394
2404.000000	99.096175
2403.000000	99.089154
2402.000000	99.088560
2401.000000	99.093497
2400.000000	99.099607
2399.000000	99.102954
2398.000000	99.101577
2397.000000	99.096007
2396.000000	99.089510
2395.000000	99.085787
2394.000000	99.085123
2393.000000	99.084612
2392.000000	99.083190
2391.000000	99.084103
2390.000000	99.090611
2389.000000	99.101023
2388.000000	99.110215
2387.000000	99.114729
2386.000000	99.114526
2385.000000	99.111275
2384.000000	99.107365
2383.000000	99.105562
2382.000000	99.106873
2381.000000	99.108971
2380.000000	99.108808
2379.000000	99.106757
2378.000000	99.106136
2377.000000	99.108630
2376.000000	99.112205
2375.000000	99.113861
2374.000000	99.112774
2373.000000	99.110703
2372.000000	99.111275
2371.000000	99.118036
2370.000000	99.129771
2369.000000	99.137914
2368.000000	99.133520
2367.000000	99.118269
2366.000000	99.103653
2365.000000	99.097388
2364.000000	99.095903
2363.000000	99.092391
2362.000000	99.087011
2361.000000	99.086958
2360.000000	99.097102
2359.000000	99.113641
2358.000000	99.129603
2357.000000	99.137032
2356.000000	99.132243
2355.000000	99.119712
2354.000000	99.107408
2353.000000	99.101960
2352.000000	99.103797
2351.000000	99.109949
2350.000000	99.113172
2349.000000	99.106884
2348.000000	99.091796
2347.000000	99.074801
2346.000000	99.066458
2345.000000	99.071261
2344.000000	99.082693
2343.000000	99.087061
2342.000000	99.078057
2341.000000	99.065336
2340.000000	99.061032
2339.000000	99.070182
2338.000000	99.086657
2337.000000	99.099384
2336.000000	99.100448
2335.000000	99.091420
2334.000000	99.079659
2333.000000	99.072461
2332.000000	99.072817
2331.000000	99.081273
2330.000000	99.094054
2329.000000	99.101812
2328.000000	99.094724
2327.000000	99.066694
2326.000000	99.025126
2325.000000	98.985334
2324.000000	98.964345
2323.000000	98.968011
2322.000000	98.988108
2321.000000	99.011649
2320.000000	99.030422
2319.000000	99.044916
2318.000000	99.057233
2317.000000	99.067940
2316.000000	99.077132
2315.000000	99.085436
2314.000000	99.093223
2313.000000	99.098294
2312.000000	99.099114
2311.000000	99.095902
2310.000000	99.091629
2309.000000	99.088889
2308.000000	99.090230
2307.000000	99.095446
2306.000000	99.101578
2305.000000	99.103691
2304.000000	99.100122
2303.000000	99.094124
2302.000000	99.090041
2301.000000	99.088560
2300.000000	99.087064
2299.000000	99.083746
2298.000000	99.079701
2297.000000	99.076004
2296.000000	99.071693
2295.000000	99.064106
2294.000000	99.053544
2293.000000	99.044176
2292.000000	99.041514
2291.000000	99.045217
2290.000000	99.047984
2289.000000	99.041997
2288.000000	99.027808
2287.000000	99.012993
2286.000000	99.002893
2285.000000	98.996434
2284.000000	98.992237
2283.000000	98.993606
2282.000000	99.002888
2281.000000	99.014898
2280.000000	99.021451
2279.000000	99.022014
2278.000000	99.024011
2277.000000	99.033204
2276.000000	99.047592
2275.000000	99.061482
2274.000000	99.070626
2273.000000	99.072574
2272.000000	99.066684
2271.000000	99.055964
2270.000000	99.046767
2269.000000	99.044374
2268.000000	99.049617
2267.000000	99.059074
2266.000000	99.066833
2265.000000	99.067514
2264.000000	99.061422
2263.000000	99.056292
2262.000000	99.060412
2261.000000	99.073494
2260.000000	99.088055
2259.000000	99.099224
2258.000000	99.108096
2257.000000	99.114912
2256.000000	99.114979
2255.000000	99.105479
2254.000000	99.091242
2253.000000	99.079112
2252.000000	99.069267
2251.000000	99.057625
2250.000000	99.045601
2249.000000	99.041812
2248.000000	99.052936
2247.000000	99.075818
2246.000000	99.100129
2245.000000	99.116496
2244.000000	99.121929
2243.000000	99.120014
2242.000000	99.117550
2241.000000	99.119356
2240.000000	99.124254
2239.000000	99.126735
2238.000000	99.123994
2237.000000	99.120110
2236.000000	99.120758
2235.000000	99.124376
2234.000000	99.122924
2233.000000	99.113782
2232.000000	99.107068
2231.000000	99.115633
2230.000000	99.137785
2229.000000	99.155173
2228.000000	99.150350
2227.000000	99.123377
2226.000000	99.088878
2225.000000	99.060814
2224.000000	99.044725
2223.000000	99.042069
2222.000000	99.054415
2221.000000	99.079818
2220.000000	99.109120
2219.000000	99.131447
2218.000000	99.143382
2217.000000	99.149705
2216.000000	99.155096
2215.000000	99.158368
2214.000000	99.156623
2213.000000	99.151862
2212.000000	99.149129
2211.000000	99.148911
2210.000000	99.146533
2209.000000	99.140228
2208.000000	99.134690
2207.000000	99.133692
2206.000000	99.133493
2205.000000	99.127737
2204.000000	99.115305
2203.000000	99.098842
2202.000000	99.079278
2201.000000	99.058034
2200.000000	99.041810
2199.000000	99.037444
2198.000000	99.043135
2197.000000	99.052327
2196.000000	99.066176
2195.000000	99.093229
2194.000000	99.133789
2193.000000	99.172206
2192.000000	99.190447
2191.000000	99.185500
2190.000000	99.169591
2189.000000	99.158506
2188.000000	99.162105
2187.000000	99.179017
2186.000000	99.195773
2185.000000	99.196456
2184.000000	99.179653
2183.000000	99.161817
2182.000000	99.158022
2181.000000	99.164158
2180.000000	99.164868
2179.000000	99.154899
2178.000000	99.144446
2177.000000	99.145279
2176.000000	99.157890
2175.000000	99.171224
2174.000000	99.170600
2173.000000	99.147195
2172.000000	99.104515
2171.000000	99.056280
2170.000000	99.016000
2169.000000	98.988086
2168.000000	98.969022
2167.000000	98.956189
2166.000000	98.953713
2165.000000	98.968596
2164.000000	99.000846
2163.000000	99.038853
2162.000000	99.069360
2161.000000	99.096844
2160.000000	99.149850
2159.000000	99.252417
2158.000000	99.381260
2157.000000	99.473662
2156.000000	99.491438
2155.000000	99.455892
2154.000000	99.415158
2153.000000	99.396195
2152.000000	99.391044
2151.000000	99.378770
2150.000000	99.353180
2149.000000	99.328201
2148.000000	99.320730
2147.000000	99.332960
2146.000000	99.352172
2145.000000	99.363593
2144.000000	99.359357
2143.000000	99.338464
2142.000000	99.307381
2141.000000	99.282814
2140.000000	99.282865
2139.000000	99.307115
2138.000000	99.332121
2137.000000	99.335499
2136.000000	99.321401
2135.000000	99.312826
2134.000000	99.321087
2133.000000	99.335110
2132.000000	99.340223
2131.000000	99.335077
2130.000000	99.326611
2129.000000	99.317972
2128.000000	99.307040
2127.000000	99.291493
2126.000000	99.271112
2125.000000	99.248017
2124.000000	99.227295
2123.000000	99.214928
2122.000000	99.212652
2121.000000	99.216085
2120.000000	99.218983
2119.000000	99.218171
2118.000000	99.214714
2117.000000	99.212965
2116.000000	99.218028
2115.000000	99.230514
2114.000000	99.243390
2113.000000	99.247069
2112.000000	99.237905
2111.000000	99.218509
2110.000000	99.191447
2109.000000	99.159757
2108.000000	99.133726
2107.000000	99.127806
2106.000000	99.144693
2105.000000	99.167067
2104.000000	99.171616
2103.000000	99.150864
2102.000000	99.118772
2101.000000	99.096670
2100.000000	99.095934
2099.000000	99.111943
2098.000000	99.131679
2097.000000	99.147036
2096.000000	99.160237
2095.000000	99.175174
2094.000000	99.187052
2093.000000	99.187248
2092.000000	99.177229
2091.000000	99.168906
2090.000000	99.169676
2089.000000	99.174185
2088.000000	99.173448
2087.000000	99.165485
2086.000000	99.153012
2085.000000	99.137928
2084.000000	99.123523
2083.000000	99.115970
2082.000000	99.117153
2081.000000	99.120375
2080.000000	99.119762
2079.000000	99.120069
2078.000000	99.129788
2077.000000	99.147319
2076.000000	99.162360
2075.000000	99.169971
2074.000000	99.175202
2073.000000	99.182697
2072.000000	99.188041
2071.000000	99.181952
2070.000000	99.160325
2069.000000	99.130644
2068.000000	99.110394
2067.000000	99.115655
2066.000000	99.146173
2065.000000	99.181553
2064.000000	99.197814
2063.000000	99.190064
2062.000000	99.175966
2061.000000	99.178593
2060.000000	99.206372
2059.000000	99.244474
2058.000000	99.264234
2057.000000	99.246815
2056.000000	99.202792
2055.000000	99.164060
2054.000000	99.151690
2053.000000	99.156848
2052.000000	99.157360
2051.000000	99.144877
2050.000000	99.127910
2049.000000	99.115529
2048.000000	99.110001
2047.000000	99.113937
2046.000000	99.131478
2045.000000	99.158161
2044.000000	99.180417
2043.000000	99.189919
2042.000000	99.191707
2041.000000	99.196726
2040.000000	99.211642
2039.000000	99.235730
2038.000000	99.261860
2037.000000	99.280617
2036.000000	99.289421
2035.000000	99.295256
2034.000000	99.302292
2033.000000	99.303987
2032.000000	99.297316
2031.000000	99.294647
2030.000000	99.305120
2029.000000	99.311481
2028.000000	99.287210
2027.000000	99.238392
2026.000000	99.208747
2025.000000	99.234097
2024.000000	99.302018
2023.000000	99.365893
2022.000000	99.391413
2021.000000	99.380990
2020.000000	99.359897
2019.000000	99.347876
2018.000000	99.346156
2017.000000	99.347551
2016.000000	99.351893
2015.000000	99.364564
2014.000000	99.380827
2013.000000	99.382274
2012.000000	99.356285
2011.000000	99.314066
2010.000000	99.281713
2009.000000	99.277894
2008.000000	99.304997
2007.000000	99.354357
2006.000000	99.408644
2005.000000	99.442902
2004.000000	99.440941
2003.000000	99.412979
2002.000000	99.386033
2001.000000	99.375088
2000.000000	99.370183
1999.000000	99.353910
1998.000000	99.323774
1997.000000	99.291916
1996.000000	99.269536
1995.000000	99.259933
1994.000000	99.263606
1993.000000	99.278502
1992.000000	99.292437
1991.000000	99.288182
1990.000000	99.264431
1989.000000	99.244150
1988.000000	99.253730
1987.000000	99.294232
1986.000000	99.338066
1985.000000	99.354555
1984.000000	99.334925
1983.000000	99.292718
1982.000000	99.247534
1981.000000	99.214623
1980.000000	99.204724
1979.000000	99.224768
1978.000000	99.276277
1977.000000	99.352326
1976.000000	99.434783
1975.000000	99.497225
1974.000000	99.517203
1973.000000	99.492919
1972.000000	99.446865
1971.000000	99.405527
1970.000000	99.378555
1969.000000	99.362925
1968.000000	99.358131
1967.000000	99.366947
1966.000000	99.384786
1965.000000	99.398765
1964.000000	99.398231
1963.000000	99.380400
1962.000000	99.349352
1961.000000	99.316791
1960.000000	99.298178
1959.000000	99.298056
1958.000000	99.302324
1957.000000	99.293670
1956.000000	99.273554
1955.000000	99.261796
1954.000000	99.274120
1953.000000	99.305338
1952.000000	99.335704
1951.000000	99.350540
1950.000000	99.352234
1949.000000	99.354602
1948.000000	99.365427
1947.000000	99.375195
1946.000000	99.367967
1945.000000	99.344839
1944.000000	99.329863
1943.000000	99.345924
1942.000000	99.386028
1941.000000	99.419178
1940.000000	99.424235
1939.000000	99.403483
1938.000000	99.369363
1937.000000	99.334208
1936.000000	99.308745
1935.000000	99.299701
1934.000000	99.307355
1933.000000	99.328203
1932.000000	99.357330
1931.000000	99.384569
1930.000000	99.393798
1929.000000	99.376135
1928.000000	99.343757
1927.000000	99.320395
1926.000000	99.317679
1925.000000	99.328058
1924.000000	99.338598
1923.000000	99.343027
1922.000000	99.339704
1921.000000	99.327681
1920.000000	99.309534
1919.000000	99.292132
1918.000000	99.280045
1917.000000	99.271868
1916.000000	99.266940
1915.000000	99.268903
1914.000000	99.277838
1913.000000	99.285766
1912.000000	99.285306
1911.000000	99.279978
1910.000000	99.280986
1909.000000	99.294825
1908.000000	99.317829
1907.000000	99.341006
1906.000000	99.355747
1905.000000	99.356878
1904.000000	99.345822
1903.000000	99.329913
1902.000000	99.315717
1901.000000	99.305491
1900.000000	99.301542
1899.000000	99.308783
1898.000000	99.328337
1897.000000	99.351018
1896.000000	99.362842
1895.000000	99.358846
1894.000000	99.347804
1893.000000	99.341676
1892.000000	99.343974
1891.000000	99.349650
1890.000000	99.352567
1889.000000	99.351556
1888.000000	99.348944
1887.000000	99.344283
1886.000000	99.334422
1885.000000	99.320867
1884.000000	99.312700
1883.000000	99.317907
1882.000000	99.333210
1881.000000	99.346871
1880.000000	99.350740
1879.000000	99.345458
1878.000000	99.334874
1877.000000	99.321451
1876.000000	99.308136
1875.000000	99.299632
1874.000000	99.299439
1873.000000	99.307599
1872.000000	99.321923
1871.000000	99.338616
1870.000000	99.350363
1869.000000	99.348598
1868.000000	99.334380
1867.000000	99.319851
1866.000000	99.313716
1865.000000	99.315280
1864.000000	99.320459
1863.000000	99.325428
1862.000000	99.326511
1861.000000	99.321906
1860.000000	99.315180
1859.000000	99.313169
1858.000000	99.318568
1857.000000	99.327088
1856.000000	99.332670
1855.000000	99.332658
1854.000000	99.327674
1853.000000	99.320518
1852.000000	99.316318
1851.000000	99.319229
1850.000000	99.327842
1849.000000	99.336957
1848.000000	99.344433
1847.000000	99.352887
1846.000000	99.363418
1845.000000	99.371015
1844.000000	99.368669
1843.000000	99.357471
1842.000000	99.346182
1841.000000	99.340324
1840.000000	99.339840
1839.000000	99.342338
1838.000000	99.343706
1837.000000	99.340827
1836.000000	99.336172
1835.000000	99.336016
1834.000000	99.343200
1833.000000	99.355005
1832.000000	99.366944
1831.000000	99.374369
1830.000000	99.372332
1829.000000	99.361726
1828.000000	99.351143
1827.000000	99.346386
1826.000000	99.344642
1825.000000	99.340796
1824.000000	99.337023
1823.000000	99.340650
1822.000000	99.352601
1821.000000	99.365989
1820.000000	99.374994
1819.000000	99.380137
1818.000000	99.384376
1817.000000	99.387782
1816.000000	99.388805
1815.000000	99.387036
1814.000000	99.381904
1813.000000	99.372693
1812.000000	99.361992
1811.000000	99.355142
1810.000000	99.353289
1809.000000	99.351176
1808.000000	99.345756
1807.000000	99.341478
1806.000000	99.343359
1805.000000	99.349496
1804.000000	99.353688
1803.000000	99.352722
1802.000000	99.347746
1801.000000	99.341338
1800.000000	99.336343
1799.000000	99.335095
1798.000000	99.337486
1797.000000	99.341252
1796.000000	99.345537
1795.000000	99.352702
1794.000000	99.365175
1793.000000	99.380060
1792.000000	99.387890
1791.000000	99.383682
1790.000000	99.373824
1789.000000	99.366679
1788.000000	99.365665
1787.000000	99.369050
1786.000000	99.371137
1785.000000	99.367870
1784.000000	99.363101
1783.000000	99.363900
1782.000000	99.369329
1781.000000	99.371473
1780.000000	99.367440
1779.000000	99.363180
1778.000000	99.363840
1777.000000	99.367371
1776.000000	99.369799
1775.000000	99.370194
1774.000000	99.369576
1773.000000	99.368339
1772.000000	99.368123
1771.000000	99.373569
1770.000000	99.383765
1769.000000	99.390129
1768.000000	99.387878
1767.000000	99.381403
1766.000000	99.376782
1765.000000	99.374204
1764.000000	99.371238
1763.000000	99.369396
1762.000000	99.372021
1761.000000	99.378707
1760.000000	99.386899
1759.000000	99.395472
1758.000000	99.402880
1757.000000	99.406366
1756.000000	99.406712
1755.000000	99.408542
1754.000000	99.413380
1753.000000	99.417918
1752.000000	99.419767
1751.000000	99.419840
1750.000000	99.421017
1749.000000	99.426128
1748.000000	99.436005
1747.000000	99.448545
1746.000000	99.458289
1745.000000	99.459871
1744.000000	99.453574
1743.000000	99.446235
1742.000000	99.444150
1741.000000	99.446548
1740.000000	99.448713
1739.000000	99.448596
1738.000000	99.446539
1737.000000	99.440412
1736.000000	99.426455
1735.000000	99.408000
1734.000000	99.390798
1733.000000	99.380054
1732.000000	99.385485
1731.000000	99.408105
1730.000000	99.434058
1729.000000	99.448833
1728.000000	99.450015
1727.000000	99.445482
1726.000000	99.440960
1725.000000	99.435081
1724.000000	99.426095
1723.000000	99.418000
1722.000000	99.415418
1721.000000	99.416200
1720.000000	99.415080
1719.000000	99.412440
1718.000000	99.411510
1717.000000	99.408379
1716.000000	99.401890
1715.000000	99.399331
1714.000000	99.398764
1713.000000	99.389729
1712.000000	99.369857
1711.000000	99.346605
1710.000000	99.325398
1709.000000	99.303724
1708.000000	99.277520
1707.000000	99.243743
1706.000000	99.196308
1705.000000	99.132796
1704.000000	99.066450
1703.000000	99.009477
1702.000000	98.956746
1701.000000	98.888196
1700.000000	98.793651
1699.000000	98.704287
1698.000000	98.641883
1697.000000	98.578983
1696.000000	98.489847
1695.000000	98.393914
1694.000000	98.322908
1693.000000	98.272669
1692.000000	98.219072
1691.000000	98.151052
1690.000000	98.075069
1689.000000	97.999352
1688.000000	97.926039
1687.000000	97.853215
1686.000000	97.779081
1685.000000	97.696395
1684.000000	97.599070
1683.000000	97.511245
1682.000000	97.445661
1681.000000	97.381811
1680.000000	97.309887
1679.000000	97.239116
1678.000000	97.177331
1677.000000	97.116930
1676.000000	97.044206
1675.000000	96.956796
1674.000000	96.866571
1673.000000	96.783506
1672.000000	96.705898
1671.000000	96.628579
1670.000000	96.547163
1669.000000	96.458212
1668.000000	96.367509
1667.000000	96.286384
1666.000000	96.215778
1665.000000	96.145365
1664.000000	96.065426
1663.000000	95.977325
1662.000000	95.890858
1661.000000	95.810092
1660.000000	95.730999
1659.000000	95.650988
1658.000000	95.571149
1657.000000	95.491234
1656.000000	95.409122
1655.000000	95.325926
1654.000000	95.249436
1653.000000	95.171379
1652.000000	95.088777
1651.000000	95.028784
1650.000000	94.996473
1649.000000	94.964296
1648.000000	94.916867
1647.000000	94.866636
1646.000000	94.827754
1645.000000	94.793758
1644.000000	94.758484
1643.000000	94.724860
1642.000000	94.691106
1641.000000	94.652949
1640.000000	94.610588
1639.000000	94.568818
1638.000000	94.532642
1637.000000	94.507991
1636.000000	94.501771
1635.000000	94.508860
1634.000000	94.511618
1633.000000	94.503831
1632.000000	94.491432
1631.000000	94.482262
1630.000000	94.484398
1629.000000	94.499318
1628.000000	94.520933
1627.000000	94.543339
1626.000000	94.567171
1625.000000	94.599672
1624.000000	94.651346
1623.000000	94.723492
1622.000000	94.797739
1621.000000	94.854182
1620.000000	94.892098
1619.000000	94.925164
1618.000000	94.977214
1617.000000	95.067920
1616.000000	95.181402
1615.000000	95.284208
1614.000000	95.368373
1613.000000	95.444027
1612.000000	95.521550
1611.000000	95.606630
1610.000000	95.696591
1609.000000	95.785954
1608.000000	95.872246
1607.000000	95.954361
1606.000000	96.030710
1605.000000	96.103234
1604.000000	96.177076
1603.000000	96.253597
1602.000000	96.329025
1601.000000	96.400685
1600.000000	96.468495
1599.000000	96.530003
1598.000000	96.581100
1597.000000	96.622988
1596.000000	96.662249
1595.000000	96.702383
1594.000000	96.740911
1593.000000	96.775941
1592.000000	96.809276
1591.000000	96.841296
1590.000000	96.868725
1589.000000	96.889830
1588.000000	96.906484
1587.000000	96.919492
1586.000000	96.927478
1585.000000	96.931187
1584.000000	96.934094
1583.000000	96.936071
1582.000000	96.932395
1581.000000	96.921357
1580.000000	96.904707
1579.000000	96.880780
1578.000000	96.846448
1577.000000	96.808663
1576.000000	96.781543
1575.000000	96.767046
1574.000000	96.755363
1573.000000	96.740146
1572.000000	96.720590
1571.000000	96.699304
1570.000000	96.674085
1569.000000	96.638962
1568.000000	96.596904
1567.000000	96.553316
1566.000000	96.507964
1565.000000	96.460371
1564.000000	96.414315
1563.000000	96.368985
1562.000000	96.319581
1561.000000	96.265326
1560.000000	96.217150
1559.000000	96.166055
1558.000000	96.105594
1557.000000	96.045622
1556.000000	95.988763
1555.000000	95.932316
1554.000000	95.872888
1553.000000	95.813499
1552.000000	95.757165
1551.000000	95.702094
1550.000000	95.646232
1549.000000	95.592033
1548.000000	95.541510
1547.000000	95.492749
1546.000000	95.442636
1545.000000	95.390154
1544.000000	95.336856
1543.000000	95.284023
1542.000000	95.230008
1541.000000	95.173981
1540.000000	95.119002
1539.000000	95.071659
1538.000000	95.036586
1537.000000	95.016431
1536.000000	95.007266
1535.000000	95.004969
1534.000000	95.013783
1533.000000	95.030628
1532.000000	95.042856
1531.000000	95.046648
1530.000000	95.048964
1529.000000	95.056548
1528.000000	95.071636
1527.000000	95.093631
1526.000000	95.117991
1525.000000	95.134917
1524.000000	95.138878
1523.000000	95.138276
1522.000000	95.154679
1521.000000	95.195569
1520.000000	95.239797
1519.000000	95.274217
1518.000000	95.306180
1517.000000	95.343312
1516.000000	95.382744
1515.000000	95.416598
1514.000000	95.446342
1513.000000	95.478120
1512.000000	95.511935
1511.000000	95.540934
1510.000000	95.561786
1509.000000	95.582063
1508.000000	95.627824
1507.000000	95.730613
1506.000000	95.864636
1505.000000	95.963719
1504.000000	96.025285
1503.000000	96.078657
1502.000000	96.134242
1501.000000	96.196291
1500.000000	96.262952
1499.000000	96.329827
1498.000000	96.398390
1497.000000	96.475707
1496.000000	96.557892
1495.000000	96.634157
1494.000000	96.702944
1493.000000	96.768148
1492.000000	96.833525
1491.000000	96.904615
1490.000000	96.982731
1489.000000	97.059271
1488.000000	97.124737
1487.000000	97.179092
1486.000000	97.225328
1485.000000	97.261841
1484.000000	97.288288
1483.000000	97.309976
1482.000000	97.332131
1481.000000	97.352804
1480.000000	97.366756
1479.000000	97.374289
1478.000000	97.378529
1477.000000	97.376946
1476.000000	97.363397
1475.000000	97.339321
1474.000000	97.314342
1473.000000	97.293723
1472.000000	97.273998
1471.000000	97.251792
1470.000000	97.227391
1469.000000	97.200411
1468.000000	97.170685
1467.000000	97.141052
1466.000000	97.113958
1465.000000	97.086683
1464.000000	97.055317
1463.000000	97.021421
1462.000000	96.988532
1461.000000	96.955333
1460.000000	96.916475
1459.000000	96.868300
1458.000000	96.812279
1457.000000	96.752675
1456.000000	96.697150
1455.000000	96.654564
1454.000000	96.625380
1453.000000	96.602344
1452.000000	96.583190
1451.000000	96.571844
1450.000000	96.569351
1449.000000	96.572889
1448.000000	96.579041
1447.000000	96.584203
1446.000000	96.584842
1445.000000	96.581536
1444.000000	96.579602
1443.000000	96.583850
1442.000000	96.594106
1441.000000	96.605301
1440.000000	96.612236
1439.000000	96.614703
1438.000000	96.621033
1437.000000	96.643744
1436.000000	96.682432
1435.000000	96.722321
1434.000000	96.755661
1433.000000	96.784703
1432.000000	96.812985
1431.000000	96.842625
1430.000000	96.872958
1429.000000	96.901421
1428.000000	96.924614
1427.000000	96.942036
1426.000000	96.958153
1425.000000	96.978986
1424.000000	97.004859
1423.000000	97.027239
1422.000000	97.038283
1421.000000	97.038953
1420.000000	97.035931
1419.000000	97.033531
1418.000000	97.034113
1417.000000	97.039170
1416.000000	97.044398
1415.000000	97.043472
1414.000000	97.034885
1413.000000	97.021538
1412.000000	97.006598
1411.000000	96.990902
1410.000000	96.974406
1409.000000	96.958577
1408.000000	96.946504
1407.000000	96.941810
1406.000000	96.946426
1405.000000	96.957709
1404.000000	96.968104
1403.000000	96.970801
1402.000000	96.966556
1401.000000	96.961932
1400.000000	96.962542
1399.000000	96.967821
1398.000000	96.973612
1397.000000	96.980363
1396.000000	96.993709
1395.000000	97.015936
1394.000000	97.039835
1393.000000	97.056881
1392.000000	97.067069
1391.000000	97.074987
1390.000000	97.084057
1389.000000	97.097071
1388.000000	97.116223
1387.000000	97.139569
1386.000000	97.161718
1385.000000	97.180250
1384.000000	97.197284
1383.000000	97.215252
1382.000000	97.234621
1381.000000	97.255219
1380.000000	97.277458
1379.000000	97.300416
1378.000000	97.320930
1377.000000	97.337806
1376.000000	97.355231
1375.000000	97.378943
1374.000000	97.408260
1373.000000	97.435571
1372.000000	97.455751
1371.000000	97.471496
1370.000000	97.488157
1369.000000	97.508411
1368.000000	97.531966
1367.000000	97.557379
1366.000000	97.583793
1365.000000	97.611316
1364.000000	97.640197
1363.000000	97.669492
1362.000000	97.696471
1361.000000	97.718071
1360.000000	97.733456
1359.000000	97.744699
1358.000000	97.754709
1357.000000	97.764529
1356.000000	97.772093
1355.000000	97.774019
1354.000000	97.769247
1353.000000	97.760400
1352.000000	97.750991
1351.000000	97.742331
1350.000000	97.733242
1349.000000	97.722161
1348.000000	97.708946
1347.000000	97.694671
1346.000000	97.680321
1345.000000	97.665808
1344.000000	97.649957
1343.000000	97.631648
1342.000000	97.611172
1341.000000	97.590008
1340.000000	97.569004
1339.000000	97.547442
1338.000000	97.525373
1337.000000	97.506164
1336.000000	97.494235
1335.000000	97.490316
1334.000000	97.490651
1333.000000	97.491742
1332.000000	97.494164
1331.000000	97.500112
1330.000000	97.509017
1329.000000	97.518398
1328.000000	97.528239
1327.000000	97.540948
1326.000000	97.556563
1325.000000	97.571147
1324.000000	97.580709
1323.000000	97.584716
1322.000000	97.585173
1321.000000	97.584425
1320.000000	97.585138
1319.000000	97.590249
1318.000000	97.600251
1317.000000	97.611358
1316.000000	97.618985
1315.000000	97.622963
1314.000000	97.627902
1313.000000	97.638093
1312.000000	97.652869
1311.000000	97.667516
1310.000000	97.678056
1309.000000	97.684464
1308.000000	97.689787
1307.000000	97.697078
1306.000000	97.706858
1305.000000	97.717245
1304.000000	97.726430
1303.000000	97.734840
1302.000000	97.744638
1301.000000	97.756952
1300.000000	97.770031
1299.000000	97.780817
1298.000000	97.788352
1297.000000	97.794870
1296.000000	97.803073
1295.000000	97.812457
1294.000000	97.819056
1293.000000	97.818801
1292.000000	97.810850
1291.000000	97.798113
1290.000000	97.785184
1289.000000	97.775809
1288.000000	97.771043
1287.000000	97.768328
1286.000000	97.762628
1285.000000	97.750323
1284.000000	97.732994
1283.000000	97.716685
1282.000000	97.706529
1281.000000	97.702332
1280.000000	97.700345
1279.000000	97.698360
1278.000000	97.697402
1277.000000	97.698686
1276.000000	97.700625
1275.000000	97.699770
1274.000000	97.694007
1273.000000	97.684325
1272.000000	97.673830
1271.000000	97.665191
1270.000000	97.658615
1269.000000	97.652247
1268.000000	97.644616
1267.000000	97.636219
1266.000000	97.628432
1265.000000	97.621528
1264.000000	97.614600
1263.000000	97.606972
1262.000000	97.598557
1261.000000	97.588969
1260.000000	97.577406
1259.000000	97.563461
1258.000000	97.547090
1257.000000	97.527770
1256.000000	97.505046
1255.000000	97.480098
1254.000000	97.455511
1253.000000	97.433041
1252.000000	97.412526
1251.000000	97.393375
1250.000000	97.375784
1249.000000	97.359583
1248.000000	97.342653
1247.000000	97.321714
1246.000000	97.295187
1245.000000	97.265096
1244.000000	97.236003
1243.000000	97.212018
1242.000000	97.194733
1241.000000	97.183642
1240.000000	97.177549
1239.000000	97.174575
1238.000000	97.171410
1237.000000	97.164952
1236.000000	97.155621
1235.000000	97.148025
1234.000000	97.147294
1233.000000	97.154670
1232.000000	97.167380
1231.000000	97.181925
1230.000000	97.196947
1229.000000	97.213851
1228.000000	97.235216
1227.000000	97.262375
1226.000000	97.293700
1225.000000	97.325529
1224.000000	97.355543
1223.000000	97.384858
1222.000000	97.416417
1221.000000	97.451534
1220.000000	97.488495
1219.000000	97.524355
1218.000000	97.557406
1217.000000	97.587639
1216.000000	97.615504
1215.000000	97.641178
1214.000000	97.664770
1213.000000	97.686473
1212.000000	97.706027
1211.000000	97.722493
1210.000000	97.734980
1209.000000	97.743232
1208.000000	97.747797
1207.000000	97.750010
1206.000000	97.751525
1205.000000	97.753058
1204.000000	97.753564
1203.000000	97.751821
1202.000000	97.749144
1201.000000	97.749465
1200.000000	97.755846
1199.000000	97.767679
1198.000000	97.782175
1197.000000	97.798048
1196.000000	97.816305
1195.000000	97.837295
1194.000000	97.859060
1193.000000	97.879739
1192.000000	97.900481
1191.000000	97.924418
1190.000000	97.952723
1189.000000	97.982956
1188.000000	98.011454
1187.000000	98.036266
1186.000000	98.057185
1185.000000	98.074007
1184.000000	98.086347
1183.000000	98.095495
1182.000000	98.104986
1181.000000	98.117675
1180.000000	98.132611
1179.000000	98.145910
1178.000000	98.154843
1177.000000	98.160001
1176.000000	98.163371
1175.000000	98.165804
1174.000000	98.166867
1173.000000	98.166303
1172.000000	98.164941
1171.000000	98.164163
1170.000000	98.164579
1169.000000	98.164706
1168.000000	98.161031
1167.000000	98.150611
1166.000000	98.134509
1165.000000	98.118318
1164.000000	98.108404
1163.000000	98.107168
1162.000000	98.111796
1161.000000	98.117567
1160.000000	98.122124
1159.000000	98.126600
1158.000000	98.133356
1157.000000	98.143377
1156.000000	98.156517
1155.000000	98.173201
1154.000000	98.194236
1153.000000	98.218535
1152.000000	98.242417
1151.000000	98.262704
1150.000000	98.279969
1149.000000	98.297248
1148.000000	98.315877
1147.000000	98.334369
1146.000000	98.351293
1145.000000	98.367092
1144.000000	98.382379
1143.000000	98.396466
1142.000000	98.408940
1141.000000	98.421172
1140.000000	98.434689
1139.000000	98.449063
1138.000000	98.462805
1137.000000	98.475516
1136.000000	98.487415
1135.000000	98.497193
1134.000000	98.502331
1133.000000	98.501950
1132.000000	98.498405
1131.000000	98.495441
1130.000000	98.495031
1129.000000	98.496218
1128.000000	98.496947
1127.000000	98.497115
1126.000000	98.499463
1125.000000	98.506719
1124.000000	98.517742
1123.000000	98.527354
1122.000000	98.530687
1121.000000	98.527326
1120.000000	98.520685
1119.000000	98.514080
1118.000000	98.508132
1117.000000	98.501763
1116.000000	98.495054
1115.000000	98.490724
1114.000000	98.492260
1113.000000	98.499868
1112.000000	98.508632
1111.000000	98.512104
1110.000000	98.508444
1109.000000	98.502130
1108.000000	98.498874
1107.000000	98.499791
1106.000000	98.501360
1105.000000	98.499949
1104.000000	98.495011
1103.000000	98.488426
1102.000000	98.482601
1101.000000	98.479734
1100.000000	98.481245
1099.000000	98.486601
1098.000000	98.492357
1097.000000	98.493752
1096.000000	98.488552
1095.000000	98.479327
1094.000000	98.470987
1093.000000	98.465273
1092.000000	98.458599
1091.000000	98.446320
1090.000000	98.427723
1089.000000	98.405146
1088.000000	98.379203
1087.000000	98.348341
1086.000000	98.313878
1085.000000	98.282299
1084.000000	98.260101
1083.000000	98.247609
1082.000000	98.240153
1081.000000	98.234571
1080.000000	98.232615
1079.000000	98.237729
1078.000000	98.250273
1077.000000	98.266647
1076.000000	98.281699
1075.000000	98.292184
1074.000000	98.299296
1073.000000	98.307883
1072.000000	98.321979
1071.000000	98.340819
1070.000000	98.360137
1069.000000	98.376735
1068.000000	98.390023
1067.000000	98.399595
1066.000000	98.404006
1065.000000	98.402914
1064.000000	98.398901
1063.000000	98.396429
1062.000000	98.399808
1061.000000	98.411597
1060.000000	98.430574
1059.000000	98.450589
1058.000000	98.463911
1057.000000	98.467379
1056.000000	98.464293
1055.000000	98.459695
1054.000000	98.455345
1053.000000	98.449968
1052.000000	98.442144
1051.000000	98.431590
1050.000000	98.419428
1049.000000	98.409190
1048.000000	98.405914
1047.000000	98.411740
1046.000000	98.422902
1045.000000	98.432970
1044.000000	98.438350
1043.000000	98.439406
1042.000000	98.437841
1041.000000	98.435125
1040.000000	98.432742
1039.000000	98.431243
1038.000000	98.428677
1037.000000	98.421651
1036.000000	98.408640
1035.000000	98.391446
1034.000000	98.373511
1033.000000	98.357662
1032.000000	98.344897
1031.000000	98.334064
1030.000000	98.323239
1029.000000	98.312730
1028.000000	98.305743
1027.000000	98.304129
1026.000000	98.304710
1025.000000	98.302780
1024.000000	98.298472
1023.000000	98.295949
1022.000000	98.296097
1021.000000	98.294515
1020.000000	98.288363
1019.000000	98.281560
1018.000000	98.280691
1017.000000	98.288479
1016.000000	98.303947
1015.000000	98.325927
1014.000000	98.353015
1013.000000	98.381721
1012.000000	98.408609
1011.000000	98.434395
1010.000000	98.463271
1009.000000	98.497773
1008.000000	98.535624
1007.000000	98.571979
1006.000000	98.603822
1005.000000	98.632165
1004.000000	98.660411
1003.000000	98.690070
1002.000000	98.718054
1001.000000	98.739533
1000.000000	98.754214
999.000000	98.768091
998.000000	98.787268
997.000000	98.811514
996.000000	98.835847
995.000000	98.856934
994.000000	98.875117
993.000000	98.891144
992.000000	98.904668
991.000000	98.916090
990.000000	98.926503
989.000000	98.935076
988.000000	98.939937
987.000000	98.942735
986.000000	98.948530
985.000000	98.958953
984.000000	98.968693
983.000000	98.971989
982.000000	98.970029
981.000000	98.968649
980.000000	98.970626
979.000000	98.974167
978.000000	98.977898
977.000000	98.982752
976.000000	98.988433
975.000000	98.991944
974.000000	98.991437
973.000000	98.988998
972.000000	98.988004
971.000000	98.989469
970.000000	98.992400
969.000000	98.996518
968.000000	99.002996
967.000000	99.012877
966.000000	99.025848
965.000000	99.040647
964.000000	99.056450
963.000000	99.073689
962.000000	99.092817
961.000000	99.111646
960.000000	99.125016
959.000000	99.129221
958.000000	99.126938
957.000000	99.126118
956.000000	99.133299
955.000000	99.148953
954.000000	99.168990
953.000000	99.188384
952.000000	99.202923
951.000000	99.210177
950.000000	99.211286
949.000000	99.210823
948.000000	99.212832
947.000000	99.217126
946.000000	99.220810
945.000000	99.223201
944.000000	99.227462
943.000000	99.236545
942.000000	99.248143
941.000000	99.255014
940.000000	99.251351
939.000000	99.239112
938.000000	99.227664
937.000000	99.226090
936.000000	99.235861
935.000000	99.251334
934.000000	99.266330
933.000000	99.279169
932.000000	99.291536
931.000000	99.304193
930.000000	99.314972
929.000000	99.320403
928.000000	99.318976
927.000000	99.313184
926.000000	99.307924
925.000000	99.306046
924.000000	99.305998
923.000000	99.305096
922.000000	99.304140
921.000000	99.306182
920.000000	99.311065
919.000000	99.314524
918.000000	99.314440
917.000000	99.315352
916.000000	99.324109
915.000000	99.342532
914.000000	99.365977
913.000000	99.387687
912.000000	99.402187
911.000000	99.405901
910.000000	99.398355
909.000000	99.383797
908.000000	99.369492
907.000000	99.361340
906.000000	99.361701
905.000000	99.370459
904.000000	99.385821
903.000000	99.403586
902.000000	99.418311
901.000000	99.427218
900.000000	99.432182
899.000000	99.436545
898.000000	99.440691
897.000000	99.441999
896.000000	99.438728
895.000000	99.432653
894.000000	99.427557
893.000000	99.426015
892.000000	99.428456
891.000000	99.434635
890.000000	99.444379
889.000000	99.455777
888.000000	99.463724
887.000000	99.462716
886.000000	99.452087
885.000000	99.436968
884.000000	99.422947
883.000000	99.411725
882.000000	99.403540
881.000000	99.401303
880.000000	99.407961
879.000000	99.419883
878.000000	99.427722
877.000000	99.425840
876.000000	99.417627
875.000000	99.409337
874.000000	99.402466
873.000000	99.395755
872.000000	99.391010
871.000000	99.391174
870.000000	99.393587
869.000000	99.391434
868.000000	99.383029
867.000000	99.375173
866.000000	99.375510
865.000000	99.385363
864.000000	99.401993
863.000000	99.422880
862.000000	99.443802
861.000000	99.456572
860.000000	99.454812
859.000000	99.441641
858.000000	99.427152
857.000000	99.417827
856.000000	99.412103
855.000000	99.406876
854.000000	99.403724
853.000000	99.406436
852.000000	99.415133
851.000000	99.425440
850.000000	99.432256
849.000000	99.432949
848.000000	99.428312
847.000000	99.421910
846.000000	99.417624
845.000000	99.416801
844.000000	99.418437
843.000000	99.421961
842.000000	99.427511
841.000000	99.432586
840.000000	99.431576
839.000000	99.421586
838.000000	99.407681
837.000000	99.399334
836.000000	99.401479
835.000000	99.410898
834.000000	99.421263
833.000000	99.430036
832.000000	99.439730
831.000000	99.452952
830.000000	99.466821
829.000000	99.473113
828.000000	99.465931
827.000000	99.449821
826.000000	99.437593
825.000000	99.437694
824.000000	99.445346
823.000000	99.449441
822.000000	99.446500
821.000000	99.442944
820.000000	99.444267
819.000000	99.447492
818.000000	99.446400
817.000000	99.440482
816.000000	99.435293
815.000000	99.435171
814.000000	99.438192
813.000000	99.438569
812.000000	99.432515
811.000000	99.421825
810.000000	99.413140
809.000000	99.413457
808.000000	99.424705
807.000000	99.441949
806.000000	99.457302
805.000000	99.465841
804.000000	99.467386
803.000000	99.463458
802.000000	99.454941
801.000000	99.443610
800.000000	99.433740
799.000000	99.429387
798.000000	99.429851
797.000000	99.429608
796.000000	99.423812
795.000000	99.413417
794.000000	99.404216
793.000000	99.401057
792.000000	99.403379
791.000000	99.406647
790.000000	99.408265
789.000000	99.411393
788.000000	99.421318
787.000000	99.437702
786.000000	99.452569
785.000000	99.457967
784.000000	99.454334
783.000000	99.448954
782.000000	99.447092
781.000000	99.447644
780.000000	99.447408
779.000000	99.445792
778.000000	99.443250
777.000000	99.438149
776.000000	99.428661
775.000000	99.416971
774.000000	99.408828
773.000000	99.408214
772.000000	99.413529
771.000000	99.419387
770.000000	99.421719
769.000000	99.420978
768.000000	99.420396
767.000000	99.421243
766.000000	99.421131
765.000000	99.418574
764.000000	99.417727
763.000000	99.424776
762.000000	99.439074
761.000000	99.451741
760.000000	99.455000
759.000000	99.449885
758.000000	99.442461
757.000000	99.435451
756.000000	99.426841
755.000000	99.414703
754.000000	99.399857
753.000000	99.384872
752.000000	99.373406
751.000000	99.369088
750.000000	99.371648
749.000000	99.374811
748.000000	99.371229
747.000000	99.359525
746.000000	99.344639
745.000000	99.332229
744.000000	99.324936
743.000000	99.322830
742.000000	99.324394
741.000000	99.327474
740.000000	99.331260
739.000000	99.336059
738.000000	99.339452
737.000000	99.335846
736.000000	99.323500
735.000000	99.309218
734.000000	99.301043
733.000000	99.298550
732.000000	99.296069
731.000000	99.293310
730.000000	99.294582
729.000000	99.296884
728.000000	99.288323
727.000000	99.263026
726.000000	99.231293
725.000000	99.209628
724.000000	99.204622
723.000000	99.210747
722.000000	99.219448
721.000000	99.225004
720.000000	99.224383
719.000000	99.217607
718.000000	99.207827
717.000000	99.197300
716.000000	99.184356
715.000000	99.167289
714.000000	99.149776
713.000000	99.138899
712.000000	99.137509
711.000000	99.140219
710.000000	99.137038
709.000000	99.120308
708.000000	99.090090
707.000000	99.054984
706.000000	99.026319
705.000000	99.009922
704.000000	99.003917
703.000000	99.003632
702.000000	99.005328
701.000000	99.004626
700.000000	98.997142
699.000000	98.984779
698.000000	98.977693
697.000000	98.984378
696.000000	99.001409
695.000000	99.017922
694.000000	99.027396
693.000000	99.029163
692.000000	99.020832
691.000000	98.998890
690.000000	98.968978
689.000000	98.946743
688.000000	98.941665
687.000000	98.945032
686.000000	98.942203
685.000000	98.931856
684.000000	98.924516
683.000000	98.924226
682.000000	98.921808
681.000000	98.909023
680.000000	98.891587
679.000000	98.882629
678.000000	98.885941
677.000000	98.891207
676.000000	98.885734
675.000000	98.866242
674.000000	98.840624
673.000000	98.820417
672.000000	98.810091
671.000000	98.804891
670.000000	98.798841
669.000000	98.794377
668.000000	98.795657
667.000000	98.802140
666.000000	98.803542
665.000000	98.792422
664.000000	98.778262
663.000000	98.771794
662.000000	98.770313
661.000000	98.764996
660.000000	98.758519
659.000000	98.763431
658.000000	98.780513
657.000000	98.793334
656.000000	98.790178
655.000000	98.779294
654.000000	98.777265
653.000000	98.789771
652.000000	98.810103
651.000000	98.829547
650.000000	98.841862
649.000000	98.843173
648.000000	98.836398
647.000000	98.834017
646.000000	98.848298
645.000000	98.877237
644.000000	98.905491
643.000000	98.920186
642.000000	98.922658
641.000000	98.924380
640.000000	98.933713
639.000000	98.948700
638.000000	98.960991
637.000000	98.964114
636.000000	98.957664
635.000000	98.945055
634.000000	98.929000
633.000000	98.909911
632.000000	98.888514
631.000000	98.869195
630.000000	98.858967
629.000000	98.861300
628.000000	98.870625
627.000000	98.874040
626.000000	98.862114
625.000000	98.840590
624.000000	98.827986
623.000000	98.838285
622.000000	98.867443
621.000000	98.899208
620.000000	98.921337
619.000000	98.931363
618.000000	98.930208
617.000000	98.918699
616.000000	98.901894
615.000000	98.889621
614.000000	98.888425
613.000000	98.896687
612.000000	98.908571
611.000000	98.918187
610.000000	98.918654
609.000000	98.902894
608.000000	98.870712
607.000000	98.832580
606.000000	98.801553
605.000000	98.782153
604.000000	98.770146
603.000000	98.761669
602.000000	98.759260
601.000000	98.768014
600.000000	98.787168
599.000000	98.806341
598.000000	98.812222
597.000000	98.800855
596.000000	98.781058
595.000000	98.764867
594.000000	98.758397
593.000000	98.763595
592.000000	98.782647
591.000000	98.811654
590.000000	98.833343
589.000000	98.829243
588.000000	98.799505
587.000000	98.761543
586.000000	98.730076
585.000000	98.706883
584.000000	98.692418
583.000000	98.696353
582.000000	98.726795
581.000000	98.775079
580.000000	98.819291
579.000000	98.840571
578.000000	98.833233
577.000000	98.804650
576.000000	98.771121
575.000000	98.747431
574.000000	98.732046
573.000000	98.709460
572.000000	98.672493
571.000000	98.635109
570.000000	98.616548
569.000000	98.617594
568.000000	98.623735
567.000000	98.628888
566.000000	98.643481
565.000000	98.676759
564.000000	98.718897
563.000000	98.743520
562.000000	98.728527
561.000000	98.678071
560.000000	98.623567
559.000000	98.598406
558.000000	98.609221
557.000000	98.636312
556.000000	98.661666
555.000000	98.684106
554.000000	98.702230
553.000000	98.700587
552.000000	98.667470
551.000000	98.619002
550.000000	98.590858
549.000000	98.602284
548.000000	98.637936
547.000000	98.665578
546.000000	98.664204
545.000000	98.638482
544.000000	98.612528
543.000000	98.608624
542.000000	98.627250
541.000000	98.649363
540.000000	98.659689
539.000000	98.659602
538.000000	98.654628
537.000000	98.641347
536.000000	98.616744
535.000000	98.591379
534.000000	98.578270
533.000000	98.573918
532.000000	98.565487
531.000000	98.552869
530.000000	98.548938
529.000000	98.559592
528.000000	98.576815
527.000000	98.591428
526.000000	98.603180
525.000000	98.616219
524.000000	98.630847
523.000000	98.642111
522.000000	98.644108
521.000000	98.638515
520.000000	98.640946
519.000000	98.669527
518.000000	98.717291
517.000000	98.748799
516.000000	98.742621
515.000000	98.722192
514.000000	98.725403
513.000000	98.756693
512.000000	98.785151
511.000000	98.785194
510.000000	98.764324
509.000000	98.746762
508.000000	98.746163
507.000000	98.763103
506.000000	98.796530
505.000000	98.846164
504.000000	98.904150
503.000000	98.950057
502.000000	98.960804
501.000000	98.934549
500.000000	98.900496
499.000000	98.894317
498.000000	98.926420
497.000000	98.972621
496.000000	98.997334
495.000000	98.989298
494.000000	98.972385
493.000000	98.982448
492.000000	99.030146
491.000000	99.084590
490.000000	99.101714
489.000000	99.070007
488.000000	99.020583
487.000000	98.990616
486.000000	98.987073
485.000000	98.993835
484.000000	99.002545
483.000000	99.016762
482.000000	99.031453
481.000000	99.035675
480.000000	99.035797
479.000000	99.045204
478.000000	99.049538
477.000000	99.017275
476.000000	98.955443
475.000000	98.920859
474.000000	98.954403
473.000000	99.023688
472.000000	99.060884
471.000000	99.049581
470.000000	99.023982
469.000000	99.000603
468.000000	98.973662
467.000000	98.957598
466.000000	98.982478
465.000000	99.049250
464.000000	99.127173
463.000000	99.192111
462.000000	99.244467
461.000000	99.290389
460.000000	99.332842
459.000000	99.367933
458.000000	99.408056
457.000000	99.414870
456.000000	99.414194
455.000000	99.449175
454.000000	99.521970
453.000000	99.575680
452.000000	99.541909
451.000000	99.441305
450.000000	99.365428
