PE IR       SUBTECH     SPECTRUM    ASCII       PEDS        4.00        
   -1
Histo1-Veau-S2_002_1.ASC
23/09/14
10:26:27.00
23/09/14
11:18:22.00
uco
Sample 002 By uco Date Thursday, September 14 2023
450.000000
#HDR
-1
-1
#GR
cm-1
%T
1.0
0.0
4000.000000
-1.000000
3551
8
99.637494
94.927800
#DATA
4000.000000	99.505816
3999.000000	99.508779
3998.000000	99.511898
3997.000000	99.516397
3996.000000	99.520391
3995.000000	99.522620
3994.000000	99.522539
3993.000000	99.520062
3992.000000	99.515509
3991.000000	99.509939
3990.000000	99.505213
3989.000000	99.503138
3988.000000	99.504221
3987.000000	99.507240
3986.000000	99.510089
3985.000000	99.511258
3984.000000	99.510559
3983.000000	99.508670
3982.000000	99.506102
3981.000000	99.502778
3980.000000	99.498573
3979.000000	99.493923
3978.000000	99.489606
3977.000000	99.486167
3976.000000	99.483753
3975.000000	99.482322
3974.000000	99.481811
3973.000000	99.482166
3972.000000	99.483422
3971.000000	99.485671
3970.000000	99.488774
3969.000000	99.492053
3968.000000	99.494561
3967.000000	99.495873
3966.000000	99.496585
3965.000000	99.497733
3964.000000	99.499411
3963.000000	99.500099
3962.000000	99.497794
3961.000000	99.492164
3960.000000	99.485515
3959.000000	99.481157
3958.000000	99.480824
3957.000000	99.483484
3956.000000	99.486347
3955.000000	99.486886
3954.000000	99.484479
3953.000000	99.480572
3952.000000	99.477274
3951.000000	99.475892
3950.000000	99.476251
3949.000000	99.477365
3948.000000	99.478750
3947.000000	99.480763
3946.000000	99.483471
3945.000000	99.485536
3944.000000	99.484909
3943.000000	99.480723
3942.000000	99.474575
3941.000000	99.469538
3940.000000	99.467362
3939.000000	99.467154
3938.000000	99.467310
3937.000000	99.467803
3936.000000	99.470333
3935.000000	99.476181
3934.000000	99.484082
3933.000000	99.490387
3932.000000	99.491552
3931.000000	99.486976
3930.000000	99.479069
3929.000000	99.471026
3928.000000	99.465238
3927.000000	99.462947
3926.000000	99.463917
3925.000000	99.466557
3924.000000	99.469127
3923.000000	99.470209
3922.000000	99.468254
3921.000000	99.462957
3920.000000	99.457525
3919.000000	99.456458
3918.000000	99.460208
3917.000000	99.463977
3916.000000	99.463271
3915.000000	99.458335
3914.000000	99.451997
3913.000000	99.445814
3912.000000	99.440130
3911.000000	99.434838
3910.000000	99.430241
3909.000000	99.427730
3908.000000	99.430544
3907.000000	99.442166
3906.000000	99.462814
3905.000000	99.486775
3904.000000	99.504743
3903.000000	99.511455
3902.000000	99.508401
3901.000000	99.498965
3900.000000	99.485629
3899.000000	99.472233
3898.000000	99.463078
3897.000000	99.458547
3896.000000	99.455050
3895.000000	99.450379
3894.000000	99.447096
3893.000000	99.448817
3892.000000	99.454845
3891.000000	99.460344
3890.000000	99.464188
3889.000000	99.468965
3888.000000	99.474550
3887.000000	99.479154
3886.000000	99.481897
3885.000000	99.483215
3884.000000	99.486171
3883.000000	99.491780
3882.000000	99.495748
3881.000000	99.494570
3880.000000	99.488919
3879.000000	99.483398
3878.000000	99.482025
3877.000000	99.482354
3876.000000	99.479883
3875.000000	99.473772
3874.000000	99.466787
3873.000000	99.464453
3872.000000	99.469773
3871.000000	99.477384
3870.000000	99.478243
3869.000000	99.471916
3868.000000	99.468499
3867.000000	99.472001
3866.000000	99.476520
3865.000000	99.478111
3864.000000	99.477266
3863.000000	99.474526
3862.000000	99.470367
3861.000000	99.466183
3860.000000	99.464883
3859.000000	99.467300
3858.000000	99.470879
3857.000000	99.472762
3856.000000	99.474061
3855.000000	99.479824
3854.000000	99.490994
3853.000000	99.498235
3852.000000	99.501051
3851.000000	99.505490
3850.000000	99.502335
3849.000000	99.486182
3848.000000	99.465535
3847.000000	99.450043
3846.000000	99.442826
3845.000000	99.441945
3844.000000	99.444901
3843.000000	99.450626
3842.000000	99.459081
3841.000000	99.468581
3840.000000	99.476073
3839.000000	99.480816
3838.000000	99.485574
3837.000000	99.492159
3836.000000	99.498702
3835.000000	99.501191
3834.000000	99.496581
3833.000000	99.484672
3832.000000	99.468577
3831.000000	99.454383
3830.000000	99.447894
3829.000000	99.449497
3828.000000	99.453991
3827.000000	99.455364
3826.000000	99.452821
3825.000000	99.451827
3824.000000	99.457564
3823.000000	99.468288
3822.000000	99.475645
3821.000000	99.469941
3820.000000	99.456891
3819.000000	99.454145
3818.000000	99.462626
3817.000000	99.470017
3816.000000	99.468731
3815.000000	99.462767
3814.000000	99.461273
3813.000000	99.463123
3812.000000	99.460172
3811.000000	99.452175
3810.000000	99.445121
3809.000000	99.441615
3808.000000	99.437789
3807.000000	99.428862
3806.000000	99.418601
3805.000000	99.416701
3804.000000	99.424681
3803.000000	99.435689
3802.000000	99.442221
3801.000000	99.440484
3800.000000	99.438877
3799.000000	99.445003
3798.000000	99.450817
3797.000000	99.448606
3796.000000	99.441688
3795.000000	99.438047
3794.000000	99.440287
3793.000000	99.443091
3792.000000	99.441371
3791.000000	99.436287
3790.000000	99.431815
3789.000000	99.430054
3788.000000	99.430702
3787.000000	99.432060
3786.000000	99.431303
3785.000000	99.426450
3784.000000	99.419737
3783.000000	99.416473
3782.000000	99.418546
3781.000000	99.422036
3780.000000	99.422527
3779.000000	99.420646
3778.000000	99.421880
3777.000000	99.428965
3776.000000	99.437781
3775.000000	99.443282
3774.000000	99.445729
3773.000000	99.448518
3772.000000	99.452781
3771.000000	99.455658
3770.000000	99.454137
3769.000000	99.449964
3768.000000	99.448399
3767.000000	99.450554
3766.000000	99.452313
3765.000000	99.451025
3764.000000	99.449515
3763.000000	99.452484
3762.000000	99.460257
3761.000000	99.469873
3760.000000	99.478785
3759.000000	99.484255
3758.000000	99.483497
3757.000000	99.476261
3756.000000	99.466203
3755.000000	99.458031
3754.000000	99.454644
3753.000000	99.457256
3752.000000	99.465308
3751.000000	99.473698
3750.000000	99.475911
3749.000000	99.474515
3748.000000	99.477464
3747.000000	99.486652
3746.000000	99.497268
3745.000000	99.501681
3744.000000	99.497066
3743.000000	99.496859
3742.000000	99.509229
3741.000000	99.519575
3740.000000	99.519441
3739.000000	99.516174
3738.000000	99.516703
3737.000000	99.518716
3736.000000	99.516575
3735.000000	99.510630
3734.000000	99.505645
3733.000000	99.501788
3732.000000	99.495835
3731.000000	99.489311
3730.000000	99.485608
3729.000000	99.483862
3728.000000	99.481574
3727.000000	99.479207
3726.000000	99.478665
3725.000000	99.480416
3724.000000	99.483042
3723.000000	99.485447
3722.000000	99.487563
3721.000000	99.488653
3720.000000	99.487252
3719.000000	99.482646
3718.000000	99.475883
3717.000000	99.469669
3716.000000	99.467539
3715.000000	99.470589
3714.000000	99.475192
3713.000000	99.475396
3712.000000	99.468138
3711.000000	99.457923
3710.000000	99.453074
3709.000000	99.454864
3708.000000	99.456866
3707.000000	99.454311
3706.000000	99.448932
3705.000000	99.445325
3704.000000	99.445937
3703.000000	99.448226
3702.000000	99.445109
3701.000000	99.431626
3700.000000	99.411924
3699.000000	99.394723
3698.000000	99.384661
3697.000000	99.381975
3696.000000	99.385684
3695.000000	99.393655
3694.000000	99.401554
3693.000000	99.405699
3692.000000	99.406963
3691.000000	99.409017
3690.000000	99.411341
3689.000000	99.408363
3688.000000	99.400671
3687.000000	99.396700
3686.000000	99.398110
3685.000000	99.398090
3684.000000	99.393417
3683.000000	99.388140
3682.000000	99.386106
3681.000000	99.384416
3680.000000	99.377463
3679.000000	99.367679
3678.000000	99.365985
3677.000000	99.380807
3676.000000	99.405122
3675.000000	99.420618
3674.000000	99.426187
3673.000000	99.431236
3672.000000	99.431769
3671.000000	99.423275
3670.000000	99.408464
3669.000000	99.394338
3668.000000	99.389486
3667.000000	99.392105
3666.000000	99.392529
3665.000000	99.386755
3664.000000	99.378346
3663.000000	99.372657
3662.000000	99.371436
3661.000000	99.372042
3660.000000	99.371914
3659.000000	99.372121
3658.000000	99.374803
3657.000000	99.378895
3656.000000	99.380273
3655.000000	99.378907
3654.000000	99.378278
3653.000000	99.378099
3652.000000	99.376811
3651.000000	99.375016
3650.000000	99.371132
3649.000000	99.362418
3648.000000	99.353433
3647.000000	99.350990
3646.000000	99.353547
3645.000000	99.354759
3644.000000	99.351140
3643.000000	99.343860
3642.000000	99.336696
3641.000000	99.332468
3640.000000	99.330745
3639.000000	99.328091
3638.000000	99.321707
3637.000000	99.312967
3636.000000	99.305639
3635.000000	99.301667
3634.000000	99.300621
3633.000000	99.303489
3632.000000	99.313597
3631.000000	99.331994
3630.000000	99.351816
3629.000000	99.356663
3628.000000	99.339601
3627.000000	99.316875
3626.000000	99.298203
3625.000000	99.279356
3624.000000	99.262571
3623.000000	99.256053
3622.000000	99.262490
3621.000000	99.274121
3620.000000	99.277520
3619.000000	99.265189
3618.000000	99.244260
3617.000000	99.228893
3616.000000	99.225721
3615.000000	99.232126
3614.000000	99.241013
3613.000000	99.245187
3612.000000	99.242955
3611.000000	99.237872
3610.000000	99.231568
3609.000000	99.221561
3608.000000	99.206076
3607.000000	99.188241
3606.000000	99.173263
3605.000000	99.162540
3604.000000	99.154295
3603.000000	99.147012
3602.000000	99.139913
3601.000000	99.133049
3600.000000	99.128177
3599.000000	99.127875
3598.000000	99.131948
3597.000000	99.137366
3596.000000	99.141064
3595.000000	99.141469
3594.000000	99.137779
3593.000000	99.130261
3592.000000	99.120222
3591.000000	99.109351
3590.000000	99.098676
3589.000000	99.088415
3588.000000	99.078488
3587.000000	99.069404
3586.000000	99.062130
3585.000000	99.054573
3584.000000	99.041870
3583.000000	99.022493
3582.000000	99.000280
3581.000000	98.980692
3580.000000	98.967280
3579.000000	98.960655
3578.000000	98.958419
3577.000000	98.956642
3576.000000	98.952195
3575.000000	98.944289
3574.000000	98.933979
3573.000000	98.923140
3572.000000	98.913945
3571.000000	98.908271
3570.000000	98.906670
3569.000000	98.907346
3568.000000	98.905526
3567.000000	98.894987
3566.000000	98.874050
3565.000000	98.848402
3564.000000	98.824491
3563.000000	98.804611
3562.000000	98.787376
3561.000000	98.769750
3560.000000	98.750396
3559.000000	98.731532
3558.000000	98.716293
3557.000000	98.705573
3556.000000	98.698476
3555.000000	98.693711
3554.000000	98.689069
3553.000000	98.681139
3552.000000	98.668097
3551.000000	98.652156
3550.000000	98.637448
3549.000000	98.626472
3548.000000	98.619657
3547.000000	98.615344
3546.000000	98.608932
3545.000000	98.595452
3544.000000	98.575524
3543.000000	98.555982
3542.000000	98.543771
3541.000000	98.540370
3540.000000	98.542271
3539.000000	98.544812
3538.000000	98.544992
3537.000000	98.541995
3536.000000	98.536758
3535.000000	98.531175
3534.000000	98.526708
3533.000000	98.523797
3532.000000	98.522339
3531.000000	98.522104
3530.000000	98.522378
3529.000000	98.522781
3528.000000	98.524842
3527.000000	98.531176
3526.000000	98.541631
3525.000000	98.551345
3524.000000	98.554062
3523.000000	98.547492
3522.000000	98.535288
3521.000000	98.523945
3520.000000	98.518030
3519.000000	98.517773
3518.000000	98.520332
3517.000000	98.523280
3516.000000	98.526902
3515.000000	98.532670
3514.000000	98.540314
3513.000000	98.547748
3512.000000	98.553220
3511.000000	98.555994
3510.000000	98.555032
3509.000000	98.549334
3508.000000	98.540708
3507.000000	98.534375
3506.000000	98.535123
3505.000000	98.543547
3504.000000	98.555436
3503.000000	98.564040
3502.000000	98.563863
3501.000000	98.553825
3500.000000	98.537781
3499.000000	98.522245
3498.000000	98.512793
3497.000000	98.511241
3496.000000	98.515311
3495.000000	98.520646
3494.000000	98.523425
3493.000000	98.522208
3492.000000	98.518014
3491.000000	98.512690
3490.000000	98.507126
3489.000000	98.501138
3488.000000	98.494782
3487.000000	98.489083
3486.000000	98.485429
3485.000000	98.484623
3484.000000	98.486377
3483.000000	98.489179
3482.000000	98.490957
3481.000000	98.490524
3480.000000	98.487837
3479.000000	98.482427
3478.000000	98.473077
3477.000000	98.460177
3476.000000	98.447015
3475.000000	98.437181
3474.000000	98.431622
3473.000000	98.429816
3472.000000	98.432310
3471.000000	98.439543
3470.000000	98.448923
3469.000000	98.455914
3468.000000	98.458190
3467.000000	98.456815
3466.000000	98.453349
3465.000000	98.447980
3464.000000	98.440752
3463.000000	98.432398
3462.000000	98.423247
3461.000000	98.413233
3460.000000	98.403682
3459.000000	98.397325
3458.000000	98.395706
3457.000000	98.397710
3456.000000	98.400862
3455.000000	98.402942
3454.000000	98.402203
3453.000000	98.397708
3452.000000	98.390005
3451.000000	98.380504
3450.000000	98.370186
3449.000000	98.360385
3448.000000	98.354082
3447.000000	98.353510
3446.000000	98.355976
3445.000000	98.355060
3444.000000	98.346924
3443.000000	98.333539
3442.000000	98.319496
3441.000000	98.307887
3440.000000	98.299933
3439.000000	98.295844
3438.000000	98.294164
3437.000000	98.292067
3436.000000	98.288186
3435.000000	98.284041
3434.000000	98.281268
3433.000000	98.278629
3432.000000	98.273286
3431.000000	98.264073
3430.000000	98.252056
3429.000000	98.238755
3428.000000	98.225070
3427.000000	98.211342
3426.000000	98.197504
3425.000000	98.183467
3424.000000	98.169706
3423.000000	98.156836
3422.000000	98.144541
3421.000000	98.132071
3420.000000	98.119966
3419.000000	98.109970
3418.000000	98.102891
3417.000000	98.097828
3416.000000	98.093519
3415.000000	98.089003
3414.000000	98.082946
3413.000000	98.074097
3412.000000	98.062818
3411.000000	98.050739
3410.000000	98.038775
3409.000000	98.027043
3408.000000	98.016828
3407.000000	98.010456
3406.000000	98.008462
3405.000000	98.008357
3404.000000	98.006714
3403.000000	98.001382
3402.000000	97.991907
3401.000000	97.979840
3400.000000	97.968745
3399.000000	97.961757
3398.000000	97.958372
3397.000000	97.955351
3396.000000	97.951260
3395.000000	97.948400
3394.000000	97.949799
3393.000000	97.956112
3392.000000	97.965744
3391.000000	97.975904
3390.000000	97.982893
3389.000000	97.983738
3388.000000	97.979138
3387.000000	97.973518
3386.000000	97.970873
3385.000000	97.971469
3384.000000	97.973252
3383.000000	97.974879
3382.000000	97.976381
3381.000000	97.978249
3380.000000	97.981000
3379.000000	97.984561
3378.000000	97.987361
3377.000000	97.987176
3376.000000	97.983618
3375.000000	97.978870
3374.000000	97.975539
3373.000000	97.974729
3372.000000	97.976337
3371.000000	97.979713
3370.000000	97.983399
3369.000000	97.985632
3368.000000	97.985766
3367.000000	97.984214
3366.000000	97.980807
3365.000000	97.974863
3364.000000	97.967264
3363.000000	97.960615
3362.000000	97.956459
3361.000000	97.953735
3360.000000	97.950730
3359.000000	97.947131
3358.000000	97.943539
3357.000000	97.940453
3356.000000	97.938597
3355.000000	97.938841
3354.000000	97.940611
3353.000000	97.941375
3352.000000	97.938768
3351.000000	97.932733
3350.000000	97.925325
3349.000000	97.919298
3348.000000	97.916794
3347.000000	97.917930
3346.000000	97.920100
3345.000000	97.919910
3344.000000	97.916563
3343.000000	97.912434
3342.000000	97.909989
3341.000000	97.909310
3340.000000	97.908784
3339.000000	97.906836
3338.000000	97.902653
3337.000000	97.896584
3336.000000	97.890220
3335.000000	97.884943
3334.000000	97.880214
3333.000000	97.874524
3332.000000	97.867993
3331.000000	97.862229
3330.000000	97.857583
3329.000000	97.852666
3328.000000	97.847146
3327.000000	97.843179
3326.000000	97.843097
3325.000000	97.846946
3324.000000	97.852728
3323.000000	97.857579
3322.000000	97.858322
3321.000000	97.853000
3320.000000	97.842888
3319.000000	97.831636
3318.000000	97.821781
3317.000000	97.813518
3316.000000	97.807109
3315.000000	97.804105
3314.000000	97.804872
3313.000000	97.807028
3312.000000	97.808038
3311.000000	97.807923
3310.000000	97.807927
3309.000000	97.807814
3308.000000	97.806311
3307.000000	97.803364
3306.000000	97.800160
3305.000000	97.797257
3304.000000	97.793856
3303.000000	97.788755
3302.000000	97.781608
3301.000000	97.773758
3300.000000	97.768164
3299.000000	97.767471
3298.000000	97.771390
3297.000000	97.776602
3296.000000	97.779600
3295.000000	97.779038
3294.000000	97.775340
3293.000000	97.769631
3292.000000	97.763820
3291.000000	97.760389
3290.000000	97.760865
3289.000000	97.764686
3288.000000	97.769867
3287.000000	97.774163
3286.000000	97.775650
3285.000000	97.773598
3284.000000	97.769535
3283.000000	97.766687
3282.000000	97.767667
3281.000000	97.772721
3280.000000	97.779890
3279.000000	97.786064
3278.000000	97.788452
3277.000000	97.786426
3276.000000	97.782053
3275.000000	97.777837
3274.000000	97.774415
3273.000000	97.771805
3272.000000	97.771881
3271.000000	97.777084
3270.000000	97.786382
3269.000000	97.795015
3268.000000	97.799092
3267.000000	97.798864
3266.000000	97.797164
3265.000000	97.796452
3264.000000	97.798094
3263.000000	97.802526
3262.000000	97.808936
3261.000000	97.815916
3260.000000	97.823008
3259.000000	97.830394
3258.000000	97.836948
3257.000000	97.840622
3256.000000	97.841469
3255.000000	97.842336
3254.000000	97.845327
3253.000000	97.849400
3252.000000	97.852801
3251.000000	97.856168
3250.000000	97.861465
3249.000000	97.868803
3248.000000	97.875959
3247.000000	97.880489
3246.000000	97.881327
3245.000000	97.879004
3244.000000	97.875378
3243.000000	97.872892
3242.000000	97.873346
3241.000000	97.877379
3240.000000	97.884869
3239.000000	97.894772
3238.000000	97.904565
3237.000000	97.911293
3236.000000	97.914081
3235.000000	97.914819
3234.000000	97.915709
3233.000000	97.916994
3232.000000	97.917545
3231.000000	97.916878
3230.000000	97.916030
3229.000000	97.917088
3228.000000	97.922049
3227.000000	97.931081
3226.000000	97.941505
3225.000000	97.949527
3224.000000	97.953476
3223.000000	97.954790
3222.000000	97.955797
3221.000000	97.957699
3220.000000	97.960632
3219.000000	97.963958
3218.000000	97.965927
3217.000000	97.964583
3216.000000	97.960348
3215.000000	97.957015
3214.000000	97.958952
3213.000000	97.967441
3212.000000	97.980116
3211.000000	97.993177
3210.000000	98.003552
3209.000000	98.009707
3208.000000	98.011700
3207.000000	98.010921
3206.000000	98.009582
3205.000000	98.009996
3204.000000	98.013328
3203.000000	98.018296
3202.000000	98.021855
3201.000000	98.022195
3200.000000	98.020797
3199.000000	98.020689
3198.000000	98.023254
3197.000000	98.027831
3196.000000	98.033445
3195.000000	98.039110
3194.000000	98.043043
3193.000000	98.044066
3192.000000	98.044064
3191.000000	98.046778
3190.000000	98.053304
3189.000000	98.060511
3188.000000	98.064820
3187.000000	98.066079
3186.000000	98.066936
3185.000000	98.069780
3184.000000	98.075299
3183.000000	98.082882
3182.000000	98.091144
3181.000000	98.098455
3180.000000	98.103705
3179.000000	98.106469
3178.000000	98.106688
3177.000000	98.105092
3176.000000	98.103777
3175.000000	98.105005
3174.000000	98.109184
3173.000000	98.115057
3172.000000	98.121803
3171.000000	98.129583
3170.000000	98.137927
3169.000000	98.145276
3168.000000	98.150642
3167.000000	98.154346
3166.000000	98.156776
3165.000000	98.158061
3164.000000	98.159617
3163.000000	98.164173
3162.000000	98.172973
3161.000000	98.183964
3160.000000	98.193741
3159.000000	98.200356
3158.000000	98.203753
3157.000000	98.204975
3156.000000	98.206165
3155.000000	98.209979
3154.000000	98.217298
3153.000000	98.225851
3152.000000	98.232158
3151.000000	98.234426
3150.000000	98.233148
3149.000000	98.229867
3148.000000	98.226432
3147.000000	98.224729
3146.000000	98.225769
3145.000000	98.229121
3144.000000	98.233824
3143.000000	98.239542
3142.000000	98.246222
3141.000000	98.253028
3140.000000	98.258475
3139.000000	98.261827
3138.000000	98.264194
3137.000000	98.267965
3136.000000	98.274656
3135.000000	98.282916
3134.000000	98.289323
3133.000000	98.292031
3132.000000	98.293162
3131.000000	98.296196
3130.000000	98.301435
3129.000000	98.305777
3128.000000	98.307163
3127.000000	98.307428
3126.000000	98.309850
3125.000000	98.315220
3124.000000	98.321470
3123.000000	98.326215
3122.000000	98.328514
3121.000000	98.328879
3120.000000	98.328635
3119.000000	98.329066
3118.000000	98.330571
3117.000000	98.332878
3116.000000	98.336134
3115.000000	98.341026
3114.000000	98.347394
3113.000000	98.353508
3112.000000	98.357309
3111.000000	98.357935
3110.000000	98.355795
3109.000000	98.351915
3108.000000	98.347646
3107.000000	98.344226
3106.000000	98.341960
3105.000000	98.340149
3104.000000	98.338129
3103.000000	98.335912
3102.000000	98.333794
3101.000000	98.332235
3100.000000	98.332397
3099.000000	98.335749
3098.000000	98.342571
3097.000000	98.351307
3096.000000	98.359627
3095.000000	98.365655
3094.000000	98.368173
3093.000000	98.366609
3092.000000	98.361446
3091.000000	98.354345
3090.000000	98.347491
3089.000000	98.342876
3088.000000	98.341543
3087.000000	98.342671
3086.000000	98.343758
3085.000000	98.343134
3084.000000	98.342446
3083.000000	98.345175
3082.000000	98.351999
3081.000000	98.358832
3080.000000	98.360490
3079.000000	98.355881
3078.000000	98.348969
3077.000000	98.345069
3076.000000	98.346605
3075.000000	98.351877
3074.000000	98.357142
3073.000000	98.359988
3072.000000	98.361036
3071.000000	98.362568
3070.000000	98.365953
3069.000000	98.370687
3068.000000	98.375247
3067.000000	98.377848
3066.000000	98.376920
3065.000000	98.372345
3064.000000	98.366567
3063.000000	98.363453
3062.000000	98.365516
3061.000000	98.372479
3060.000000	98.382071
3059.000000	98.391380
3058.000000	98.397997
3057.000000	98.401315
3056.000000	98.402870
3055.000000	98.404272
3054.000000	98.404837
3053.000000	98.402596
3052.000000	98.397780
3051.000000	98.393859
3050.000000	98.394419
3049.000000	98.399812
3048.000000	98.407349
3047.000000	98.414008
3046.000000	98.418514
3045.000000	98.421660
3044.000000	98.425329
3043.000000	98.430767
3042.000000	98.437244
3041.000000	98.442483
3040.000000	98.444518
3039.000000	98.443169
3038.000000	98.440210
3037.000000	98.438515
3036.000000	98.440382
3035.000000	98.445608
3034.000000	98.451287
3033.000000	98.454434
3032.000000	98.454699
3031.000000	98.454092
3030.000000	98.454609
3029.000000	98.457010
3028.000000	98.461198
3027.000000	98.466421
3026.000000	98.471445
3025.000000	98.476004
3024.000000	98.481794
3023.000000	98.490289
3022.000000	98.499538
3021.000000	98.504896
3020.000000	98.503619
3019.000000	98.497554
3018.000000	98.490980
3017.000000	98.486934
3016.000000	98.485921
3015.000000	98.486680
3014.000000	98.487403
3013.000000	98.487236
3012.000000	98.487184
3011.000000	98.488706
3010.000000	98.491043
3009.000000	98.491067
3008.000000	98.486443
3007.000000	98.478267
3006.000000	98.470195
3005.000000	98.465670
3004.000000	98.466131
3003.000000	98.470770
3002.000000	98.477181
3001.000000	98.482742
3000.000000	98.486221
2999.000000	98.488184
2998.000000	98.489718
2997.000000	98.490947
2996.000000	98.490737
2995.000000	98.487724
2994.000000	98.481747
2993.000000	98.474397
2992.000000	98.467694
2991.000000	98.461961
2990.000000	98.455733
2989.000000	98.448133
2988.000000	98.440327
2987.000000	98.433797
2986.000000	98.428309
2985.000000	98.422882
2984.000000	98.417714
2983.000000	98.413322
2982.000000	98.408428
2981.000000	98.400737
2980.000000	98.389945
2979.000000	98.378174
2978.000000	98.367147
2977.000000	98.356424
2976.000000	98.344698
2975.000000	98.331506
2974.000000	98.317276
2973.000000	98.302964
2972.000000	98.289893
2971.000000	98.278688
2970.000000	98.267985
2969.000000	98.255045
2968.000000	98.237944
2967.000000	98.216690
2966.000000	98.192703
2965.000000	98.168222
2964.000000	98.145573
2963.000000	98.125562
2962.000000	98.106943
2961.000000	98.088971
2960.000000	98.073777
2959.000000	98.064068
2958.000000	98.058742
2957.000000	98.053145
2956.000000	98.044264
2955.000000	98.033703
2954.000000	98.025138
2953.000000	98.020727
2952.000000	98.020460
2951.000000	98.022825
2950.000000	98.024891
2949.000000	98.023394
2948.000000	98.017089
2947.000000	98.007246
2946.000000	97.995167
2945.000000	97.980293
2944.000000	97.961247
2943.000000	97.937347
2942.000000	97.908522
2941.000000	97.875078
2940.000000	97.838348
2939.000000	97.800240
2938.000000	97.761226
2937.000000	97.719930
2936.000000	97.675444
2935.000000	97.628970
2934.000000	97.582361
2933.000000	97.535973
2932.000000	97.488668
2931.000000	97.439119
2930.000000	97.386925
2929.000000	97.333778
2928.000000	97.283898
2927.000000	97.241453
2926.000000	97.206453
2925.000000	97.174505
2924.000000	97.141811
2923.000000	97.109642
2922.000000	97.083335
2921.000000	97.068057
2920.000000	97.066288
2919.000000	97.077654
2918.000000	97.099896
2917.000000	97.130951
2916.000000	97.171328
2915.000000	97.223348
2914.000000	97.286491
2913.000000	97.354517
2912.000000	97.419013
2911.000000	97.475833
2910.000000	97.526721
2909.000000	97.574945
2908.000000	97.621040
2907.000000	97.663110
2906.000000	97.700026
2905.000000	97.732858
2904.000000	97.763192
2903.000000	97.790801
2902.000000	97.813946
2901.000000	97.832157
2900.000000	97.847970
2899.000000	97.864955
2898.000000	97.884012
2897.000000	97.902826
2896.000000	97.918922
2895.000000	97.932147
2894.000000	97.944027
2893.000000	97.956117
2892.000000	97.969823
2891.000000	97.986499
2890.000000	98.006294
2889.000000	98.027276
2888.000000	98.046538
2887.000000	98.061979
2886.000000	98.072833
2885.000000	98.079485
2884.000000	98.083684
2883.000000	98.088181
2882.000000	98.094933
2881.000000	98.103688
2880.000000	98.112674
2879.000000	98.120127
2878.000000	98.124601
2877.000000	98.124714
2876.000000	98.119883
2875.000000	98.111172
2874.000000	98.100639
2873.000000	98.089967
2872.000000	98.080181
2871.000000	98.072125
2870.000000	98.066255
2869.000000	98.062076
2868.000000	98.058484
2867.000000	98.054561
2866.000000	98.049601
2865.000000	98.042698
2864.000000	98.032837
2863.000000	98.019089
2862.000000	98.000117
2861.000000	97.974073
2860.000000	97.940105
2859.000000	97.900024
2858.000000	97.857646
2857.000000	97.816167
2856.000000	97.776504
2855.000000	97.738101
2854.000000	97.701003
2853.000000	97.667156
2852.000000	97.640465
2851.000000	97.626286
2850.000000	97.630455
2849.000000	97.657652
2848.000000	97.708971
2847.000000	97.780009
2846.000000	97.861583
2845.000000	97.943446
2844.000000	98.018150
2843.000000	98.082347
2842.000000	98.135667
2841.000000	98.179394
2840.000000	98.215830
2839.000000	98.247096
2838.000000	98.274040
2837.000000	98.297025
2836.000000	98.317465
2835.000000	98.336956
2834.000000	98.354659
2833.000000	98.367632
2832.000000	98.375077
2831.000000	98.380844
2830.000000	98.389954
2829.000000	98.403579
2828.000000	98.418966
2827.000000	98.433408
2826.000000	98.446336
2825.000000	98.457779
2824.000000	98.467059
2823.000000	98.473748
2822.000000	98.478559
2821.000000	98.482429
2820.000000	98.485539
2819.000000	98.487837
2818.000000	98.489865
2817.000000	98.492504
2816.000000	98.496310
2815.000000	98.501408
2814.000000	98.507638
2813.000000	98.514449
2812.000000	98.520938
2811.000000	98.526272
2810.000000	98.530065
2809.000000	98.532524
2808.000000	98.534496
2807.000000	98.537045
2806.000000	98.540420
2805.000000	98.543586
2804.000000	98.545474
2803.000000	98.546624
2802.000000	98.548812
2801.000000	98.552924
2800.000000	98.558024
2799.000000	98.562804
2798.000000	98.567049
2797.000000	98.570976
2796.000000	98.573815
2795.000000	98.574211
2794.000000	98.572096
2793.000000	98.569314
2792.000000	98.567999
2791.000000	98.568941
2790.000000	98.571953
2789.000000	98.577246
2788.000000	98.585230
2787.000000	98.594698
2786.000000	98.602313
2785.000000	98.605129
2784.000000	98.603654
2783.000000	98.601520
2782.000000	98.601844
2781.000000	98.604527
2780.000000	98.607371
2779.000000	98.609039
2778.000000	98.610111
2777.000000	98.611738
2776.000000	98.614307
2775.000000	98.617595
2774.000000	98.621459
2773.000000	98.625898
2772.000000	98.630724
2771.000000	98.635443
2770.000000	98.639329
2769.000000	98.641575
2768.000000	98.641659
2767.000000	98.639857
2766.000000	98.637309
2765.000000	98.635331
2764.000000	98.634545
2763.000000	98.634730
2762.000000	98.635488
2761.000000	98.636876
2760.000000	98.639233
2759.000000	98.642426
2758.000000	98.645541
2757.000000	98.647513
2756.000000	98.647995
2755.000000	98.647573
2754.000000	98.647306
2753.000000	98.648161
2752.000000	98.650453
2751.000000	98.653391
2750.000000	98.655468
2749.000000	98.656116
2748.000000	98.657058
2747.000000	98.661087
2746.000000	98.668848
2745.000000	98.677229
2744.000000	98.681676
2743.000000	98.680183
2742.000000	98.674870
2741.000000	98.669924
2740.000000	98.668301
2739.000000	98.670079
2738.000000	98.673248
2737.000000	98.675724
2736.000000	98.676741
2735.000000	98.676608
2734.000000	98.675540
2733.000000	98.673239
2732.000000	98.669644
2731.000000	98.665567
2730.000000	98.662290
2729.000000	98.660861
2728.000000	98.661936
2727.000000	98.665739
2726.000000	98.671606
2725.000000	98.677937
2724.000000	98.683274
2723.000000	98.687216
2722.000000	98.689774
2721.000000	98.690268
2720.000000	98.687944
2719.000000	98.683823
2718.000000	98.681020
2717.000000	98.682494
2716.000000	98.688511
2715.000000	98.696336
2714.000000	98.702133
2713.000000	98.703375
2712.000000	98.700291
2711.000000	98.695519
2710.000000	98.692013
2709.000000	98.690886
2708.000000	98.691339
2707.000000	98.692551
2706.000000	98.694937
2705.000000	98.699221
2704.000000	98.704958
2703.000000	98.710632
2702.000000	98.714836
2701.000000	98.716700
2700.000000	98.715629
2699.000000	98.711781
2698.000000	98.706937
2697.000000	98.703828
2696.000000	98.703832
2695.000000	98.705755
2694.000000	98.707508
2693.000000	98.708578
2692.000000	98.710248
2691.000000	98.713609
2690.000000	98.718173
2689.000000	98.722566
2688.000000	98.725844
2687.000000	98.727805
2686.000000	98.728636
2685.000000	98.728826
2684.000000	98.729008
2683.000000	98.729210
2682.000000	98.728403
2681.000000	98.725463
2680.000000	98.720712
2679.000000	98.715963
2678.000000	98.712867
2677.000000	98.711631
2676.000000	98.711434
2675.000000	98.711495
2674.000000	98.711520
2673.000000	98.711678
2672.000000	98.712604
2671.000000	98.715027
2670.000000	98.718918
2669.000000	98.723332
2668.000000	98.727468
2667.000000	98.731278
2666.000000	98.734337
2665.000000	98.734777
2664.000000	98.730716
2663.000000	98.722910
2662.000000	98.714906
2661.000000	98.710143
2660.000000	98.709613
2659.000000	98.712355
2658.000000	98.716804
2657.000000	98.720902
2656.000000	98.722404
2655.000000	98.720923
2654.000000	98.719249
2653.000000	98.720937
2652.000000	98.726418
2651.000000	98.732725
2650.000000	98.737040
2649.000000	98.739119
2648.000000	98.740168
2647.000000	98.741223
2646.000000	98.743442
2645.000000	98.748202
2644.000000	98.755266
2643.000000	98.761888
2642.000000	98.765298
2641.000000	98.765478
2640.000000	98.764328
2639.000000	98.763061
2638.000000	98.762144
2637.000000	98.762957
2636.000000	98.766970
2635.000000	98.773076
2634.000000	98.778123
2633.000000	98.780919
2632.000000	98.783853
2631.000000	98.789474
2630.000000	98.797130
2629.000000	98.804270
2628.000000	98.809432
2627.000000	98.812295
2626.000000	98.812165
2625.000000	98.808713
2624.000000	98.803874
2623.000000	98.800919
2622.000000	98.801471
2621.000000	98.804961
2620.000000	98.810953
2619.000000	98.820006
2618.000000	98.831563
2617.000000	98.842580
2616.000000	98.849625
2615.000000	98.851812
2614.000000	98.851128
2613.000000	98.850540
2612.000000	98.852132
2611.000000	98.855957
2610.000000	98.859787
2609.000000	98.860870
2608.000000	98.859133
2607.000000	98.858237
2606.000000	98.862258
2605.000000	98.871198
2604.000000	98.880439
2603.000000	98.884514
2602.000000	98.881081
2601.000000	98.871927
2600.000000	98.861409
2599.000000	98.853953
2598.000000	98.851745
2597.000000	98.853928
2596.000000	98.858072
2595.000000	98.862229
2594.000000	98.865288
2593.000000	98.866256
2592.000000	98.864986
2591.000000	98.863877
2590.000000	98.867137
2589.000000	98.877054
2588.000000	98.891515
2587.000000	98.905717
2586.000000	98.915318
2585.000000	98.917629
2584.000000	98.912097
2583.000000	98.902040
2582.000000	98.894675
2581.000000	98.896174
2580.000000	98.905669
2579.000000	98.915907
2578.000000	98.920653
2577.000000	98.919866
2576.000000	98.917121
2575.000000	98.914052
2574.000000	98.909315
2573.000000	98.902077
2572.000000	98.894407
2571.000000	98.889914
2570.000000	98.890894
2569.000000	98.896722
2568.000000	98.904125
2567.000000	98.909201
2566.000000	98.910137
2565.000000	98.908414
2564.000000	98.907181
2563.000000	98.908598
2562.000000	98.912852
2561.000000	98.918702
2560.000000	98.923947
2559.000000	98.926042
2558.000000	98.924059
2557.000000	98.920528
2556.000000	98.920155
2555.000000	98.925787
2554.000000	98.935736
2553.000000	98.945028
2552.000000	98.948560
2551.000000	98.943488
2550.000000	98.930827
2549.000000	98.916636
2548.000000	98.910551
2547.000000	98.919753
2546.000000	98.941958
2545.000000	98.964860
2544.000000	98.974578
2543.000000	98.966255
2542.000000	98.946896
2541.000000	98.928459
2540.000000	98.918683
2539.000000	98.917915
2538.000000	98.922421
2537.000000	98.928832
2536.000000	98.935603
2535.000000	98.941812
2534.000000	98.945858
2533.000000	98.945774
2532.000000	98.941183
2531.000000	98.934871
2530.000000	98.931376
2529.000000	98.933142
2528.000000	98.938383
2527.000000	98.943418
2526.000000	98.946540
2525.000000	98.948557
2524.000000	98.950248
2523.000000	98.950893
2522.000000	98.949246
2521.000000	98.944670
2520.000000	98.937667
2519.000000	98.931073
2518.000000	98.930339
2517.000000	98.939707
2516.000000	98.956835
2515.000000	98.973386
2514.000000	98.982367
2513.000000	98.983133
2512.000000	98.978196
2511.000000	98.968186
2510.000000	98.953380
2509.000000	98.938252
2508.000000	98.929896
2507.000000	98.931105
2506.000000	98.938009
2505.000000	98.945466
2504.000000	98.952070
2503.000000	98.958521
2502.000000	98.963630
2501.000000	98.964748
2500.000000	98.961363
2499.000000	98.956128
2498.000000	98.952014
2497.000000	98.949729
2496.000000	98.948204
2495.000000	98.946512
2494.000000	98.944761
2493.000000	98.943415
2492.000000	98.942488
2491.000000	98.941863
2490.000000	98.942250
2489.000000	98.945251
2488.000000	98.951796
2487.000000	98.960628
2486.000000	98.968894
2485.000000	98.974372
2484.000000	98.976954
2483.000000	98.977951
2482.000000	98.978290
2481.000000	98.977694
2480.000000	98.975561
2479.000000	98.972410
2478.000000	98.969949
2477.000000	98.969434
2476.000000	98.970465
2475.000000	98.972125
2474.000000	98.974873
2473.000000	98.979785
2472.000000	98.985724
2471.000000	98.989029
2470.000000	98.987397
2469.000000	98.983149
2468.000000	98.981103
2467.000000	98.983544
2466.000000	98.988411
2465.000000	98.992026
2464.000000	98.992309
2463.000000	98.989251
2462.000000	98.983831
2461.000000	98.977590
2460.000000	98.972715
2459.000000	98.971244
2458.000000	98.973270
2457.000000	98.976036
2456.000000	98.976015
2455.000000	98.972943
2454.000000	98.971054
2453.000000	98.974729
2452.000000	98.982970
2451.000000	98.990058
2450.000000	98.992183
2449.000000	98.991329
2448.000000	98.991939
2447.000000	98.996157
2446.000000	99.003608
2445.000000	99.012964
2444.000000	99.020871
2443.000000	99.021474
2442.000000	99.011297
2441.000000	98.994593
2440.000000	98.980380
2439.000000	98.973502
2438.000000	98.971258
2437.000000	98.969187
2436.000000	98.967107
2435.000000	98.967976
2434.000000	98.973386
2433.000000	98.982376
2432.000000	98.992881
2431.000000	99.002146
2430.000000	99.006870
2429.000000	99.005659
2428.000000	99.001816
2427.000000	99.001837
2426.000000	99.010032
2425.000000	99.024871
2424.000000	99.040605
2423.000000	99.051541
2422.000000	99.054482
2421.000000	99.048293
2420.000000	99.033330
2419.000000	99.012692
2418.000000	98.992945
2417.000000	98.981160
2416.000000	98.979829
2415.000000	98.985356
2414.000000	98.992196
2413.000000	98.997741
2412.000000	99.002595
2411.000000	99.007628
2410.000000	99.012815
2409.000000	99.018368
2408.000000	99.024926
2407.000000	99.032176
2406.000000	99.038489
2405.000000	99.042281
2404.000000	99.042909
2403.000000	99.040505
2402.000000	99.036212
2401.000000	99.032539
2400.000000	99.031902
2399.000000	99.034377
2398.000000	99.037931
2397.000000	99.040939
2396.000000	99.043092
2395.000000	99.043613
2394.000000	99.040378
2393.000000	99.032148
2392.000000	99.020767
2391.000000	99.010273
2390.000000	99.004119
2389.000000	99.003692
2388.000000	99.008878
2387.000000	99.018681
2386.000000	99.031778
2385.000000	99.046571
2384.000000	99.061150
2383.000000	99.074119
2382.000000	99.085231
2381.000000	99.095302
2380.000000	99.103693
2379.000000	99.106512
2378.000000	99.099896
2377.000000	99.085291
2376.000000	99.069656
2375.000000	99.059499
2374.000000	99.057449
2373.000000	99.064264
2372.000000	99.079618
2371.000000	99.098319
2370.000000	99.111136
2369.000000	99.113654
2368.000000	99.109544
2367.000000	99.103852
2366.000000	99.097240
2365.000000	99.089442
2364.000000	99.083401
2363.000000	99.080768
2362.000000	99.078725
2361.000000	99.074008
2360.000000	99.065070
2359.000000	99.053598
2358.000000	99.045333
2357.000000	99.047646
2356.000000	99.059911
2355.000000	99.071279
2354.000000	99.076792
2353.000000	99.081167
2352.000000	99.086846
2351.000000	99.089133
2350.000000	99.083929
2349.000000	99.072410
2348.000000	99.059760
2347.000000	99.053090
2346.000000	99.052556
2345.000000	99.048261
2344.000000	99.033211
2343.000000	99.012286
2342.000000	98.997461
2341.000000	98.996603
2340.000000	99.006640
2339.000000	99.018239
2338.000000	99.027188
2337.000000	99.035115
2336.000000	99.041771
2335.000000	99.043547
2334.000000	99.041069
2333.000000	99.039404
2332.000000	99.039672
2331.000000	99.038374
2330.000000	99.033294
2329.000000	99.025601
2328.000000	99.012761
2327.000000	98.990394
2326.000000	98.960120
2325.000000	98.932222
2324.000000	98.918001
2323.000000	98.919439
2322.000000	98.928228
2321.000000	98.933679
2320.000000	98.932237
2319.000000	98.928119
2318.000000	98.927186
2317.000000	98.933395
2316.000000	98.948380
2315.000000	98.970937
2314.000000	98.994000
2313.000000	99.008000
2312.000000	99.008984
2311.000000	99.002878
2310.000000	98.997871
2309.000000	98.996197
2308.000000	98.995939
2307.000000	98.997936
2306.000000	99.004541
2305.000000	99.012779
2304.000000	99.015562
2303.000000	99.010956
2302.000000	99.005172
2301.000000	99.003689
2300.000000	99.004139
2299.000000	99.001503
2298.000000	98.995837
2297.000000	98.991000
2296.000000	98.986861
2295.000000	98.979456
2294.000000	98.967935
2293.000000	98.957381
2292.000000	98.952639
2291.000000	98.953207
2290.000000	98.955845
2289.000000	98.959389
2288.000000	98.964271
2287.000000	98.968804
2286.000000	98.969641
2285.000000	98.966748
2284.000000	98.966217
2283.000000	98.975394
2282.000000	98.995279
2281.000000	99.018797
2280.000000	99.037465
2279.000000	99.047767
2278.000000	99.049792
2277.000000	99.042658
2276.000000	99.025775
2275.000000	99.004239
2274.000000	98.987576
2273.000000	98.981088
2272.000000	98.982359
2271.000000	98.988955
2270.000000	99.004428
2269.000000	99.031129
2268.000000	99.059987
2267.000000	99.074694
2266.000000	99.067316
2265.000000	99.046436
2264.000000	99.029927
2263.000000	99.031992
2262.000000	99.054460
2261.000000	99.084613
2260.000000	99.101796
2259.000000	99.092897
2258.000000	99.064439
2257.000000	99.037096
2256.000000	99.027766
2255.000000	99.038303
2254.000000	99.059589
2253.000000	99.080874
2252.000000	99.095316
2251.000000	99.102941
2250.000000	99.110242
2249.000000	99.122438
2248.000000	99.134652
2247.000000	99.135965
2246.000000	99.124326
2245.000000	99.112235
2244.000000	99.113418
2243.000000	99.127250
2242.000000	99.140430
2241.000000	99.141929
2240.000000	99.133107
2239.000000	99.124869
2238.000000	99.128014
2237.000000	99.145204
2236.000000	99.169021
2235.000000	99.187464
2234.000000	99.192717
2233.000000	99.185292
2232.000000	99.171183
2231.000000	99.156515
2230.000000	99.144050
2229.000000	99.132536
2228.000000	99.119565
2227.000000	99.106876
2226.000000	99.101040
2225.000000	99.105524
2224.000000	99.114721
2223.000000	99.121444
2222.000000	99.127736
2221.000000	99.140405
2220.000000	99.156306
2219.000000	99.161411
2218.000000	99.146823
2217.000000	99.117819
2216.000000	99.084811
2215.000000	99.054235
2214.000000	99.033110
2213.000000	99.032383
2212.000000	99.055564
2211.000000	99.089149
2210.000000	99.113537
2209.000000	99.121739
2208.000000	99.121988
2207.000000	99.125112
2206.000000	99.135726
2205.000000	99.153522
2204.000000	99.174917
2203.000000	99.192259
2202.000000	99.196629
2201.000000	99.185004
2200.000000	99.164812
2199.000000	99.150692
2198.000000	99.154692
2197.000000	99.174827
2196.000000	99.192083
2195.000000	99.184318
2194.000000	99.146784
2193.000000	99.097272
2192.000000	99.060620
2191.000000	99.051621
2190.000000	99.072082
2189.000000	99.113494
2188.000000	99.156809
2187.000000	99.179042
2186.000000	99.171266
2185.000000	99.150165
2184.000000	99.145254
2183.000000	99.171331
2182.000000	99.213848
2181.000000	99.240913
2180.000000	99.232118
2179.000000	99.199182
2178.000000	99.175502
2177.000000	99.181243
2176.000000	99.202045
2175.000000	99.210577
2174.000000	99.205375
2173.000000	99.211966
2172.000000	99.243713
2171.000000	99.280624
2170.000000	99.293836
2169.000000	99.276189
2168.000000	99.239998
2167.000000	99.196655
2166.000000	99.151748
2165.000000	99.111120
2164.000000	99.077298
2163.000000	99.048229
2162.000000	99.035199
2161.000000	99.073245
2160.000000	99.189394
2159.000000	99.355513
2158.000000	99.496112
2157.000000	99.555754
2156.000000	99.539893
2155.000000	99.489023
2154.000000	99.439472
2153.000000	99.407511
2152.000000	99.386894
2151.000000	99.357080
2150.000000	99.304692
2149.000000	99.240358
2148.000000	99.190271
2147.000000	99.171600
2146.000000	99.180533
2145.000000	99.201651
2144.000000	99.222873
2143.000000	99.241710
2142.000000	99.261455
2141.000000	99.282831
2140.000000	99.298965
2139.000000	99.300365
2138.000000	99.285590
2137.000000	99.264640
2136.000000	99.250005
2135.000000	99.245866
2134.000000	99.248038
2133.000000	99.251948
2132.000000	99.257729
2131.000000	99.268682
2130.000000	99.286375
2129.000000	99.306008
2128.000000	99.315817
2127.000000	99.303766
2126.000000	99.268192
2125.000000	99.222653
2124.000000	99.187833
2123.000000	99.175991
2122.000000	99.182100
2121.000000	99.189785
2120.000000	99.187017
2119.000000	99.176533
2118.000000	99.170412
2117.000000	99.174917
2116.000000	99.182518
2115.000000	99.179999
2114.000000	99.162507
2113.000000	99.138299
2112.000000	99.121569
2111.000000	99.121545
2110.000000	99.135554
2109.000000	99.149929
2108.000000	99.151309
2107.000000	99.142143
2106.000000	99.141800
2105.000000	99.165847
2104.000000	99.205566
2103.000000	99.234863
2102.000000	99.237771
2101.000000	99.222490
2100.000000	99.207635
2099.000000	99.201724
2098.000000	99.199622
2097.000000	99.193102
2096.000000	99.179809
2095.000000	99.164489
2094.000000	99.154703
2093.000000	99.153928
2092.000000	99.157293
2091.000000	99.156450
2090.000000	99.148801
2089.000000	99.138998
2088.000000	99.131817
2087.000000	99.128209
2086.000000	99.129023
2085.000000	99.136341
2084.000000	99.148149
2083.000000	99.156956
2082.000000	99.158037
2081.000000	99.155738
2080.000000	99.158459
2079.000000	99.170423
2078.000000	99.190692
2077.000000	99.215347
2076.000000	99.236407
2075.000000	99.243217
2074.000000	99.230831
2073.000000	99.206311
2072.000000	99.182137
2071.000000	99.164525
2070.000000	99.152352
2069.000000	99.144719
2068.000000	99.143406
2067.000000	99.148178
2066.000000	99.155658
2065.000000	99.164761
2064.000000	99.179416
2063.000000	99.202219
2062.000000	99.226369
2061.000000	99.237609
2060.000000	99.227164
2059.000000	99.202356
2058.000000	99.180990
2057.000000	99.174481
2056.000000	99.178793
2055.000000	99.182435
2054.000000	99.179154
2053.000000	99.170117
2052.000000	99.159809
2051.000000	99.156240
2050.000000	99.170425
2049.000000	99.204596
2048.000000	99.241396
2047.000000	99.257977
2046.000000	99.251610
2045.000000	99.239032
2044.000000	99.233720
2043.000000	99.238647
2042.000000	99.259334
2041.000000	99.304063
2040.000000	99.364600
2039.000000	99.413888
2038.000000	99.431299
2037.000000	99.420819
2036.000000	99.402997
2035.000000	99.399137
2034.000000	99.424579
2033.000000	99.479134
2032.000000	99.534494
2031.000000	99.549656
2030.000000	99.510930
2029.000000	99.447885
2028.000000	99.403099
2027.000000	99.393837
2026.000000	99.408307
2025.000000	99.425467
2024.000000	99.429476
2023.000000	99.417808
2022.000000	99.405047
2021.000000	99.410077
2020.000000	99.432915
2019.000000	99.452665
2018.000000	99.452499
2017.000000	99.436693
2016.000000	99.418255
2015.000000	99.400228
2014.000000	99.377662
2013.000000	99.349295
2012.000000	99.320190
2011.000000	99.299747
2010.000000	99.300109
2009.000000	99.328641
2008.000000	99.378901
2007.000000	99.436893
2006.000000	99.493328
2005.000000	99.538275
2004.000000	99.553206
2003.000000	99.527357
2002.000000	99.478398
2001.000000	99.437864
2000.000000	99.414042
1999.000000	99.384659
1998.000000	99.333324
1997.000000	99.277980
1996.000000	99.250859
1995.000000	99.262536
1994.000000	99.296450
1993.000000	99.326903
1992.000000	99.333739
1991.000000	99.312384
1990.000000	99.279292
1989.000000	99.261865
1988.000000	99.276591
1987.000000	99.318245
1986.000000	99.369064
1985.000000	99.409042
1984.000000	99.416846
1983.000000	99.377227
1982.000000	99.300662
1981.000000	99.229360
1980.000000	99.210608
1979.000000	99.257760
1978.000000	99.337450
1977.000000	99.394249
1976.000000	99.394343
1975.000000	99.352065
1974.000000	99.312917
1973.000000	99.312660
1972.000000	99.353813
1971.000000	99.420703
1970.000000	99.502886
1969.000000	99.586739
1968.000000	99.637494
1967.000000	99.621296
1966.000000	99.548701
1965.000000	99.468850
1964.000000	99.415716
1963.000000	99.386285
1962.000000	99.370467
1961.000000	99.371628
1960.000000	99.389123
1959.000000	99.404948
1958.000000	99.404533
1957.000000	99.395602
1956.000000	99.393183
1955.000000	99.397967
1954.000000	99.399323
1953.000000	99.390914
1952.000000	99.374008
1951.000000	99.352873
1950.000000	99.333064
1949.000000	99.317961
1948.000000	99.306139
1947.000000	99.298729
1946.000000	99.307936
1945.000000	99.345466
1944.000000	99.399348
1943.000000	99.435087
1942.000000	99.431466
1941.000000	99.406202
1940.000000	99.389776
1939.000000	99.388640
1938.000000	99.388439
1937.000000	99.376881
1936.000000	99.353735
1935.000000	99.326596
1934.000000	99.305696
1933.000000	99.300030
1932.000000	99.309454
1931.000000	99.324543
1930.000000	99.336895
1929.000000	99.344013
1928.000000	99.346302
1927.000000	99.342997
1926.000000	99.335981
1925.000000	99.330539
1924.000000	99.329829
1923.000000	99.334340
1922.000000	99.344822
1921.000000	99.360462
1920.000000	99.372553
1919.000000	99.368151
1918.000000	99.344346
1917.000000	99.313445
1916.000000	99.288701
1915.000000	99.272204
1914.000000	99.262867
1913.000000	99.264349
1912.000000	99.276753
1911.000000	99.292031
1910.000000	99.303666
1909.000000	99.313133
1908.000000	99.322601
1907.000000	99.326811
1906.000000	99.322516
1905.000000	99.317248
1904.000000	99.320382
1903.000000	99.331819
1902.000000	99.342991
1901.000000	99.348184
1900.000000	99.349535
1899.000000	99.349797
1898.000000	99.347787
1897.000000	99.341370
1896.000000	99.331117
1895.000000	99.322215
1894.000000	99.321339
1893.000000	99.330173
1892.000000	99.342372
1891.000000	99.349808
1890.000000	99.351279
1889.000000	99.351544
1888.000000	99.352221
1887.000000	99.349231
1886.000000	99.341017
1885.000000	99.334051
1884.000000	99.335114
1883.000000	99.342760
1882.000000	99.351208
1881.000000	99.358213
1880.000000	99.364346
1879.000000	99.367041
1878.000000	99.363996
1877.000000	99.361114
1876.000000	99.367373
1875.000000	99.383718
1874.000000	99.402728
1873.000000	99.416741
1872.000000	99.423134
1871.000000	99.422941
1870.000000	99.418710
1869.000000	99.412592
1868.000000	99.404486
1867.000000	99.394653
1866.000000	99.385345
1865.000000	99.379207
1864.000000	99.377153
1863.000000	99.376264
1862.000000	99.372159
1861.000000	99.364742
1860.000000	99.359600
1859.000000	99.362499
1858.000000	99.373716
1857.000000	99.388002
1856.000000	99.398743
1855.000000	99.402244
1854.000000	99.399986
1853.000000	99.395881
1852.000000	99.393949
1851.000000	99.394348
1850.000000	99.395610
1849.000000	99.401738
1848.000000	99.417635
1847.000000	99.439642
1846.000000	99.455428
1845.000000	99.457059
1844.000000	99.450789
1843.000000	99.450703
1842.000000	99.460499
1841.000000	99.468542
1840.000000	99.464278
1839.000000	99.449121
1838.000000	99.433864
1837.000000	99.427093
1836.000000	99.428258
1835.000000	99.433755
1834.000000	99.443044
1833.000000	99.457332
1832.000000	99.474660
1831.000000	99.487029
1830.000000	99.486345
1829.000000	99.476274
1828.000000	99.468674
1827.000000	99.465730
1826.000000	99.459896
1825.000000	99.448394
1824.000000	99.436056
1823.000000	99.428429
1822.000000	99.425889
1821.000000	99.427116
1820.000000	99.433378
1819.000000	99.445277
1818.000000	99.461323
1817.000000	99.476846
1816.000000	99.485556
1815.000000	99.485629
1814.000000	99.479229
1813.000000	99.470478
1812.000000	99.462547
1811.000000	99.457432
1810.000000	99.458070
1809.000000	99.463366
1808.000000	99.467154
1807.000000	99.465390
1806.000000	99.460572
1805.000000	99.458244
1804.000000	99.460405
1803.000000	99.464949
1802.000000	99.467064
1801.000000	99.463985
1800.000000	99.455919
1799.000000	99.444633
1798.000000	99.433839
1797.000000	99.428184
1796.000000	99.432581
1795.000000	99.447497
1794.000000	99.464715
1793.000000	99.472287
1792.000000	99.463738
1791.000000	99.447739
1790.000000	99.439322
1789.000000	99.439562
1788.000000	99.439957
1787.000000	99.436896
1786.000000	99.434762
1785.000000	99.439488
1784.000000	99.452389
1783.000000	99.470835
1782.000000	99.486364
1781.000000	99.492796
1780.000000	99.491735
1779.000000	99.489240
1778.000000	99.491066
1777.000000	99.497694
1776.000000	99.509451
1775.000000	99.524480
1774.000000	99.535597
1773.000000	99.536806
1772.000000	99.527877
1771.000000	99.513695
1770.000000	99.498311
1769.000000	99.478123
1768.000000	99.452267
1767.000000	99.433932
1766.000000	99.435189
1765.000000	99.449881
1764.000000	99.459127
1763.000000	99.450485
1762.000000	99.427211
1761.000000	99.405886
1760.000000	99.396645
1759.000000	99.391146
1758.000000	99.373703
1757.000000	99.338279
1756.000000	99.299492
1755.000000	99.275568
1754.000000	99.267301
1753.000000	99.263565
1752.000000	99.258274
1751.000000	99.249004
1750.000000	99.231645
1749.000000	99.200924
1748.000000	99.158496
1747.000000	99.117058
1746.000000	99.085967
1745.000000	99.065061
1744.000000	99.048573
1743.000000	99.034352
1742.000000	99.025853
1741.000000	99.023263
1740.000000	99.021981
1739.000000	99.025323
1738.000000	99.042999
1737.000000	99.073246
1736.000000	99.102315
1735.000000	99.127848
1734.000000	99.156691
1733.000000	99.190388
1732.000000	99.226373
1731.000000	99.252099
1730.000000	99.258533
1729.000000	99.253344
1728.000000	99.250354
1727.000000	99.255465
1726.000000	99.264722
1725.000000	99.275008
1724.000000	99.282361
1723.000000	99.284654
1722.000000	99.287608
1721.000000	99.295890
1720.000000	99.305872
1719.000000	99.309928
1718.000000	99.302712
1717.000000	99.278151
1716.000000	99.236243
1715.000000	99.186426
1714.000000	99.139398
1713.000000	99.103945
1712.000000	99.080814
1711.000000	99.063396
1710.000000	99.046644
1709.000000	99.031284
1708.000000	99.018366
1707.000000	99.000389
1706.000000	98.971307
1705.000000	98.939978
1704.000000	98.922446
1703.000000	98.914377
1702.000000	98.889378
1701.000000	98.832433
1700.000000	98.770286
1699.000000	98.749584
1698.000000	98.760858
1697.000000	98.746540
1696.000000	98.676121
1695.000000	98.584012
1694.000000	98.523908
1693.000000	98.494478
1692.000000	98.464343
1691.000000	98.422309
1690.000000	98.375773
1689.000000	98.335437
1688.000000	98.309011
1687.000000	98.292775
1686.000000	98.273629
1685.000000	98.237724
1684.000000	98.170315
1683.000000	98.089510
1682.000000	98.027938
1681.000000	97.976828
1680.000000	97.922716
1679.000000	97.872040
1678.000000	97.826257
1677.000000	97.775753
1676.000000	97.713229
1675.000000	97.648964
1674.000000	97.598259
1673.000000	97.562078
1672.000000	97.524691
1671.000000	97.475407
1670.000000	97.415101
1669.000000	97.346029
1668.000000	97.277561
1667.000000	97.219454
1666.000000	97.169499
1665.000000	97.120112
1664.000000	97.066697
1663.000000	97.011355
1662.000000	96.954937
1661.000000	96.896547
1660.000000	96.838173
1659.000000	96.781674
1658.000000	96.732089
1657.000000	96.692028
1656.000000	96.660738
1655.000000	96.629523
1654.000000	96.608178
1653.000000	96.585288
1652.000000	96.543133
1651.000000	96.516141
1650.000000	96.501965
1649.000000	96.480460
1648.000000	96.463328
1647.000000	96.459089
1646.000000	96.454782
1645.000000	96.437864
1644.000000	96.413661
1643.000000	96.388435
1642.000000	96.366895
1641.000000	96.353838
1640.000000	96.350318
1639.000000	96.352381
1638.000000	96.358001
1637.000000	96.372047
1636.000000	96.395530
1635.000000	96.407460
1634.000000	96.402953
1633.000000	96.397479
1632.000000	96.391167
1631.000000	96.383640
1630.000000	96.381164
1629.000000	96.388959
1628.000000	96.404165
1627.000000	96.418766
1626.000000	96.430072
1625.000000	96.443539
1624.000000	96.464578
1623.000000	96.487795
1622.000000	96.502943
1621.000000	96.512460
1620.000000	96.526888
1619.000000	96.553256
1618.000000	96.603780
1617.000000	96.686239
1616.000000	96.778062
1615.000000	96.848888
1614.000000	96.896996
1613.000000	96.936581
1612.000000	96.981014
1611.000000	97.036074
1610.000000	97.095041
1609.000000	97.149894
1608.000000	97.199846
1607.000000	97.247823
1606.000000	97.294097
1605.000000	97.340254
1604.000000	97.388829
1603.000000	97.435379
1602.000000	97.473843
1601.000000	97.505629
1600.000000	97.535981
1599.000000	97.565114
1598.000000	97.591097
1597.000000	97.617545
1596.000000	97.649039
1595.000000	97.682779
1594.000000	97.711838
1593.000000	97.734316
1592.000000	97.751922
1591.000000	97.763322
1590.000000	97.767268
1589.000000	97.768855
1588.000000	97.773671
1587.000000	97.777910
1586.000000	97.773546
1585.000000	97.759376
1584.000000	97.743455
1583.000000	97.729171
1582.000000	97.712581
1581.000000	97.695480
1580.000000	97.685399
1579.000000	97.682670
1578.000000	97.680360
1577.000000	97.678325
1576.000000	97.678042
1575.000000	97.676312
1574.000000	97.673113
1573.000000	97.669877
1572.000000	97.665849
1571.000000	97.663668
1570.000000	97.666492
1569.000000	97.669403
1568.000000	97.669031
1567.000000	97.662824
1566.000000	97.648808
1565.000000	97.631949
1564.000000	97.622539
1563.000000	97.614199
1562.000000	97.597537
1561.000000	97.567012
1560.000000	97.553061
1559.000000	97.557731
1558.000000	97.516927
1557.000000	97.455428
1556.000000	97.406971
1555.000000	97.348260
1554.000000	97.277433
1553.000000	97.211597
1552.000000	97.160584
1551.000000	97.112852
1550.000000	97.062858
1549.000000	97.017432
1548.000000	96.981150
1547.000000	96.948622
1546.000000	96.915482
1545.000000	96.889043
1544.000000	96.870794
1543.000000	96.848340
1542.000000	96.818669
1541.000000	96.807149
1540.000000	96.827061
1539.000000	96.844819
1538.000000	96.848030
1537.000000	96.852609
1536.000000	96.859063
1535.000000	96.872405
1534.000000	96.905678
1533.000000	96.955452
1532.000000	96.997246
1531.000000	97.019617
1530.000000	97.031774
1529.000000	97.046487
1528.000000	97.071988
1527.000000	97.107543
1526.000000	97.147606
1525.000000	97.190175
1524.000000	97.234550
1523.000000	97.277994
1522.000000	97.319975
1521.000000	97.351300
1520.000000	97.366665
1519.000000	97.377379
1518.000000	97.393497
1517.000000	97.420486
1516.000000	97.451470
1515.000000	97.475486
1514.000000	97.493964
1513.000000	97.515102
1512.000000	97.544522
1511.000000	97.579667
1510.000000	97.618584
1509.000000	97.665852
1508.000000	97.736808
1507.000000	97.822073
1506.000000	97.871670
1505.000000	97.889569
1504.000000	97.910165
1503.000000	97.930203
1502.000000	97.948467
1501.000000	97.974313
1500.000000	98.012368
1499.000000	98.054896
1498.000000	98.091964
1497.000000	98.122483
1496.000000	98.146275
1495.000000	98.168431
1494.000000	98.196762
1493.000000	98.231753
1492.000000	98.269702
1491.000000	98.309318
1490.000000	98.347674
1489.000000	98.375492
1488.000000	98.384728
1487.000000	98.378150
1486.000000	98.365623
1485.000000	98.353142
1484.000000	98.343239
1483.000000	98.332249
1482.000000	98.316106
1481.000000	98.296130
1480.000000	98.275244
1479.000000	98.253547
1478.000000	98.228972
1477.000000	98.202432
1476.000000	98.174754
1475.000000	98.145131
1474.000000	98.109318
1473.000000	98.062184
1472.000000	98.001214
1471.000000	97.935308
1470.000000	97.877982
1469.000000	97.831548
1468.000000	97.792263
1467.000000	97.757025
1466.000000	97.722404
1465.000000	97.687016
1464.000000	97.654415
1463.000000	97.627592
1462.000000	97.607059
1461.000000	97.590855
1460.000000	97.578270
1459.000000	97.566358
1458.000000	97.551120
1457.000000	97.526112
1456.000000	97.494263
1455.000000	97.470753
1454.000000	97.452934
1453.000000	97.433986
1452.000000	97.418190
1451.000000	97.408149
1450.000000	97.401352
1449.000000	97.395093
1448.000000	97.386487
1447.000000	97.373533
1446.000000	97.357485
1445.000000	97.346025
1444.000000	97.343176
1443.000000	97.341631
1442.000000	97.335092
1441.000000	97.326013
1440.000000	97.318510
1439.000000	97.308017
1438.000000	97.293027
1437.000000	97.284173
1436.000000	97.288941
1435.000000	97.299226
1434.000000	97.305578
1433.000000	97.307329
1432.000000	97.309407
1431.000000	97.313426
1430.000000	97.315106
1429.000000	97.312711
1428.000000	97.307635
1427.000000	97.302285
1426.000000	97.297327
1425.000000	97.297912
1424.000000	97.307923
1423.000000	97.318013
1422.000000	97.319676
1421.000000	97.316537
1420.000000	97.318802
1419.000000	97.323708
1418.000000	97.320757
1417.000000	97.316266
1416.000000	97.317817
1415.000000	97.320505
1414.000000	97.320665
1413.000000	97.323414
1412.000000	97.334224
1411.000000	97.349451
1410.000000	97.363810
1409.000000	97.378971
1408.000000	97.396059
1407.000000	97.412200
1406.000000	97.425114
1405.000000	97.437842
1404.000000	97.451788
1403.000000	97.461069
1402.000000	97.463657
1401.000000	97.466522
1400.000000	97.477849
1399.000000	97.494450
1398.000000	97.507681
1397.000000	97.519148
1396.000000	97.535601
1395.000000	97.556638
1394.000000	97.576084
1393.000000	97.594515
1392.000000	97.613731
1391.000000	97.628636
1390.000000	97.637354
1389.000000	97.646903
1388.000000	97.662585
1387.000000	97.678131
1386.000000	97.687014
1385.000000	97.694523
1384.000000	97.706098
1383.000000	97.717964
1382.000000	97.726714
1381.000000	97.735070
1380.000000	97.746169
1379.000000	97.758593
1378.000000	97.771429
1377.000000	97.788299
1376.000000	97.810801
1375.000000	97.833319
1374.000000	97.849285
1373.000000	97.861710
1372.000000	97.876720
1371.000000	97.893415
1370.000000	97.909589
1369.000000	97.930780
1368.000000	97.962280
1367.000000	97.998258
1366.000000	98.030776
1365.000000	98.061064
1364.000000	98.094287
1363.000000	98.127530
1362.000000	98.152322
1361.000000	98.168728
1360.000000	98.182957
1359.000000	98.196517
1358.000000	98.209214
1357.000000	98.224315
1356.000000	98.242877
1355.000000	98.259389
1354.000000	98.269471
1353.000000	98.276344
1352.000000	98.282992
1351.000000	98.287408
1350.000000	98.287574
1349.000000	98.287005
1348.000000	98.288676
1347.000000	98.289160
1346.000000	98.286036
1345.000000	98.283228
1344.000000	98.283662
1343.000000	98.283676
1342.000000	98.280768
1341.000000	98.279280
1340.000000	98.281355
1339.000000	98.279502
1338.000000	98.269066
1337.000000	98.257920
1336.000000	98.253224
1335.000000	98.251606
1334.000000	98.248443
1333.000000	98.246514
1332.000000	98.249363
1331.000000	98.253965
1330.000000	98.256743
1329.000000	98.260250
1328.000000	98.266285
1327.000000	98.269850
1326.000000	98.267080
1325.000000	98.263274
1324.000000	98.264880
1323.000000	98.269554
1322.000000	98.272569
1321.000000	98.276180
1320.000000	98.284821
1319.000000	98.296389
1318.000000	98.306581
1317.000000	98.316546
1316.000000	98.329035
1315.000000	98.343129
1314.000000	98.358595
1313.000000	98.378270
1312.000000	98.400512
1311.000000	98.417350
1310.000000	98.425639
1309.000000	98.432205
1308.000000	98.442672
1307.000000	98.454447
1306.000000	98.465171
1305.000000	98.479285
1304.000000	98.499282
1303.000000	98.519628
1302.000000	98.536279
1301.000000	98.552825
1300.000000	98.570840
1299.000000	98.583977
1298.000000	98.589297
1297.000000	98.594403
1296.000000	98.605778
1295.000000	98.619033
1294.000000	98.628188
1293.000000	98.634641
1292.000000	98.639624
1291.000000	98.638706
1290.000000	98.632171
1289.000000	98.630396
1288.000000	98.639488
1287.000000	98.650853
1286.000000	98.653948
1285.000000	98.650105
1284.000000	98.645059
1283.000000	98.638268
1282.000000	98.628795
1281.000000	98.622096
1280.000000	98.621553
1279.000000	98.621282
1278.000000	98.615887
1277.000000	98.609143
1276.000000	98.605673
1275.000000	98.603312
1274.000000	98.601225
1273.000000	98.605381
1272.000000	98.616857
1271.000000	98.624172
1270.000000	98.617543
1269.000000	98.602460
1268.000000	98.590175
1267.000000	98.583425
1266.000000	98.579812
1265.000000	98.579491
1264.000000	98.580273
1263.000000	98.574221
1262.000000	98.558607
1261.000000	98.542075
1260.000000	98.531839
1259.000000	98.523880
1258.000000	98.513482
1257.000000	98.504629
1256.000000	98.500630
1255.000000	98.496373
1254.000000	98.488003
1253.000000	98.480049
1252.000000	98.475015
1251.000000	98.466329
1250.000000	98.450143
1249.000000	98.434023
1248.000000	98.425175
1247.000000	98.419438
1246.000000	98.410717
1245.000000	98.401463
1244.000000	98.394825
1243.000000	98.385993
1242.000000	98.370969
1241.000000	98.355244
1240.000000	98.344741
1239.000000	98.336373
1238.000000	98.325725
1237.000000	98.316057
1236.000000	98.311801
1235.000000	98.311285
1234.000000	98.312910
1233.000000	98.319785
1232.000000	98.331812
1231.000000	98.342494
1230.000000	98.350050
1229.000000	98.361492
1228.000000	98.379028
1227.000000	98.394381
1226.000000	98.404137
1225.000000	98.418465
1224.000000	98.445346
1223.000000	98.477382
1222.000000	98.504164
1221.000000	98.526585
1220.000000	98.549141
1219.000000	98.569035
1218.000000	98.583625
1217.000000	98.598422
1216.000000	98.616769
1215.000000	98.630865
1214.000000	98.633144
1213.000000	98.628179
1212.000000	98.623973
1211.000000	98.620593
1210.000000	98.616130
1209.000000	98.613693
1208.000000	98.613328
1207.000000	98.606788
1206.000000	98.590083
1205.000000	98.572396
1204.000000	98.563423
1203.000000	98.560517
1202.000000	98.556289
1201.000000	98.549774
1200.000000	98.542422
1199.000000	98.532476
1198.000000	98.521134
1197.000000	98.514885
1196.000000	98.514490
1195.000000	98.511387
1194.000000	98.501341
1193.000000	98.490960
1192.000000	98.484651
1191.000000	98.477141
1190.000000	98.465687
1189.000000	98.456739
1188.000000	98.452706
1187.000000	98.444830
1186.000000	98.427213
1185.000000	98.405348
1184.000000	98.382695
1183.000000	98.352841
1182.000000	98.313819
1181.000000	98.275700
1180.000000	98.243673
1179.000000	98.207345
1178.000000	98.158312
1177.000000	98.104134
1176.000000	98.053404
1175.000000	98.001645
1174.000000	97.943653
1173.000000	97.886585
1172.000000	97.838057
1171.000000	97.792421
1170.000000	97.741082
1169.000000	97.686252
1168.000000	97.633613
1167.000000	97.581674
1166.000000	97.529111
1165.000000	97.482232
1164.000000	97.444838
1163.000000	97.410651
1162.000000	97.374680
1161.000000	97.341201
1160.000000	97.311974
1159.000000	97.279436
1158.000000	97.241097
1157.000000	97.206993
1156.000000	97.182662
1155.000000	97.158445
1154.000000	97.126795
1153.000000	97.096273
1152.000000	97.076075
1151.000000	97.060440
1150.000000	97.041340
1149.000000	97.023486
1148.000000	97.013336
1147.000000	97.005731
1146.000000	96.995253
1145.000000	96.988677
1144.000000	96.992607
1143.000000	97.000575
1142.000000	97.004836
1141.000000	97.009271
1140.000000	97.018066
1139.000000	97.024364
1138.000000	97.023251
1137.000000	97.023289
1136.000000	97.031646
1135.000000	97.039874
1134.000000	97.038068
1133.000000	97.031248
1132.000000	97.028347
1131.000000	97.026266
1130.000000	97.017579
1129.000000	97.002621
1128.000000	96.981499
1127.000000	96.946928
1126.000000	96.897839
1125.000000	96.847480
1124.000000	96.805673
1123.000000	96.765262
1122.000000	96.718100
1121.000000	96.670733
1120.000000	96.631092
1119.000000	96.593279
1118.000000	96.549252
1117.000000	96.503175
1116.000000	96.461181
1115.000000	96.420131
1114.000000	96.378921
1113.000000	96.347627
1112.000000	96.332380
1111.000000	96.324856
1110.000000	96.319349
1109.000000	96.324565
1108.000000	96.344632
1107.000000	96.364407
1106.000000	96.370051
1105.000000	96.369593
1104.000000	96.376582
1103.000000	96.387819
1102.000000	96.394146
1101.000000	96.399246
1100.000000	96.409888
1099.000000	96.420322
1098.000000	96.423257
1097.000000	96.424854
1096.000000	96.432719
1095.000000	96.440340
1094.000000	96.438857
1093.000000	96.432947
1092.000000	96.430346
1091.000000	96.427710
1090.000000	96.420489
1089.000000	96.414234
1088.000000	96.412041
1087.000000	96.403784
1086.000000	96.381911
1085.000000	96.354893
1084.000000	96.331991
1083.000000	96.308710
1082.000000	96.280791
1081.000000	96.257537
1080.000000	96.246349
1079.000000	96.238072
1078.000000	96.222819
1077.000000	96.206418
1076.000000	96.197092
1075.000000	96.190529
1074.000000	96.182211
1073.000000	96.179628
1072.000000	96.188105
1071.000000	96.198717
1070.000000	96.203302
1069.000000	96.206404
1068.000000	96.209528
1067.000000	96.200720
1066.000000	96.174149
1065.000000	96.143432
1064.000000	96.120801
1063.000000	96.099981
1062.000000	96.073540
1061.000000	96.049499
1060.000000	96.034679
1059.000000	96.018732
1058.000000	95.991401
1057.000000	95.959607
1056.000000	95.931999
1055.000000	95.902678
1054.000000	95.866386
1053.000000	95.833275
1052.000000	95.811650
1051.000000	95.791376
1050.000000	95.761968
1049.000000	95.731248
1048.000000	95.708982
1047.000000	95.688861
1046.000000	95.662884
1045.000000	95.636027
1044.000000	95.610917
1043.000000	95.575891
1042.000000	95.524076
1041.000000	95.468855
1040.000000	95.424977
1039.000000	95.389245
1038.000000	95.352732
1037.000000	95.315651
1036.000000	95.277213
1035.000000	95.229052
1034.000000	95.173221
1033.000000	95.128169
1032.000000	95.101923
1031.000000	95.078059
1030.000000	95.043568
1029.000000	95.010747
1028.000000	94.994789
1027.000000	94.989159
1026.000000	94.981876
1025.000000	94.976842
1024.000000	94.979525
1023.000000	94.978843
1022.000000	94.964025
1021.000000	94.944431
1020.000000	94.933754
1019.000000	94.929990
1018.000000	94.927800
1017.000000	94.934398
1016.000000	94.954717
1015.000000	94.976931
1014.000000	94.991044
1013.000000	95.006732
1012.000000	95.034948
1011.000000	95.067475
1010.000000	95.091825
1009.000000	95.111609
1008.000000	95.135462
1007.000000	95.160800
1006.000000	95.185044
1005.000000	95.217317
1004.000000	95.263142
1003.000000	95.311867
1002.000000	95.354466
1001.000000	95.398605
1000.000000	95.451881
999.000000	95.506397
998.000000	95.554636
997.000000	95.603581
996.000000	95.658792
995.000000	95.712266
994.000000	95.760811
993.000000	95.817227
992.000000	95.887040
991.000000	95.953968
990.000000	96.005516
989.000000	96.054071
988.000000	96.113849
987.000000	96.176532
986.000000	96.228980
985.000000	96.277176
984.000000	96.332347
983.000000	96.390116
982.000000	96.443165
981.000000	96.498114
980.000000	96.560829
979.000000	96.620691
978.000000	96.668455
977.000000	96.713665
976.000000	96.766766
975.000000	96.820096
974.000000	96.864946
973.000000	96.910333
972.000000	96.966431
971.000000	97.025612
970.000000	97.077886
969.000000	97.128551
968.000000	97.182542
967.000000	97.229132
966.000000	97.261054
965.000000	97.292474
964.000000	97.338509
963.000000	97.393104
962.000000	97.444588
961.000000	97.497052
960.000000	97.557914
959.000000	97.620390
958.000000	97.675956
957.000000	97.728402
956.000000	97.779458
955.000000	97.818076
954.000000	97.840864
953.000000	97.864767
952.000000	97.902953
951.000000	97.945644
950.000000	97.980981
949.000000	98.014693
948.000000	98.052602
947.000000	98.084674
946.000000	98.105161
945.000000	98.127893
944.000000	98.162601
943.000000	98.195820
942.000000	98.214048
941.000000	98.226397
940.000000	98.245309
939.000000	98.265842
938.000000	98.282642
937.000000	98.306647
936.000000	98.344357
935.000000	98.381147
934.000000	98.405097
933.000000	98.427412
932.000000	98.458835
931.000000	98.487173
930.000000	98.500062
929.000000	98.509122
928.000000	98.529517
927.000000	98.554428
926.000000	98.571947
925.000000	98.587698
924.000000	98.609583
923.000000	98.628559
922.000000	98.636327
921.000000	98.643223
920.000000	98.657442
919.000000	98.665860
918.000000	98.657137
917.000000	98.644910
916.000000	98.645910
915.000000	98.654325
914.000000	98.658848
913.000000	98.666278
912.000000	98.685071
911.000000	98.704528
910.000000	98.713715
909.000000	98.724221
908.000000	98.751121
907.000000	98.787565
906.000000	98.819426
905.000000	98.847977
904.000000	98.877913
903.000000	98.900933
902.000000	98.912739
901.000000	98.928027
900.000000	98.958197
899.000000	98.991471
898.000000	99.014865
897.000000	99.035916
896.000000	99.063318
895.000000	99.086837
894.000000	99.097796
893.000000	99.109021
892.000000	99.132742
891.000000	99.158645
890.000000	99.173882
889.000000	99.184569
888.000000	99.196803
887.000000	99.199101
886.000000	99.185557
885.000000	99.173950
884.000000	99.176230
883.000000	99.172613
882.000000	99.138374
881.000000	99.077015
880.000000	99.004394
879.000000	98.921887
878.000000	98.830089
877.000000	98.747922
876.000000	98.694393
875.000000	98.669924
874.000000	98.675163
873.000000	98.723119
872.000000	98.811463
871.000000	98.906867
870.000000	98.981210
869.000000	99.040586
868.000000	99.097966
867.000000	99.144525
866.000000	99.171547
865.000000	99.195349
864.000000	99.233653
863.000000	99.278895
862.000000	99.316477
861.000000	99.347854
860.000000	99.374464
859.000000	99.383903
858.000000	99.374738
857.000000	99.370673
856.000000	99.387046
855.000000	99.407278
854.000000	99.413550
853.000000	99.415312
852.000000	99.425759
851.000000	99.436259
850.000000	99.437884
849.000000	99.441860
848.000000	99.455687
847.000000	99.464547
846.000000	99.459400
845.000000	99.456575
844.000000	99.467295
843.000000	99.475695
842.000000	99.470613
841.000000	99.470368
840.000000	99.490435
839.000000	99.514322
838.000000	99.521518
837.000000	99.518733
836.000000	99.518809
835.000000	99.516087
834.000000	99.506899
833.000000	99.507193
832.000000	99.524246
831.000000	99.537047
830.000000	99.529152
829.000000	99.514886
828.000000	99.510369
827.000000	99.507795
826.000000	99.501852
825.000000	99.507548
824.000000	99.525993
823.000000	99.529778
822.000000	99.510528
821.000000	99.499855
820.000000	99.515541
819.000000	99.528932
818.000000	99.514959
817.000000	99.493670
816.000000	99.490674
815.000000	99.494379
814.000000	99.485657
813.000000	99.476469
812.000000	99.483780
811.000000	99.495215
810.000000	99.493900
809.000000	99.489435
808.000000	99.492424
807.000000	99.487081
806.000000	99.460769
805.000000	99.432684
804.000000	99.422485
803.000000	99.417852
802.000000	99.402470
801.000000	99.387544
800.000000	99.386413
799.000000	99.386438
798.000000	99.374930
797.000000	99.364245
796.000000	99.364882
795.000000	99.365027
794.000000	99.362297
793.000000	99.380477
792.000000	99.425635
791.000000	99.460073
790.000000	99.452287
789.000000	99.422457
788.000000	99.407591
787.000000	99.411340
786.000000	99.417514
785.000000	99.423680
784.000000	99.431630
783.000000	99.431011
782.000000	99.420225
781.000000	99.418087
780.000000	99.431153
779.000000	99.437667
778.000000	99.426375
777.000000	99.420144
776.000000	99.436795
775.000000	99.459223
774.000000	99.470010
773.000000	99.482141
772.000000	99.507338
771.000000	99.527390
770.000000	99.526911
769.000000	99.522735
768.000000	99.530216
767.000000	99.531735
766.000000	99.510315
765.000000	99.485023
764.000000	99.481038
763.000000	99.490802
762.000000	99.494530
761.000000	99.492761
760.000000	99.491338
759.000000	99.481856
758.000000	99.464763
757.000000	99.463410
756.000000	99.487690
755.000000	99.510842
754.000000	99.508411
753.000000	99.492748
752.000000	99.484816
751.000000	99.482649
750.000000	99.481675
749.000000	99.493638
748.000000	99.518426
747.000000	99.529930
746.000000	99.516603
745.000000	99.504347
744.000000	99.513056
743.000000	99.524880
742.000000	99.521667
741.000000	99.517186
740.000000	99.524150
739.000000	99.526114
738.000000	99.512916
737.000000	99.506945
736.000000	99.522753
735.000000	99.535632
734.000000	99.523449
733.000000	99.504455
732.000000	99.501475
731.000000	99.503501
730.000000	99.495794
729.000000	99.492606
728.000000	99.507078
727.000000	99.521940
726.000000	99.521106
725.000000	99.519430
724.000000	99.528911
723.000000	99.529255
722.000000	99.504297
721.000000	99.476637
720.000000	99.472736
719.000000	99.484035
718.000000	99.494586
717.000000	99.511319
716.000000	99.533535
715.000000	99.530592
714.000000	99.487850
713.000000	99.440960
712.000000	99.429491
711.000000	99.446794
710.000000	99.469198
709.000000	99.497653
708.000000	99.535240
707.000000	99.558781
706.000000	99.549980
705.000000	99.527480
704.000000	99.514030
703.000000	99.499515
702.000000	99.470456
701.000000	99.444562
700.000000	99.439822
699.000000	99.443408
698.000000	99.440127
697.000000	99.441422
696.000000	99.455569
695.000000	99.462042
694.000000	99.451449
693.000000	99.452259
692.000000	99.481186
691.000000	99.508094
690.000000	99.503536
689.000000	99.484251
688.000000	99.475594
687.000000	99.465111
686.000000	99.439725
685.000000	99.423723
684.000000	99.435572
683.000000	99.449575
682.000000	99.439378
681.000000	99.418245
680.000000	99.398929
679.000000	99.359578
678.000000	99.287293
677.000000	99.209388
676.000000	99.151247
675.000000	99.100268
674.000000	99.046305
673.000000	99.014936
672.000000	99.024212
671.000000	99.056759
670.000000	99.102668
669.000000	99.186723
668.000000	99.273856
667.000000	99.278401
666.000000	99.239774
665.000000	99.212215
664.000000	99.213729
663.000000	99.237171
662.000000	99.266959
661.000000	99.309700
660.000000	99.370285
659.000000	99.426392
658.000000	99.458437
657.000000	99.475555
656.000000	99.488793
655.000000	99.485642
654.000000	99.461129
653.000000	99.443344
652.000000	99.454696
651.000000	99.476489
650.000000	99.485543
649.000000	99.494860
648.000000	99.522020
647.000000	99.548532
646.000000	99.548363
645.000000	99.532205
644.000000	99.521709
643.000000	99.509389
642.000000	99.483948
641.000000	99.462431
640.000000	99.461122
639.000000	99.464774
638.000000	99.457608
637.000000	99.454383
636.000000	99.468722
635.000000	99.479881
634.000000	99.469811
633.000000	99.459257
632.000000	99.469473
631.000000	99.484128
630.000000	99.484546
629.000000	99.485870
628.000000	99.503301
627.000000	99.517824
626.000000	99.509819
625.000000	99.496317
624.000000	99.496322
623.000000	99.497189
622.000000	99.490889
621.000000	99.501649
620.000000	99.538964
619.000000	99.566477
618.000000	99.555077
617.000000	99.525581
616.000000	99.499396
615.000000	99.456225
614.000000	99.383764
613.000000	99.315530
612.000000	99.275570
611.000000	99.235455
610.000000	99.172322
609.000000	99.117156
608.000000	99.098472
607.000000	99.086329
606.000000	99.045036
605.000000	98.996788
604.000000	98.977144
603.000000	98.973275
602.000000	98.960415
601.000000	98.953503
600.000000	98.969832
599.000000	98.987039
598.000000	98.989029
597.000000	99.007831
596.000000	99.068406
595.000000	99.140532
594.000000	99.189946
593.000000	99.230545
592.000000	99.277710
591.000000	99.302030
590.000000	99.283701
589.000000	99.257945
588.000000	99.256026
587.000000	99.257833
586.000000	99.247151
585.000000	99.253421
584.000000	99.290730
583.000000	99.314540
582.000000	99.295835
581.000000	99.276404
580.000000	99.296260
579.000000	99.326775
578.000000	99.332595
577.000000	99.334120
576.000000	99.350658
575.000000	99.350487
574.000000	99.319479
573.000000	99.308656
572.000000	99.347577
571.000000	99.382802
570.000000	99.361185
569.000000	99.316218
568.000000	99.302309
567.000000	99.307705
566.000000	99.302039
565.000000	99.301438
564.000000	99.320161
563.000000	99.324911
562.000000	99.303153
561.000000	99.307340
560.000000	99.365213
559.000000	99.415652
558.000000	99.403621
557.000000	99.366059
556.000000	99.354999
555.000000	99.349902
554.000000	99.319565
553.000000	99.292939
552.000000	99.291297
551.000000	99.267296
550.000000	99.191338
549.000000	99.127858
548.000000	99.140582
547.000000	99.194585
546.000000	99.226674
545.000000	99.242961
544.000000	99.265028
543.000000	99.257300
542.000000	99.195441
541.000000	99.133208
540.000000	99.116138
539.000000	99.097364
538.000000	99.021622
537.000000	98.926553
536.000000	98.880006
535.000000	98.877405
534.000000	98.881721
533.000000	98.898592
532.000000	98.936429
531.000000	98.955113
530.000000	98.929925
529.000000	98.903233
528.000000	98.908418
527.000000	98.911481
526.000000	98.892818
525.000000	98.908740
524.000000	98.985471
523.000000	99.052099
522.000000	99.056784
521.000000	99.048160
520.000000	99.071285
519.000000	99.070922
518.000000	98.992264
517.000000	98.903701
516.000000	98.898292
515.000000	98.957549
514.000000	99.021308
513.000000	99.092927
512.000000	99.185753
511.000000	99.252070
510.000000	99.259026
509.000000	99.260040
508.000000	99.302068
507.000000	99.334059
506.000000	99.300642
505.000000	99.246452
504.000000	99.230507
503.000000	99.228452
502.000000	99.209141
501.000000	99.223098
500.000000	99.309816
499.000000	99.410167
498.000000	99.463523
497.000000	99.498332
496.000000	99.552936
495.000000	99.591488
494.000000	99.581602
493.000000	99.572410
492.000000	99.602059
491.000000	99.612429
490.000000	99.557351
489.000000	99.497177
488.000000	99.485826
487.000000	99.469668
486.000000	99.394714
485.000000	99.320524
484.000000	99.317663
483.000000	99.334666
482.000000	99.296437
481.000000	99.236530
480.000000	99.215360
479.000000	99.211541
478.000000	99.198046
477.000000	99.222100
476.000000	99.296616
475.000000	99.308176
474.000000	99.158164
473.000000	98.926482
472.000000	98.770919
471.000000	98.713233
470.000000	98.687468
469.000000	98.691606
468.000000	98.724179
467.000000	98.697062
466.000000	98.561397
465.000000	98.422759
464.000000	98.394684
463.000000	98.447317
462.000000	98.504582
461.000000	98.593392
460.000000	98.769347
459.000000	98.978478
458.000000	99.118773
457.000000	99.193917
456.000000	99.265563
455.000000	99.315920
454.000000	99.323446
453.000000	99.347713
452.000000	99.430164
451.000000	99.504610
450.000000	99.524924
