PE IR       SUBTECH     SPECTRUM    ASCII       PEDS        4.00        
   -1
Chevre-PC2-F001_1.ASC
23/09/14
13:44:39.00
23/09/14
14:06:12.00
uco
Sample 011 By uco Date Thursday, September 14 2023
450.000000
#HDR
-1
-1
#GR
cm-1
%T
1.0
0.0
4000.000000
-1.000000
3551
8
99.619696
86.318624
#DATA
4000.000000	99.493696
3999.000000	99.495421
3998.000000	99.497130
3997.000000	99.498886
3996.000000	99.493762
3995.000000	99.484064
3994.000000	99.473061
3993.000000	99.463090
3992.000000	99.455338
3991.000000	99.450527
3990.000000	99.449232
3989.000000	99.451539
3988.000000	99.456687
3987.000000	99.463111
3986.000000	99.468703
3985.000000	99.471427
3984.000000	99.470274
3983.000000	99.466012
3982.000000	99.460775
3981.000000	99.456541
3980.000000	99.453968
3979.000000	99.452525
3978.000000	99.451544
3977.000000	99.450946
3976.000000	99.451090
3975.000000	99.452259
3974.000000	99.454277
3973.000000	99.456432
3972.000000	99.457802
3971.000000	99.458000
3970.000000	99.457686
3969.000000	99.458009
3968.000000	99.459311
3967.000000	99.460623
3966.000000	99.460715
3965.000000	99.459395
3964.000000	99.457517
3963.000000	99.455719
3962.000000	99.453607
3961.000000	99.450545
3960.000000	99.446986
3959.000000	99.444383
3958.000000	99.443623
3957.000000	99.443825
3956.000000	99.442990
3955.000000	99.439820
3954.000000	99.434765
3953.000000	99.429417
3952.000000	99.425275
3951.000000	99.423275
3950.000000	99.423817
3949.000000	99.426552
3948.000000	99.430231
3947.000000	99.433299
3946.000000	99.434952
3945.000000	99.435454
3944.000000	99.435351
3943.000000	99.434396
3942.000000	99.431851
3941.000000	99.428377
3940.000000	99.426617
3939.000000	99.429002
3938.000000	99.435294
3937.000000	99.442435
3936.000000	99.447064
3935.000000	99.448358
3934.000000	99.448372
3933.000000	99.449531
3932.000000	99.451788
3931.000000	99.452920
3930.000000	99.451484
3929.000000	99.448307
3928.000000	99.444899
3927.000000	99.441797
3926.000000	99.438751
3925.000000	99.435740
3924.000000	99.433139
3923.000000	99.431110
3922.000000	99.429360
3921.000000	99.427620
3920.000000	99.426450
3919.000000	99.427138
3918.000000	99.430295
3917.000000	99.434561
3916.000000	99.437448
3915.000000	99.437784
3914.000000	99.436748
3913.000000	99.436453
3912.000000	99.437785
3911.000000	99.439401
3910.000000	99.438937
3909.000000	99.434921
3908.000000	99.427902
3907.000000	99.420410
3906.000000	99.416404
3905.000000	99.419224
3904.000000	99.428020
3903.000000	99.436855
3902.000000	99.439842
3901.000000	99.436850
3900.000000	99.432740
3899.000000	99.431903
3898.000000	99.434281
3897.000000	99.437066
3896.000000	99.438335
3895.000000	99.438061
3894.000000	99.437000
3893.000000	99.435858
3892.000000	99.435467
3891.000000	99.436282
3890.000000	99.437487
3889.000000	99.437103
3888.000000	99.434407
3887.000000	99.431918
3886.000000	99.433072
3885.000000	99.437594
3884.000000	99.441516
3883.000000	99.442655
3882.000000	99.443397
3881.000000	99.447170
3880.000000	99.453930
3879.000000	99.460220
3878.000000	99.462934
3877.000000	99.462002
3876.000000	99.460181
3875.000000	99.459293
3874.000000	99.456638
3873.000000	99.447777
3872.000000	99.433044
3871.000000	99.419281
3870.000000	99.413418
3869.000000	99.414839
3868.000000	99.417736
3867.000000	99.419234
3866.000000	99.422213
3865.000000	99.430479
3864.000000	99.442183
3863.000000	99.450639
3862.000000	99.451982
3861.000000	99.447646
3860.000000	99.440384
3859.000000	99.431191
3858.000000	99.419182
3857.000000	99.402229
3856.000000	99.379556
3855.000000	99.356579
3854.000000	99.344707
3853.000000	99.347709
3852.000000	99.356115
3851.000000	99.364189
3850.000000	99.375854
3849.000000	99.394273
3848.000000	99.415733
3847.000000	99.433573
3846.000000	99.444530
3845.000000	99.449635
3844.000000	99.451816
3843.000000	99.454145
3842.000000	99.458596
3841.000000	99.464556
3840.000000	99.468980
3839.000000	99.468172
3838.000000	99.460911
3837.000000	99.450928
3836.000000	99.444412
3835.000000	99.443902
3834.000000	99.446589
3833.000000	99.448197
3832.000000	99.447465
3831.000000	99.446548
3830.000000	99.447657
3829.000000	99.450799
3828.000000	99.454696
3827.000000	99.457982
3826.000000	99.459372
3825.000000	99.457525
3824.000000	99.452223
3823.000000	99.446079
3822.000000	99.443674
3821.000000	99.446582
3820.000000	99.450263
3819.000000	99.449170
3818.000000	99.443355
3817.000000	99.437476
3816.000000	99.434614
3815.000000	99.433159
3814.000000	99.430538
3813.000000	99.427412
3812.000000	99.426693
3811.000000	99.429819
3810.000000	99.435633
3809.000000	99.442823
3808.000000	99.450112
3807.000000	99.454095
3806.000000	99.450517
3805.000000	99.438906
3804.000000	99.424172
3803.000000	99.414071
3802.000000	99.413401
3801.000000	99.418729
3800.000000	99.422812
3799.000000	99.424332
3798.000000	99.427999
3797.000000	99.437493
3796.000000	99.450701
3795.000000	99.462078
3794.000000	99.468409
3793.000000	99.470946
3792.000000	99.472884
3791.000000	99.475178
3790.000000	99.475537
3789.000000	99.471711
3788.000000	99.464549
3787.000000	99.457633
3786.000000	99.454240
3785.000000	99.454790
3784.000000	99.457195
3783.000000	99.459307
3782.000000	99.460365
3781.000000	99.460765
3780.000000	99.461108
3779.000000	99.461459
3778.000000	99.461602
3777.000000	99.461599
3776.000000	99.461901
3775.000000	99.462700
3774.000000	99.463153
3773.000000	99.461726
3772.000000	99.458461
3771.000000	99.456379
3770.000000	99.459185
3769.000000	99.467108
3768.000000	99.476795
3767.000000	99.484999
3766.000000	99.490440
3765.000000	99.492605
3764.000000	99.491374
3763.000000	99.488222
3762.000000	99.486509
3761.000000	99.489534
3760.000000	99.496714
3759.000000	99.502239
3758.000000	99.499938
3757.000000	99.488868
3756.000000	99.471996
3755.000000	99.451832
3754.000000	99.429986
3753.000000	99.409437
3752.000000	99.395323
3751.000000	99.391201
3750.000000	99.395589
3749.000000	99.404932
3748.000000	99.416511
3747.000000	99.428678
3746.000000	99.442324
3745.000000	99.457931
3744.000000	99.471127
3743.000000	99.476534
3742.000000	99.473835
3741.000000	99.468405
3740.000000	99.465983
3739.000000	99.466229
3738.000000	99.467774
3737.000000	99.472879
3736.000000	99.481895
3735.000000	99.488870
3734.000000	99.489036
3733.000000	99.485505
3732.000000	99.483141
3731.000000	99.481784
3730.000000	99.478798
3729.000000	99.473899
3728.000000	99.469159
3727.000000	99.466059
3726.000000	99.464352
3725.000000	99.463566
3724.000000	99.464221
3723.000000	99.467124
3722.000000	99.471716
3721.000000	99.476358
3720.000000	99.480017
3719.000000	99.482433
3718.000000	99.483226
3717.000000	99.481467
3716.000000	99.476259
3715.000000	99.467937
3714.000000	99.459164
3713.000000	99.455013
3712.000000	99.460642
3711.000000	99.476413
3710.000000	99.496185
3709.000000	99.511931
3708.000000	99.518182
3707.000000	99.513437
3706.000000	99.500421
3705.000000	99.484005
3704.000000	99.468753
3703.000000	99.457990
3702.000000	99.453793
3701.000000	99.456092
3700.000000	99.462432
3699.000000	99.469877
3698.000000	99.477065
3697.000000	99.483788
3696.000000	99.488574
3695.000000	99.488434
3694.000000	99.482142
3693.000000	99.472782
3692.000000	99.465742
3691.000000	99.464020
3690.000000	99.465321
3689.000000	99.464885
3688.000000	99.462009
3687.000000	99.460356
3686.000000	99.461613
3685.000000	99.463948
3684.000000	99.464871
3683.000000	99.462884
3682.000000	99.458869
3681.000000	99.455351
3680.000000	99.453570
3679.000000	99.451752
3678.000000	99.446370
3677.000000	99.435876
3676.000000	99.423420
3675.000000	99.415031
3674.000000	99.413969
3673.000000	99.417981
3672.000000	99.424033
3671.000000	99.432918
3670.000000	99.445004
3669.000000	99.456121
3668.000000	99.462721
3667.000000	99.465662
3666.000000	99.466752
3665.000000	99.466378
3664.000000	99.463432
3663.000000	99.456547
3662.000000	99.446339
3661.000000	99.435499
3660.000000	99.426071
3659.000000	99.417929
3658.000000	99.410279
3657.000000	99.403469
3656.000000	99.398016
3655.000000	99.392997
3654.000000	99.387554
3653.000000	99.383615
3652.000000	99.384620
3651.000000	99.390009
3650.000000	99.391498
3649.000000	99.380568
3648.000000	99.363037
3647.000000	99.354561
3646.000000	99.359806
3645.000000	99.369349
3644.000000	99.373540
3643.000000	99.370549
3642.000000	99.364170
3641.000000	99.357784
3640.000000	99.351615
3639.000000	99.345095
3638.000000	99.339870
3637.000000	99.339029
3636.000000	99.343885
3635.000000	99.352497
3634.000000	99.360796
3633.000000	99.364809
3632.000000	99.362093
3631.000000	99.352135
3630.000000	99.336729
3629.000000	99.320369
3628.000000	99.308069
3627.000000	99.300918
3626.000000	99.295748
3625.000000	99.288887
3624.000000	99.278533
3623.000000	99.264661
3622.000000	99.249614
3621.000000	99.237584
3620.000000	99.231568
3619.000000	99.230003
3618.000000	99.228128
3617.000000	99.223136
3616.000000	99.215745
3615.000000	99.208565
3614.000000	99.204449
3613.000000	99.204396
3612.000000	99.206458
3611.000000	99.207107
3610.000000	99.203605
3609.000000	99.195673
3608.000000	99.185233
3607.000000	99.174873
3606.000000	99.167069
3605.000000	99.163560
3604.000000	99.164304
3603.000000	99.167061
3602.000000	99.168270
3601.000000	99.165705
3600.000000	99.160902
3599.000000	99.157798
3598.000000	99.158403
3597.000000	99.160572
3596.000000	99.159832
3595.000000	99.153112
3594.000000	99.141021
3593.000000	99.127047
3592.000000	99.114554
3591.000000	99.104788
3590.000000	99.097514
3589.000000	99.092588
3588.000000	99.089748
3587.000000	99.087321
3586.000000	99.083427
3585.000000	99.077895
3584.000000	99.071154
3583.000000	99.063792
3582.000000	99.057244
3581.000000	99.052809
3580.000000	99.050789
3579.000000	99.050776
3578.000000	99.051854
3577.000000	99.052327
3576.000000	99.049885
3575.000000	99.042883
3574.000000	99.031555
3573.000000	99.017884
3572.000000	99.004177
3571.000000	98.991896
3570.000000	98.981468
3569.000000	98.972448
3568.000000	98.963163
3567.000000	98.951360
3566.000000	98.937831
3565.000000	98.927849
3564.000000	98.925053
3563.000000	98.926441
3562.000000	98.925436
3561.000000	98.917666
3560.000000	98.904195
3559.000000	98.890052
3558.000000	98.879334
3557.000000	98.872342
3556.000000	98.867276
3555.000000	98.863308
3554.000000	98.861170
3553.000000	98.861223
3552.000000	98.862030
3551.000000	98.861278
3550.000000	98.857339
3549.000000	98.849552
3548.000000	98.838283
3547.000000	98.825176
3546.000000	98.812695
3545.000000	98.802641
3544.000000	98.794980
3543.000000	98.788389
3542.000000	98.781997
3541.000000	98.776370
3540.000000	98.772653
3539.000000	98.770865
3538.000000	98.769278
3537.000000	98.765562
3536.000000	98.758705
3535.000000	98.750189
3534.000000	98.743179
3533.000000	98.740131
3532.000000	98.740579
3531.000000	98.741070
3530.000000	98.737614
3529.000000	98.728947
3528.000000	98.717421
3527.000000	98.706763
3526.000000	98.699328
3525.000000	98.695283
3524.000000	98.693000
3523.000000	98.689772
3522.000000	98.683652
3521.000000	98.675469
3520.000000	98.668192
3519.000000	98.663557
3518.000000	98.659784
3517.000000	98.653317
3516.000000	98.642807
3515.000000	98.630611
3514.000000	98.620454
3513.000000	98.614262
3512.000000	98.611009
3511.000000	98.607584
3510.000000	98.600978
3509.000000	98.591170
3508.000000	98.582171
3507.000000	98.578885
3506.000000	98.582262
3505.000000	98.588054
3504.000000	98.590324
3503.000000	98.586328
3502.000000	98.577916
3501.000000	98.568336
3500.000000	98.559019
3499.000000	98.550024
3498.000000	98.541995
3497.000000	98.536082
3496.000000	98.532296
3495.000000	98.529417
3494.000000	98.526891
3493.000000	98.525583
3492.000000	98.525790
3491.000000	98.525313
3490.000000	98.520702
3489.000000	98.510466
3488.000000	98.496295
3487.000000	98.481137
3486.000000	98.467196
3485.000000	98.456122
3484.000000	98.449582
3483.000000	98.448072
3482.000000	98.449498
3481.000000	98.450450
3480.000000	98.449160
3479.000000	98.446356
3478.000000	98.443369
3477.000000	98.440589
3476.000000	98.437769
3475.000000	98.434750
3474.000000	98.431430
3473.000000	98.427541
3472.000000	98.422868
3471.000000	98.417587
3470.000000	98.412203
3469.000000	98.407213
3468.000000	98.402811
3467.000000	98.398775
3466.000000	98.394677
3465.000000	98.390277
3464.000000	98.385512
3463.000000	98.380085
3462.000000	98.373482
3461.000000	98.365679
3460.000000	98.357447
3459.000000	98.349691
3458.000000	98.343147
3457.000000	98.339113
3456.000000	98.339494
3455.000000	98.344725
3454.000000	98.351674
3453.000000	98.354997
3452.000000	98.351325
3451.000000	98.341989
3450.000000	98.331585
3449.000000	98.324263
3448.000000	98.321155
3447.000000	98.320358
3446.000000	98.319068
3445.000000	98.315828
3444.000000	98.310763
3443.000000	98.304241
3442.000000	98.296112
3441.000000	98.286345
3440.000000	98.275728
3439.000000	98.265478
3438.000000	98.256640
3437.000000	98.250381
3436.000000	98.248173
3435.000000	98.250588
3434.000000	98.255862
3433.000000	98.260383
3432.000000	98.260694
3431.000000	98.254804
3430.000000	98.242574
3429.000000	98.226292
3428.000000	98.210701
3427.000000	98.200669
3426.000000	98.197773
3425.000000	98.199510
3424.000000	98.202005
3423.000000	98.202926
3422.000000	98.201903
3421.000000	98.199486
3420.000000	98.196401
3419.000000	98.193037
3418.000000	98.188920
3417.000000	98.183240
3416.000000	98.176370
3415.000000	98.170158
3414.000000	98.166076
3413.000000	98.163622
3412.000000	98.161314
3411.000000	98.158706
3410.000000	98.156444
3409.000000	98.154427
3408.000000	98.151015
3407.000000	98.144708
3406.000000	98.136252
3405.000000	98.128489
3404.000000	98.123882
3403.000000	98.122233
3402.000000	98.121044
3401.000000	98.118066
3400.000000	98.113108
3399.000000	98.107244
3398.000000	98.100964
3397.000000	98.093963
3396.000000	98.086492
3395.000000	98.079895
3394.000000	98.075429
3393.000000	98.073082
3392.000000	98.071767
3391.000000	98.070193
3390.000000	98.067361
3389.000000	98.062860
3388.000000	98.057209
3387.000000	98.051581
3386.000000	98.046840
3385.000000	98.043223
3384.000000	98.041147
3383.000000	98.041534
3382.000000	98.044446
3381.000000	98.047673
3380.000000	98.047646
3379.000000	98.042285
3378.000000	98.032906
3377.000000	98.023285
3376.000000	98.016924
3375.000000	98.014928
3374.000000	98.015943
3373.000000	98.017654
3372.000000	98.018142
3371.000000	98.016114
3370.000000	98.010646
3369.000000	98.001501
3368.000000	97.989824
3367.000000	97.978109
3366.000000	97.969170
3365.000000	97.965067
3364.000000	97.966437
3363.000000	97.971932
3362.000000	97.978148
3361.000000	97.981084
3360.000000	97.978583
3359.000000	97.971376
3358.000000	97.961613
3357.000000	97.950832
3356.000000	97.939699
3355.000000	97.929068
3354.000000	97.920219
3353.000000	97.913850
3352.000000	97.909465
3351.000000	97.906162
3350.000000	97.903758
3349.000000	97.902869
3348.000000	97.903961
3347.000000	97.906535
3346.000000	97.909245
3345.000000	97.910706
3344.000000	97.910285
3343.000000	97.908451
3342.000000	97.906396
3341.000000	97.904857
3340.000000	97.902879
3339.000000	97.898011
3338.000000	97.888511
3337.000000	97.875676
3336.000000	97.863346
3335.000000	97.854695
3334.000000	97.849897
3333.000000	97.847226
3332.000000	97.845591
3331.000000	97.845038
3330.000000	97.845299
3329.000000	97.845170
3328.000000	97.843669
3327.000000	97.841002
3326.000000	97.837979
3325.000000	97.834919
3324.000000	97.831544
3323.000000	97.827695
3322.000000	97.823743
3321.000000	97.820250
3320.000000	97.817323
3319.000000	97.814365
3318.000000	97.810654
3317.000000	97.806289
3316.000000	97.802231
3315.000000	97.799163
3314.000000	97.796835
3313.000000	97.795028
3312.000000	97.794506
3311.000000	97.795971
3310.000000	97.798353
3309.000000	97.799371
3308.000000	97.798209
3307.000000	97.796521
3306.000000	97.796179
3305.000000	97.796811
3304.000000	97.796219
3303.000000	97.792739
3302.000000	97.786713
3301.000000	97.780089
3300.000000	97.775075
3299.000000	97.772767
3298.000000	97.772367
3297.000000	97.771883
3296.000000	97.770126
3295.000000	97.767923
3294.000000	97.766910
3293.000000	97.767230
3292.000000	97.766936
3291.000000	97.763883
3290.000000	97.758122
3289.000000	97.752467
3288.000000	97.750718
3287.000000	97.754908
3286.000000	97.763678
3285.000000	97.773177
3284.000000	97.779735
3283.000000	97.782138
3282.000000	97.781803
3281.000000	97.781128
3280.000000	97.781712
3279.000000	97.783567
3278.000000	97.785398
3277.000000	97.785663
3276.000000	97.783961
3275.000000	97.781824
3274.000000	97.782024
3273.000000	97.786562
3272.000000	97.794811
3271.000000	97.803499
3270.000000	97.808882
3269.000000	97.809439
3268.000000	97.806768
3267.000000	97.804158
3266.000000	97.804390
3265.000000	97.808508
3264.000000	97.815798
3263.000000	97.824376
3262.000000	97.832304
3261.000000	97.838845
3260.000000	97.844565
3259.000000	97.849712
3258.000000	97.852909
3257.000000	97.852361
3256.000000	97.848261
3255.000000	97.843044
3254.000000	97.838993
3253.000000	97.836643
3252.000000	97.835982
3251.000000	97.838056
3250.000000	97.844221
3249.000000	97.854155
3248.000000	97.865767
3247.000000	97.877078
3246.000000	97.887386
3245.000000	97.896472
3244.000000	97.903548
3243.000000	97.907717
3242.000000	97.909113
3241.000000	97.909068
3240.000000	97.909194
3239.000000	97.910628
3238.000000	97.914018
3237.000000	97.919584
3236.000000	97.926706
3235.000000	97.933624
3234.000000	97.938216
3233.000000	97.939532
3232.000000	97.938571
3231.000000	97.937383
3230.000000	97.937473
3229.000000	97.939132
3228.000000	97.941874
3227.000000	97.944886
3226.000000	97.947019
3225.000000	97.947052
3224.000000	97.944650
3223.000000	97.941137
3222.000000	97.938955
3221.000000	97.940092
3220.000000	97.944918
3219.000000	97.952356
3218.000000	97.960911
3217.000000	97.969351
3216.000000	97.976645
3215.000000	97.981980
3214.000000	97.985295
3213.000000	97.987551
3212.000000	97.989858
3211.000000	97.992257
3210.000000	97.993823
3209.000000	97.994196
3208.000000	97.994652
3207.000000	97.997403
3206.000000	98.003855
3205.000000	98.013467
3204.000000	98.023902
3203.000000	98.032345
3202.000000	98.037305
3201.000000	98.039460
3200.000000	98.040611
3199.000000	98.041897
3198.000000	98.043583
3197.000000	98.046365
3196.000000	98.051595
3195.000000	98.059511
3194.000000	98.068137
3193.000000	98.074880
3192.000000	98.078836
3191.000000	98.080928
3190.000000	98.082389
3189.000000	98.083995
3188.000000	98.086191
3187.000000	98.088883
3186.000000	98.091390
3185.000000	98.093657
3184.000000	98.097250
3183.000000	98.103914
3182.000000	98.113199
3181.000000	98.122653
3180.000000	98.130363
3179.000000	98.136039
3178.000000	98.139649
3177.000000	98.140631
3176.000000	98.139216
3175.000000	98.137188
3174.000000	98.136194
3173.000000	98.136262
3172.000000	98.137091
3171.000000	98.140141
3170.000000	98.147938
3169.000000	98.160962
3168.000000	98.175940
3167.000000	98.187730
3166.000000	98.193085
3165.000000	98.193133
3164.000000	98.192570
3163.000000	98.195958
3162.000000	98.203933
3161.000000	98.212857
3160.000000	98.218454
3159.000000	98.219785
3158.000000	98.219750
3157.000000	98.222096
3156.000000	98.228176
3155.000000	98.236066
3154.000000	98.242288
3153.000000	98.244776
3152.000000	98.244872
3151.000000	98.246290
3150.000000	98.251494
3149.000000	98.258967
3148.000000	98.264552
3147.000000	98.265719
3146.000000	98.264333
3145.000000	98.265183
3144.000000	98.271932
3143.000000	98.284157
3142.000000	98.297686
3141.000000	98.307413
3140.000000	98.310286
3139.000000	98.306475
3138.000000	98.298601
3137.000000	98.290230
3136.000000	98.284794
3135.000000	98.284795
3134.000000	98.290893
3133.000000	98.301385
3132.000000	98.313028
3131.000000	98.322990
3130.000000	98.330256
3129.000000	98.335430
3128.000000	98.339541
3127.000000	98.343077
3126.000000	98.345732
3125.000000	98.346695
3124.000000	98.345368
3123.000000	98.342300
3122.000000	98.339636
3121.000000	98.340176
3120.000000	98.345528
3119.000000	98.355090
3118.000000	98.366714
3117.000000	98.377845
3116.000000	98.385795
3115.000000	98.387742
3114.000000	98.381894
3113.000000	98.369244
3112.000000	98.353734
3111.000000	98.340206
3110.000000	98.332088
3109.000000	98.330621
3108.000000	98.335202
3107.000000	98.343774
3106.000000	98.353319
3105.000000	98.360968
3104.000000	98.365208
3103.000000	98.366469
3102.000000	98.366787
3101.000000	98.368491
3100.000000	98.372213
3099.000000	98.375923
3098.000000	98.376667
3097.000000	98.373659
3096.000000	98.369116
3095.000000	98.365815
3094.000000	98.364739
3093.000000	98.365654
3092.000000	98.368780
3091.000000	98.374428
3090.000000	98.381346
3089.000000	98.386766
3088.000000	98.388342
3087.000000	98.385482
3086.000000	98.379072
3085.000000	98.370891
3084.000000	98.363282
3083.000000	98.358278
3082.000000	98.356508
3081.000000	98.357251
3080.000000	98.359572
3079.000000	98.362945
3078.000000	98.366807
3077.000000	98.370216
3076.000000	98.372199
3075.000000	98.372209
3074.000000	98.370343
3073.000000	98.367543
3072.000000	98.365464
3071.000000	98.365626
3070.000000	98.368559
3069.000000	98.373598
3068.000000	98.378945
3067.000000	98.381927
3066.000000	98.380544
3065.000000	98.375923
3064.000000	98.372362
3063.000000	98.373549
3062.000000	98.379137
3061.000000	98.386188
3060.000000	98.393388
3059.000000	98.402135
3058.000000	98.413488
3057.000000	98.425721
3056.000000	98.435467
3055.000000	98.440247
3054.000000	98.439619
3053.000000	98.435284
3052.000000	98.430658
3051.000000	98.429066
3050.000000	98.431243
3049.000000	98.435167
3048.000000	98.438927
3047.000000	98.442920
3046.000000	98.448606
3045.000000	98.456033
3044.000000	98.463547
3043.000000	98.469462
3042.000000	98.473231
3041.000000	98.475381
3040.000000	98.477006
3039.000000	98.479035
3038.000000	98.481267
3037.000000	98.482182
3036.000000	98.480328
3035.000000	98.476245
3034.000000	98.473018
3033.000000	98.474586
3032.000000	98.482743
3031.000000	98.494991
3030.000000	98.505845
3029.000000	98.511466
3028.000000	98.513168
3027.000000	98.515688
3026.000000	98.522012
3025.000000	98.530706
3024.000000	98.538119
3023.000000	98.541882
3022.000000	98.541767
3021.000000	98.538729
3020.000000	98.534427
3019.000000	98.530863
3018.000000	98.529261
3017.000000	98.529429
3016.000000	98.530849
3015.000000	98.533820
3014.000000	98.538596
3013.000000	98.543873
3012.000000	98.547245
3011.000000	98.547347
3010.000000	98.544926
3009.000000	98.541749
3008.000000	98.538967
3007.000000	98.536524
3006.000000	98.533728
3005.000000	98.530269
3004.000000	98.526697
3003.000000	98.523772
3002.000000	98.521378
3001.000000	98.518516
3000.000000	98.514460
2999.000000	98.509340
2998.000000	98.503482
2997.000000	98.496889
2996.000000	98.489800
2995.000000	98.482957
2994.000000	98.476461
2993.000000	98.468871
2992.000000	98.458451
2991.000000	98.445434
2990.000000	98.432382
2989.000000	98.421944
2988.000000	98.414403
2987.000000	98.407392
2986.000000	98.397874
2985.000000	98.384519
2984.000000	98.368346
2983.000000	98.351315
2982.000000	98.334494
2981.000000	98.317710
2980.000000	98.300668
2979.000000	98.283710
2978.000000	98.267312
2977.000000	98.251192
2976.000000	98.234032
2975.000000	98.213948
2974.000000	98.189531
2973.000000	98.161220
2972.000000	98.131757
2971.000000	98.104341
2970.000000	98.079726
2969.000000	98.055384
2968.000000	98.027993
2967.000000	97.996586
2966.000000	97.963150
2965.000000	97.930486
2964.000000	97.899716
2963.000000	97.869768
2962.000000	97.839104
2961.000000	97.808049
2960.000000	97.779036
2959.000000	97.754167
2958.000000	97.733102
2957.000000	97.714213
2956.000000	97.697666
2955.000000	97.686026
2954.000000	97.681351
2953.000000	97.682431
2952.000000	97.685171
2951.000000	97.685170
2950.000000	97.679864
2949.000000	97.669533
2948.000000	97.656984
2947.000000	97.645489
2946.000000	97.635964
2945.000000	97.626085
2944.000000	97.612279
2943.000000	97.591829
2942.000000	97.563152
2941.000000	97.525547
2940.000000	97.479867
2939.000000	97.428564
2938.000000	97.373553
2937.000000	97.314465
2936.000000	97.250099
2935.000000	97.181327
2934.000000	97.111151
2933.000000	97.041600
2932.000000	96.971657
2931.000000	96.898639
2930.000000	96.820951
2929.000000	96.739111
2928.000000	96.654858
2927.000000	96.570004
2926.000000	96.485980
2925.000000	96.404059
2924.000000	96.325699
2923.000000	96.252683
2922.000000	96.186842
2921.000000	96.129882
2920.000000	96.084296
2919.000000	96.054518
2918.000000	96.047197
2917.000000	96.069814
2916.000000	96.127876
2915.000000	96.221792
2914.000000	96.344448
2913.000000	96.481813
2912.000000	96.617659
2911.000000	96.740347
2910.000000	96.846352
2909.000000	96.937926
2908.000000	97.018059
2907.000000	97.087646
2906.000000	97.146777
2905.000000	97.197159
2904.000000	97.242641
2903.000000	97.287281
2902.000000	97.332769
2901.000000	97.377327
2900.000000	97.416977
2899.000000	97.448878
2898.000000	97.474105
2897.000000	97.497321
2896.000000	97.523263
2895.000000	97.553056
2894.000000	97.583854
2893.000000	97.611921
2892.000000	97.635855
2891.000000	97.657026
2890.000000	97.677642
2889.000000	97.698765
2888.000000	97.719843
2887.000000	97.739464
2886.000000	97.756438
2885.000000	97.770449
2884.000000	97.782029
2883.000000	97.791910
2882.000000	97.800264
2881.000000	97.806460
2880.000000	97.809549
2879.000000	97.809199
2878.000000	97.806231
2877.000000	97.802043
2876.000000	97.797279
2875.000000	97.791365
2874.000000	97.783610
2873.000000	97.774362
2872.000000	97.764678
2871.000000	97.755416
2870.000000	97.747549
2869.000000	97.742798
2868.000000	97.742316
2867.000000	97.744242
2866.000000	97.743846
2865.000000	97.736988
2864.000000	97.722326
2863.000000	97.699590
2862.000000	97.667189
2861.000000	97.623347
2860.000000	97.568860
2859.000000	97.506558
2858.000000	97.437893
2857.000000	97.361425
2856.000000	97.275061
2855.000000	97.178815
2854.000000	97.076208
2853.000000	96.974818
2852.000000	96.886591
2851.000000	96.826506
2850.000000	96.808483
2849.000000	96.840871
2848.000000	96.923277
2847.000000	97.045646
2846.000000	97.190574
2845.000000	97.339143
2844.000000	97.477466
2843.000000	97.600008
2842.000000	97.707685
2841.000000	97.803250
2840.000000	97.888254
2839.000000	97.962510
2838.000000	98.025368
2837.000000	98.077439
2836.000000	98.121196
2835.000000	98.159807
2834.000000	98.195212
2833.000000	98.227423
2832.000000	98.255421
2831.000000	98.278401
2830.000000	98.296426
2829.000000	98.310823
2828.000000	98.323938
2827.000000	98.337727
2826.000000	98.352285
2825.000000	98.366096
2824.000000	98.377861
2823.000000	98.387684
2822.000000	98.396569
2821.000000	98.405304
2820.000000	98.413947
2819.000000	98.422120
2818.000000	98.429833
2817.000000	98.438019
2816.000000	98.447642
2815.000000	98.457930
2814.000000	98.466382
2813.000000	98.471530
2812.000000	98.475005
2811.000000	98.479748
2810.000000	98.486690
2809.000000	98.494533
2808.000000	98.502320
2807.000000	98.510253
2806.000000	98.517766
2805.000000	98.522785
2804.000000	98.524074
2803.000000	98.523385
2802.000000	98.524241
2801.000000	98.528917
2800.000000	98.536799
2799.000000	98.545001
2798.000000	98.550505
2797.000000	98.552531
2796.000000	98.553133
2795.000000	98.554861
2794.000000	98.558051
2793.000000	98.561398
2792.000000	98.564693
2791.000000	98.569161
2790.000000	98.574783
2789.000000	98.579257
2788.000000	98.580732
2787.000000	98.580335
2786.000000	98.580909
2785.000000	98.584227
2784.000000	98.590251
2783.000000	98.598129
2782.000000	98.606738
2781.000000	98.614772
2780.000000	98.621245
2779.000000	98.625694
2778.000000	98.627753
2777.000000	98.627415
2776.000000	98.626074
2775.000000	98.626126
2774.000000	98.628716
2773.000000	98.632716
2772.000000	98.636501
2771.000000	98.639786
2770.000000	98.643068
2769.000000	98.646498
2768.000000	98.650210
2767.000000	98.654560
2766.000000	98.658863
2765.000000	98.661002
2764.000000	98.659786
2763.000000	98.657049
2762.000000	98.655964
2761.000000	98.657704
2760.000000	98.661102
2759.000000	98.665102
2758.000000	98.669883
2757.000000	98.675531
2756.000000	98.680995
2755.000000	98.684988
2754.000000	98.687277
2753.000000	98.688751
2752.000000	98.690497
2751.000000	98.692759
2750.000000	98.694491
2749.000000	98.694245
2748.000000	98.691971
2747.000000	98.689606
2746.000000	98.689384
2745.000000	98.691919
2744.000000	98.696285
2743.000000	98.701316
2742.000000	98.706192
2741.000000	98.710453
2740.000000	98.714339
2739.000000	98.718670
2738.000000	98.723393
2737.000000	98.726616
2736.000000	98.726189
2735.000000	98.722270
2734.000000	98.717638
2733.000000	98.715508
2732.000000	98.717388
2731.000000	98.722449
2730.000000	98.727918
2729.000000	98.730556
2728.000000	98.729195
2727.000000	98.726118
2726.000000	98.724941
2725.000000	98.726800
2724.000000	98.729404
2723.000000	98.730112
2722.000000	98.729001
2721.000000	98.728286
2720.000000	98.729351
2719.000000	98.731245
2718.000000	98.732208
2717.000000	98.732141
2716.000000	98.732964
2715.000000	98.736214
2714.000000	98.740681
2713.000000	98.743222
2712.000000	98.742256
2711.000000	98.739745
2710.000000	98.739087
2709.000000	98.741531
2708.000000	98.745468
2707.000000	98.749006
2706.000000	98.752143
2705.000000	98.755970
2704.000000	98.760364
2703.000000	98.763262
2702.000000	98.762480
2701.000000	98.758111
2700.000000	98.752851
2699.000000	98.749702
2698.000000	98.749494
2697.000000	98.750940
2696.000000	98.752751
2695.000000	98.754725
2694.000000	98.756632
2693.000000	98.757292
2692.000000	98.755871
2691.000000	98.753519
2690.000000	98.752453
2689.000000	98.753485
2688.000000	98.755473
2687.000000	98.757360
2686.000000	98.759657
2685.000000	98.763283
2684.000000	98.767631
2683.000000	98.770749
2682.000000	98.771305
2681.000000	98.769700
2680.000000	98.767245
2679.000000	98.765016
2678.000000	98.763854
2677.000000	98.764723
2676.000000	98.768097
2675.000000	98.773093
2674.000000	98.777986
2673.000000	98.781708
2672.000000	98.784275
2671.000000	98.785795
2670.000000	98.786065
2669.000000	98.785386
2668.000000	98.784511
2667.000000	98.782938
2666.000000	98.778430
2665.000000	98.769801
2664.000000	98.759639
2663.000000	98.752589
2662.000000	98.750870
2661.000000	98.752598
2660.000000	98.754368
2659.000000	98.754077
2658.000000	98.751217
2657.000000	98.746210
2656.000000	98.740502
2655.000000	98.736366
2654.000000	98.735768
2653.000000	98.739729
2652.000000	98.748423
2651.000000	98.760599
2650.000000	98.772898
2649.000000	98.781653
2648.000000	98.786232
2647.000000	98.789084
2646.000000	98.791669
2645.000000	98.792185
2644.000000	98.788831
2643.000000	98.783568
2642.000000	98.780515
2641.000000	98.781609
2640.000000	98.785894
2639.000000	98.792315
2638.000000	98.800583
2637.000000	98.809090
2636.000000	98.814516
2635.000000	98.814859
2634.000000	98.811739
2633.000000	98.808750
2632.000000	98.808236
2631.000000	98.810239
2630.000000	98.813770
2629.000000	98.818035
2628.000000	98.822499
2627.000000	98.826501
2626.000000	98.829400
2625.000000	98.831331
2624.000000	98.833706
2623.000000	98.838472
2622.000000	98.846375
2621.000000	98.855919
2620.000000	98.864170
2619.000000	98.868641
2618.000000	98.868826
2617.000000	98.866636
2616.000000	98.865396
2615.000000	98.867531
2614.000000	98.872633
2613.000000	98.877896
2612.000000	98.880548
2611.000000	98.879695
2610.000000	98.876201
2609.000000	98.871746
2608.000000	98.867921
2607.000000	98.865366
2606.000000	98.863662
2605.000000	98.862684
2604.000000	98.863522
2603.000000	98.866908
2602.000000	98.871199
2601.000000	98.873816
2600.000000	98.874696
2599.000000	98.876303
2598.000000	98.879837
2597.000000	98.883405
2596.000000	98.884724
2595.000000	98.883722
2594.000000	98.881740
2593.000000	98.880078
2592.000000	98.880209
2591.000000	98.883153
2590.000000	98.887197
2589.000000	98.888343
2588.000000	98.884976
2587.000000	98.880503
2586.000000	98.879354
2585.000000	98.881661
2584.000000	98.883630
2583.000000	98.882158
2582.000000	98.877519
2581.000000	98.872763
2580.000000	98.872228
2579.000000	98.879152
2578.000000	98.892433
2577.000000	98.906342
2576.000000	98.915166
2575.000000	98.917637
2574.000000	98.915735
2573.000000	98.911005
2572.000000	98.904462
2571.000000	98.898738
2570.000000	98.897117
2569.000000	98.900304
2568.000000	98.906140
2567.000000	98.912360
2566.000000	98.917793
2565.000000	98.921387
2564.000000	98.922545
2563.000000	98.922642
2562.000000	98.924057
2561.000000	98.927056
2560.000000	98.928983
2559.000000	98.927022
2558.000000	98.920835
2557.000000	98.912687
2556.000000	98.906087
2555.000000	98.903738
2554.000000	98.905101
2553.000000	98.906370
2552.000000	98.904630
2551.000000	98.901805
2550.000000	98.902467
2549.000000	98.907676
2548.000000	98.913440
2547.000000	98.915869
2546.000000	98.915545
2545.000000	98.915249
2544.000000	98.915343
2543.000000	98.913728
2542.000000	98.909670
2541.000000	98.905485
2540.000000	98.903837
2539.000000	98.904471
2538.000000	98.904352
2537.000000	98.900655
2536.000000	98.893367
2535.000000	98.885215
2534.000000	98.879040
2533.000000	98.874834
2532.000000	98.869205
2531.000000	98.858494
2530.000000	98.843201
2529.000000	98.828678
2528.000000	98.820030
2527.000000	98.815797
2526.000000	98.808076
2525.000000	98.790454
2524.000000	98.765653
2523.000000	98.744402
2522.000000	98.736461
2521.000000	98.742894
2520.000000	98.756195
2519.000000	98.766950
2518.000000	98.770483
2517.000000	98.768462
2516.000000	98.765039
2515.000000	98.762022
2514.000000	98.758248
2513.000000	98.752988
2512.000000	98.747987
2511.000000	98.745153
2510.000000	98.744144
2509.000000	98.744183
2508.000000	98.747026
2507.000000	98.755540
2506.000000	98.769399
2505.000000	98.784200
2504.000000	98.795132
2503.000000	98.800413
2502.000000	98.801516
2501.000000	98.801694
2500.000000	98.804015
2499.000000	98.809158
2498.000000	98.815432
2497.000000	98.822261
2496.000000	98.832250
2495.000000	98.847092
2494.000000	98.862398
2493.000000	98.870655
2492.000000	98.870306
2491.000000	98.868942
2490.000000	98.876100
2489.000000	98.894593
2488.000000	98.919248
2487.000000	98.941485
2486.000000	98.954252
2485.000000	98.955507
2484.000000	98.949212
2483.000000	98.942028
2482.000000	98.938368
2481.000000	98.939489
2480.000000	98.945879
2479.000000	98.956888
2478.000000	98.967871
2477.000000	98.972289
2476.000000	98.968871
2475.000000	98.963896
2474.000000	98.964452
2473.000000	98.972051
2472.000000	98.984205
2471.000000	98.998418
2470.000000	99.011661
2469.000000	99.019057
2468.000000	99.017482
2467.000000	99.009678
2466.000000	99.001850
2465.000000	98.997759
2464.000000	98.996983
2463.000000	98.997528
2462.000000	98.997884
2461.000000	98.997375
2460.000000	98.996554
2459.000000	98.996460
2458.000000	98.996376
2457.000000	98.994188
2456.000000	98.990736
2455.000000	98.991406
2454.000000	99.000203
2453.000000	99.013710
2452.000000	99.024067
2451.000000	99.027237
2450.000000	99.025705
2449.000000	99.023738
2448.000000	99.023107
2447.000000	99.023145
2446.000000	99.022179
2445.000000	99.018807
2444.000000	99.014299
2443.000000	99.013730
2442.000000	99.021971
2441.000000	99.037783
2440.000000	99.053778
2439.000000	99.062852
2438.000000	99.063164
2437.000000	99.057276
2436.000000	99.048987
2435.000000	99.041756
2434.000000	99.037793
2433.000000	99.036793
2432.000000	99.036417
2431.000000	99.035198
2430.000000	99.034356
2429.000000	99.035987
2428.000000	99.040127
2427.000000	99.044461
2426.000000	99.046803
2425.000000	99.047326
2424.000000	99.048215
2423.000000	99.051264
2422.000000	99.055709
2421.000000	99.058636
2420.000000	99.057789
2419.000000	99.053975
2418.000000	99.050347
2417.000000	99.049196
2416.000000	99.049812
2415.000000	99.049791
2414.000000	99.048287
2413.000000	99.047240
2412.000000	99.048842
2411.000000	99.052486
2410.000000	99.055612
2409.000000	99.057305
2408.000000	99.059104
2407.000000	99.061635
2406.000000	99.063003
2405.000000	99.062588
2404.000000	99.064278
2403.000000	99.072521
2402.000000	99.085617
2401.000000	99.096099
2400.000000	99.098154
2399.000000	99.092579
2398.000000	99.084345
2397.000000	99.077938
2396.000000	99.075536
2395.000000	99.076676
2394.000000	99.078087
2393.000000	99.075945
2392.000000	99.069856
2391.000000	99.063189
2390.000000	99.058516
2389.000000	99.054564
2388.000000	99.049194
2387.000000	99.043543
2386.000000	99.040967
2385.000000	99.042654
2384.000000	99.046288
2383.000000	99.049125
2382.000000	99.050895
2381.000000	99.053110
2380.000000	99.056126
2379.000000	99.057643
2378.000000	99.054727
2377.000000	99.047513
2376.000000	99.040170
2375.000000	99.037313
2374.000000	99.040101
2373.000000	99.046895
2372.000000	99.056111
2371.000000	99.065869
2370.000000	99.072323
2369.000000	99.072821
2368.000000	99.070804
2367.000000	99.072479
2366.000000	99.077218
2365.000000	99.076195
2364.000000	99.062912
2363.000000	99.041027
2362.000000	99.019730
2361.000000	99.005561
2360.000000	99.000296
2359.000000	99.003005
2358.000000	99.010229
2357.000000	99.015904
2356.000000	99.015970
2355.000000	99.009955
2354.000000	99.000446
2353.000000	98.992656
2352.000000	98.992187
2351.000000	98.999506
2350.000000	99.007668
2349.000000	99.008974
2348.000000	99.001369
2347.000000	98.989541
2346.000000	98.980666
2345.000000	98.976807
2344.000000	98.974205
2343.000000	98.969717
2342.000000	98.965563
2341.000000	98.963231
2340.000000	98.959580
2339.000000	98.953423
2338.000000	98.949056
2337.000000	98.951544
2336.000000	98.959935
2335.000000	98.968207
2334.000000	98.970750
2333.000000	98.967942
2332.000000	98.964796
2331.000000	98.966061
2330.000000	98.969797
2329.000000	98.969147
2328.000000	98.957162
2327.000000	98.932427
2326.000000	98.899681
2325.000000	98.867802
2324.000000	98.847411
2323.000000	98.846032
2322.000000	98.863232
2321.000000	98.889668
2320.000000	98.912704
2319.000000	98.925394
2318.000000	98.929254
2317.000000	98.931786
2316.000000	98.939088
2315.000000	98.951690
2314.000000	98.964858
2313.000000	98.974965
2312.000000	98.982750
2311.000000	98.990461
2310.000000	98.996665
2309.000000	98.998420
2308.000000	98.996785
2307.000000	98.997136
2306.000000	99.002717
2305.000000	99.011656
2304.000000	99.020844
2303.000000	99.029699
2302.000000	99.037621
2301.000000	99.041287
2300.000000	99.036994
2299.000000	99.025920
2298.000000	99.014020
2297.000000	99.007461
2296.000000	99.007478
2295.000000	99.009727
2294.000000	99.008472
2293.000000	99.002925
2292.000000	98.998305
2291.000000	98.998588
2290.000000	98.999966
2289.000000	98.995398
2288.000000	98.985358
2287.000000	98.978732
2286.000000	98.982033
2285.000000	98.992299
2284.000000	99.002828
2283.000000	99.011382
2282.000000	99.019957
2281.000000	99.030132
2280.000000	99.041736
2279.000000	99.052834
2278.000000	99.058531
2277.000000	99.053701
2276.000000	99.039846
2275.000000	99.026050
2274.000000	99.020592
2273.000000	99.024723
2272.000000	99.035350
2271.000000	99.048359
2270.000000	99.057418
2269.000000	99.056478
2268.000000	99.048439
2267.000000	99.045880
2266.000000	99.057927
2265.000000	99.080633
2264.000000	99.104438
2263.000000	99.126023
2262.000000	99.146922
2261.000000	99.164946
2260.000000	99.174278
2259.000000	99.172431
2258.000000	99.162432
2257.000000	99.149201
2256.000000	99.136223
2255.000000	99.123162
2254.000000	99.105711
2253.000000	99.082656
2252.000000	99.063939
2251.000000	99.063849
2250.000000	99.082388
2249.000000	99.100873
2248.000000	99.101926
2247.000000	99.088773
2246.000000	99.078717
2245.000000	99.084035
2244.000000	99.104591
2243.000000	99.132585
2242.000000	99.156012
2241.000000	99.162652
2240.000000	99.150555
2239.000000	99.132447
2238.000000	99.122145
2237.000000	99.119213
2236.000000	99.114080
2235.000000	99.105295
2234.000000	99.102504
2233.000000	99.111961
2232.000000	99.126736
2231.000000	99.133681
2230.000000	99.126778
2229.000000	99.113001
2228.000000	99.106831
2227.000000	99.117526
2226.000000	99.140344
2225.000000	99.162549
2224.000000	99.177998
2223.000000	99.189762
2222.000000	99.197112
2221.000000	99.189564
2220.000000	99.160772
2219.000000	99.121719
2218.000000	99.092219
2217.000000	99.083412
2216.000000	99.093450
2215.000000	99.115386
2214.000000	99.141687
2213.000000	99.163308
2212.000000	99.171985
2211.000000	99.165305
2210.000000	99.148633
2209.000000	99.133858
2208.000000	99.134143
2207.000000	99.152439
2206.000000	99.175219
2205.000000	99.186421
2204.000000	99.188584
2203.000000	99.198720
2202.000000	99.220904
2201.000000	99.237588
2200.000000	99.235664
2199.000000	99.226097
2198.000000	99.226020
2197.000000	99.233445
2196.000000	99.234101
2195.000000	99.224972
2194.000000	99.215787
2193.000000	99.211934
2192.000000	99.209591
2191.000000	99.206171
2190.000000	99.203611
2189.000000	99.202687
2188.000000	99.203771
2187.000000	99.211827
2186.000000	99.231520
2185.000000	99.257644
2184.000000	99.276695
2183.000000	99.277206
2182.000000	99.254605
2181.000000	99.212332
2180.000000	99.165536
2179.000000	99.138079
2178.000000	99.147009
2177.000000	99.188499
2176.000000	99.239898
2175.000000	99.274935
2174.000000	99.280498
2173.000000	99.266604
2172.000000	99.260039
2171.000000	99.277853
2170.000000	99.306149
2169.000000	99.312569
2168.000000	99.281318
2167.000000	99.225383
2166.000000	99.165875
2165.000000	99.117988
2164.000000	99.098721
2163.000000	99.124674
2162.000000	99.190635
2161.000000	99.269905
2160.000000	99.348290
2159.000000	99.437254
2158.000000	99.532799
2157.000000	99.593260
2156.000000	99.589266
2155.000000	99.542395
2154.000000	99.493292
2153.000000	99.459444
2152.000000	99.435618
2151.000000	99.414020
2150.000000	99.391451
2149.000000	99.370536
2148.000000	99.365139
2147.000000	99.389811
2146.000000	99.433011
2145.000000	99.457137
2144.000000	99.441412
2143.000000	99.409684
2142.000000	99.398439
2141.000000	99.410199
2140.000000	99.415625
2139.000000	99.393870
2138.000000	99.353533
2137.000000	99.317937
2136.000000	99.305225
2135.000000	99.320039
2134.000000	99.351450
2133.000000	99.377421
2132.000000	99.380900
2131.000000	99.363556
2130.000000	99.340180
2129.000000	99.323583
2128.000000	99.318373
2127.000000	99.323432
2126.000000	99.333118
2125.000000	99.338890
2124.000000	99.336776
2123.000000	99.331530
2122.000000	99.327787
2121.000000	99.319101
2120.000000	99.292893
2119.000000	99.246559
2118.000000	99.193207
2117.000000	99.150647
2116.000000	99.127493
2115.000000	99.119862
2114.000000	99.118136
2113.000000	99.115666
2112.000000	99.112921
2111.000000	99.114319
2110.000000	99.121557
2109.000000	99.131713
2108.000000	99.141257
2107.000000	99.148723
2106.000000	99.152613
2105.000000	99.151490
2104.000000	99.148558
2103.000000	99.151488
2102.000000	99.164091
2101.000000	99.181734
2100.000000	99.198640
2099.000000	99.216253
2098.000000	99.239818
2097.000000	99.268432
2096.000000	99.292308
2095.000000	99.299619
2094.000000	99.285787
2093.000000	99.258744
2092.000000	99.234609
2091.000000	99.223309
2090.000000	99.218234
2089.000000	99.205144
2088.000000	99.182241
2087.000000	99.164647
2086.000000	99.166055
2085.000000	99.182835
2084.000000	99.199569
2083.000000	99.204577
2082.000000	99.196222
2081.000000	99.180048
2080.000000	99.165374
2079.000000	99.159922
2078.000000	99.163124
2077.000000	99.168709
2076.000000	99.176391
2075.000000	99.193899
2074.000000	99.223247
2073.000000	99.253138
2072.000000	99.272754
2071.000000	99.285993
2070.000000	99.302799
2069.000000	99.321756
2068.000000	99.331081
2067.000000	99.324420
2066.000000	99.307523
2065.000000	99.291421
2064.000000	99.284379
2063.000000	99.288116
2062.000000	99.297032
2061.000000	99.302261
2060.000000	99.299509
2059.000000	99.291036
2058.000000	99.279240
2057.000000	99.263434
2056.000000	99.243435
2055.000000	99.219064
2054.000000	99.185834
2053.000000	99.141915
2052.000000	99.102259
2051.000000	99.094023
2050.000000	99.129711
2049.000000	99.189118
2048.000000	99.237387
2047.000000	99.260665
2046.000000	99.273245
2045.000000	99.294676
2044.000000	99.331479
2043.000000	99.375375
2042.000000	99.409123
2041.000000	99.418950
2040.000000	99.407317
2039.000000	99.384694
2038.000000	99.348934
2037.000000	99.292057
2036.000000	99.231342
2035.000000	99.209523
2034.000000	99.248480
2033.000000	99.320240
2032.000000	99.380337
2031.000000	99.415645
2030.000000	99.440785
2029.000000	99.465937
2028.000000	99.489021
2027.000000	99.505681
2026.000000	99.509625
2025.000000	99.494227
2024.000000	99.465268
2023.000000	99.438295
2022.000000	99.415208
2021.000000	99.382546
2020.000000	99.342958
2019.000000	99.326372
2018.000000	99.353508
2017.000000	99.403037
2016.000000	99.434228
2015.000000	99.432869
2014.000000	99.413966
2013.000000	99.394060
2012.000000	99.378722
2011.000000	99.366479
2010.000000	99.353638
2009.000000	99.344146
2008.000000	99.359634
2007.000000	99.420978
2006.000000	99.510690
2005.000000	99.575355
2004.000000	99.579720
2003.000000	99.539314
2002.000000	99.489215
2001.000000	99.445224
2000.000000	99.406254
1999.000000	99.373432
1998.000000	99.350447
1997.000000	99.336477
1996.000000	99.333583
1995.000000	99.350626
1994.000000	99.386329
1993.000000	99.417026
1992.000000	99.418498
1991.000000	99.396447
1990.000000	99.375581
1989.000000	99.366572
1988.000000	99.362998
1987.000000	99.360873
1986.000000	99.362125
1985.000000	99.362680
1984.000000	99.352388
1983.000000	99.326294
1982.000000	99.287245
1981.000000	99.244253
1980.000000	99.218995
1979.000000	99.243264
1978.000000	99.328433
1977.000000	99.434827
1976.000000	99.497954
1975.000000	99.494157
1974.000000	99.459773
1973.000000	99.447067
1972.000000	99.474967
1971.000000	99.519435
1970.000000	99.542482
1969.000000	99.528781
1968.000000	99.497265
1967.000000	99.475859
1966.000000	99.469634
1965.000000	99.465096
1964.000000	99.457869
1963.000000	99.455817
1962.000000	99.458359
1961.000000	99.453866
1960.000000	99.442063
1959.000000	99.440178
1958.000000	99.457689
1957.000000	99.480603
1956.000000	99.489363
1955.000000	99.480444
1954.000000	99.463485
1953.000000	99.448213
1952.000000	99.441344
1951.000000	99.447887
1950.000000	99.467539
1949.000000	99.493711
1948.000000	99.518059
1947.000000	99.532175
1946.000000	99.526664
1945.000000	99.497972
1944.000000	99.457635
1943.000000	99.425964
1942.000000	99.413158
1941.000000	99.414841
1940.000000	99.426259
1939.000000	99.446450
1938.000000	99.468954
1937.000000	99.482091
1936.000000	99.480774
1935.000000	99.468907
1934.000000	99.449132
1933.000000	99.422115
1932.000000	99.397359
1931.000000	99.390350
1930.000000	99.402997
1929.000000	99.418156
1928.000000	99.418649
1927.000000	99.405065
1926.000000	99.390707
1925.000000	99.386768
1924.000000	99.397427
1923.000000	99.418123
1922.000000	99.436962
1921.000000	99.445722
1920.000000	99.448619
1919.000000	99.453362
1918.000000	99.456012
1917.000000	99.444514
1916.000000	99.421794
1915.000000	99.406333
1914.000000	99.408515
1913.000000	99.419978
1912.000000	99.425133
1911.000000	99.416343
1910.000000	99.396229
1909.000000	99.373995
1908.000000	99.362624
1907.000000	99.371020
1906.000000	99.393978
1905.000000	99.414665
1904.000000	99.421988
1903.000000	99.418698
1902.000000	99.412444
1901.000000	99.407035
1900.000000	99.404805
1899.000000	99.408247
1898.000000	99.414555
1897.000000	99.415915
1896.000000	99.411303
1895.000000	99.409805
1894.000000	99.417291
1893.000000	99.427760
1892.000000	99.433255
1891.000000	99.434141
1890.000000	99.435102
1889.000000	99.437350
1888.000000	99.440829
1887.000000	99.446908
1886.000000	99.452512
1885.000000	99.450909
1884.000000	99.442636
1883.000000	99.437323
1882.000000	99.440722
1881.000000	99.447825
1880.000000	99.452248
1879.000000	99.454828
1878.000000	99.457691
1877.000000	99.457419
1876.000000	99.452097
1875.000000	99.447644
1874.000000	99.449145
1873.000000	99.451982
1872.000000	99.448364
1871.000000	99.439060
1870.000000	99.433157
1869.000000	99.436758
1868.000000	99.445090
1867.000000	99.448713
1866.000000	99.442452
1865.000000	99.427822
1864.000000	99.414146
1863.000000	99.413737
1862.000000	99.429538
1861.000000	99.450443
1860.000000	99.463189
1859.000000	99.465263
1858.000000	99.462058
1857.000000	99.457386
1856.000000	99.452577
1855.000000	99.449473
1854.000000	99.449212
1853.000000	99.451468
1852.000000	99.456713
1851.000000	99.465438
1850.000000	99.474619
1849.000000	99.476809
1848.000000	99.469096
1847.000000	99.457378
1846.000000	99.448279
1845.000000	99.441753
1844.000000	99.435749
1843.000000	99.433676
1842.000000	99.440770
1841.000000	99.457483
1840.000000	99.480100
1839.000000	99.503462
1838.000000	99.518999
1837.000000	99.518137
1836.000000	99.503492
1835.000000	99.487833
1834.000000	99.480166
1833.000000	99.479237
1832.000000	99.481322
1831.000000	99.486799
1830.000000	99.494588
1829.000000	99.495482
1828.000000	99.485445
1827.000000	99.472820
1826.000000	99.465684
1825.000000	99.465042
1824.000000	99.469875
1823.000000	99.481080
1822.000000	99.495646
1821.000000	99.505051
1820.000000	99.505072
1819.000000	99.501240
1818.000000	99.499942
1817.000000	99.499940
1816.000000	99.497068
1815.000000	99.490213
1814.000000	99.479956
1813.000000	99.467608
1812.000000	99.458372
1811.000000	99.458825
1810.000000	99.465637
1809.000000	99.466286
1808.000000	99.453888
1807.000000	99.433085
1806.000000	99.409232
1805.000000	99.378312
1804.000000	99.332636
1803.000000	99.273004
1802.000000	99.212002
1801.000000	99.165276
1800.000000	99.139623
1799.000000	99.130012
1798.000000	99.123801
1797.000000	99.111214
1796.000000	99.091764
1795.000000	99.072232
1794.000000	99.059009
1793.000000	99.054916
1792.000000	99.061125
1791.000000	99.080113
1790.000000	99.115653
1789.000000	99.165904
1788.000000	99.217827
1787.000000	99.257136
1786.000000	99.280300
1785.000000	99.295753
1784.000000	99.314962
1783.000000	99.341398
1782.000000	99.368465
1781.000000	99.387314
1780.000000	99.395362
1779.000000	99.400470
1778.000000	99.409776
1777.000000	99.422128
1776.000000	99.433796
1775.000000	99.446217
1774.000000	99.464259
1773.000000	99.481861
1772.000000	99.489538
1771.000000	99.472891
1770.000000	99.453297
1769.000000	99.498785
1768.000000	99.497675
1767.000000	99.499664
1766.000000	99.496172
1765.000000	99.490523
1764.000000	99.483947
1763.000000	99.477698
1762.000000	99.478810
1761.000000	99.470724
1760.000000	99.411685
1759.000000	99.413622
1758.000000	99.406254
1757.000000	99.399331
1756.000000	99.394106
1755.000000	99.397894
1754.000000	99.403387
1753.000000	99.397381
1752.000000	99.371948
1751.000000	99.334737
1750.000000	99.301080
1749.000000	99.277128
1748.000000	99.259931
1747.000000	99.245180
1746.000000	99.228705
1745.000000	99.204689
1744.000000	99.173262
1743.000000	99.145521
1742.000000	99.130924
1741.000000	99.126137
1740.000000	99.120568
1739.000000	99.108897
1738.000000	99.092757
1737.000000	99.077272
1736.000000	99.067549
1735.000000	99.069377
1734.000000	99.083068
1733.000000	99.094507
1732.000000	99.097802
1731.000000	99.100750
1730.000000	99.105629
1729.000000	99.113729
1728.000000	99.128869
1727.000000	99.152760
1726.000000	99.178585
1725.000000	99.194036
1724.000000	99.195009
1723.000000	99.190261
1722.000000	99.186594
1721.000000	99.182048
1720.000000	99.174786
1719.000000	99.170626
1718.000000	99.172186
1717.000000	99.165047
1716.000000	99.140408
1715.000000	99.116019
1714.000000	99.109241
1713.000000	99.119898
1712.000000	99.138680
1711.000000	99.155475
1710.000000	99.163065
1709.000000	99.158485
1708.000000	99.144592
1707.000000	99.128838
1706.000000	99.114618
1705.000000	99.094742
1704.000000	99.065481
1703.000000	99.034555
1702.000000	99.005425
1701.000000	98.967308
1700.000000	98.920520
1699.000000	98.890467
1698.000000	98.883277
1697.000000	98.878560
1696.000000	98.856847
1695.000000	98.819697
1694.000000	98.782324
1693.000000	98.751852
1692.000000	98.722719
1691.000000	98.688431
1690.000000	98.642434
1689.000000	98.585560
1688.000000	98.532742
1687.000000	98.500584
1686.000000	98.483808
1685.000000	98.450299
1684.000000	98.376940
1683.000000	98.284013
1682.000000	98.206517
1681.000000	98.154267
1680.000000	98.113017
1679.000000	98.078253
1678.000000	98.048281
1677.000000	98.011231
1676.000000	97.954239
1675.000000	97.885990
1674.000000	97.830891
1673.000000	97.794700
1672.000000	97.763487
1671.000000	97.727527
1670.000000	97.683842
1669.000000	97.632182
1668.000000	97.579764
1667.000000	97.540442
1666.000000	97.515052
1665.000000	97.489905
1664.000000	97.454299
1663.000000	97.410306
1662.000000	97.366350
1661.000000	97.325979
1660.000000	97.289213
1659.000000	97.257464
1658.000000	97.228732
1657.000000	97.197355
1656.000000	97.163617
1655.000000	97.137463
1654.000000	97.124604
1653.000000	97.114641
1652.000000	97.099602
1651.000000	97.086559
1650.000000	97.078624
1649.000000	97.065212
1648.000000	97.049602
1647.000000	97.036346
1646.000000	97.029279
1645.000000	97.026608
1644.000000	97.031394
1643.000000	97.042247
1642.000000	97.056256
1641.000000	97.070954
1640.000000	97.081707
1639.000000	97.089053
1638.000000	97.098117
1637.000000	97.110131
1636.000000	97.118648
1635.000000	97.116049
1634.000000	97.106339
1633.000000	97.102513
1632.000000	97.109734
1631.000000	97.125498
1630.000000	97.146611
1629.000000	97.168652
1628.000000	97.189524
1627.000000	97.210805
1626.000000	97.235007
1625.000000	97.262239
1624.000000	97.290589
1623.000000	97.318580
1622.000000	97.343613
1621.000000	97.366103
1620.000000	97.392141
1619.000000	97.429937
1618.000000	97.483944
1617.000000	97.546528
1616.000000	97.597120
1615.000000	97.623988
1614.000000	97.640162
1613.000000	97.660966
1612.000000	97.688078
1611.000000	97.714656
1610.000000	97.735238
1609.000000	97.751057
1608.000000	97.766737
1607.000000	97.784554
1606.000000	97.802621
1605.000000	97.818314
1604.000000	97.831020
1603.000000	97.842430
1602.000000	97.851295
1601.000000	97.853465
1600.000000	97.847996
1599.000000	97.838473
1598.000000	97.828348
1597.000000	97.818495
1596.000000	97.809685
1595.000000	97.802565
1594.000000	97.794571
1593.000000	97.781672
1592.000000	97.763468
1591.000000	97.742707
1590.000000	97.720164
1589.000000	97.694526
1588.000000	97.666609
1587.000000	97.638782
1586.000000	97.609677
1585.000000	97.575316
1584.000000	97.535186
1583.000000	97.493680
1582.000000	97.454559
1581.000000	97.415736
1580.000000	97.376762
1579.000000	97.345694
1578.000000	97.333907
1577.000000	97.345036
1576.000000	97.371238
1575.000000	97.395779
1574.000000	97.410597
1573.000000	97.424683
1572.000000	97.446921
1571.000000	97.479198
1570.000000	97.514493
1569.000000	97.540677
1568.000000	97.555794
1567.000000	97.572318
1566.000000	97.594951
1565.000000	97.615276
1564.000000	97.626534
1563.000000	97.629534
1562.000000	97.627847
1561.000000	97.617675
1560.000000	97.592359
1559.000000	97.562967
1558.000000	97.534257
1557.000000	97.501233
1556.000000	97.481508
1555.000000	97.463027
1554.000000	97.439200
1553.000000	97.409741
1552.000000	97.370978
1551.000000	97.316170
1550.000000	97.246265
1549.000000	97.175437
1548.000000	97.114691
1547.000000	97.049398
1546.000000	96.951951
1545.000000	96.815202
1544.000000	96.670354
1543.000000	96.558950
1542.000000	96.490125
1541.000000	96.441885
1540.000000	96.400134
1539.000000	96.369825
1538.000000	96.352728
1537.000000	96.345461
1536.000000	96.340026
1535.000000	96.334091
1534.000000	96.325046
1533.000000	96.310266
1532.000000	96.297722
1531.000000	96.298240
1530.000000	96.301856
1529.000000	96.286444
1528.000000	96.245032
1527.000000	96.190696
1526.000000	96.139936
1525.000000	96.099456
1524.000000	96.065781
1523.000000	96.027579
1522.000000	95.967679
1521.000000	95.883249
1520.000000	95.803289
1519.000000	95.750218
1518.000000	95.707135
1517.000000	95.649453
1516.000000	95.583404
1515.000000	95.534110
1514.000000	95.504025
1513.000000	95.470145
1512.000000	95.417932
1511.000000	95.354360
1510.000000	95.289039
1509.000000	95.221663
1508.000000	95.149789
1507.000000	95.083891
1506.000000	95.038883
1505.000000	95.016926
1504.000000	95.006870
1503.000000	94.988095
1502.000000	94.953173
1501.000000	94.901699
1500.000000	94.837432
1499.000000	94.769649
1498.000000	94.700837
1497.000000	94.622948
1496.000000	94.540792
1495.000000	94.474403
1494.000000	94.426440
1493.000000	94.377677
1492.000000	94.309035
1491.000000	94.215357
1490.000000	94.107759
1489.000000	94.009116
1488.000000	93.939500
1487.000000	93.898639
1486.000000	93.867330
1485.000000	93.830331
1484.000000	93.784245
1483.000000	93.727910
1482.000000	93.657430
1481.000000	93.574230
1480.000000	93.490088
1479.000000	93.408972
1478.000000	93.316693
1477.000000	93.200558
1476.000000	93.072854
1475.000000	92.955567
1474.000000	92.846955
1473.000000	92.730038
1472.000000	92.616216
1471.000000	92.537129
1470.000000	92.491163
1469.000000	92.449260
1468.000000	92.392260
1467.000000	92.319067
1466.000000	92.234092
1465.000000	92.143455
1464.000000	92.061382
1463.000000	92.000441
1462.000000	91.951653
1461.000000	91.894287
1460.000000	91.817024
1459.000000	91.718786
1458.000000	91.593215
1457.000000	91.442922
1456.000000	91.319602
1455.000000	91.264148
1454.000000	91.244614
1453.000000	91.215661
1452.000000	91.167497
1451.000000	91.109483
1450.000000	91.044976
1449.000000	90.968481
1448.000000	90.885413
1447.000000	90.813724
1446.000000	90.760244
1445.000000	90.712818
1444.000000	90.659242
1443.000000	90.600319
1442.000000	90.540608
1441.000000	90.481336
1440.000000	90.421214
1439.000000	90.354765
1438.000000	90.269599
1437.000000	90.160922
1436.000000	90.058693
1435.000000	90.001244
1434.000000	89.978719
1433.000000	89.953211
1432.000000	89.906678
1431.000000	89.843802
1430.000000	89.772330
1429.000000	89.694965
1428.000000	89.618494
1427.000000	89.548020
1426.000000	89.474119
1425.000000	89.383390
1424.000000	89.281958
1423.000000	89.192006
1422.000000	89.114775
1421.000000	89.021547
1420.000000	88.885068
1419.000000	88.718384
1418.000000	88.569312
1417.000000	88.464161
1416.000000	88.392749
1415.000000	88.334687
1414.000000	88.270792
1413.000000	88.187442
1412.000000	88.085976
1411.000000	87.980535
1410.000000	87.881792
1409.000000	87.790347
1408.000000	87.704993
1407.000000	87.624549
1406.000000	87.544742
1405.000000	87.466753
1404.000000	87.406182
1403.000000	87.374313
1402.000000	87.354386
1401.000000	87.317928
1400.000000	87.257503
1399.000000	87.191696
1398.000000	87.136902
1397.000000	87.090090
1396.000000	87.045717
1395.000000	87.008322
1394.000000	86.983383
1393.000000	86.971249
1392.000000	86.970230
1391.000000	86.973067
1390.000000	86.963956
1389.000000	86.928642
1388.000000	86.871305
1387.000000	86.815205
1386.000000	86.778050
1385.000000	86.756374
1384.000000	86.737869
1383.000000	86.713987
1382.000000	86.679143
1381.000000	86.631826
1380.000000	86.579348
1379.000000	86.532369
1378.000000	86.492795
1377.000000	86.453853
1376.000000	86.411780
1375.000000	86.370548
1374.000000	86.336920
1373.000000	86.318624
1372.000000	86.322717
1371.000000	86.344584
1370.000000	86.366704
1369.000000	86.378520
1368.000000	86.389760
1367.000000	86.413704
1366.000000	86.444803
1365.000000	86.468081
1364.000000	86.484120
1363.000000	86.510798
1362.000000	86.561132
1361.000000	86.634936
1360.000000	86.728902
1359.000000	86.835960
1358.000000	86.941426
1357.000000	87.033763
1356.000000	87.116649
1355.000000	87.201279
1354.000000	87.290279
1353.000000	87.379826
1352.000000	87.472035
1351.000000	87.572095
1350.000000	87.676649
1349.000000	87.777367
1348.000000	87.873536
1347.000000	87.970442
1346.000000	88.068874
1345.000000	88.166123
1344.000000	88.261994
1343.000000	88.354819
1342.000000	88.437633
1341.000000	88.508489
1340.000000	88.580136
1339.000000	88.668669
1338.000000	88.776370
1337.000000	88.895975
1336.000000	89.022761
1335.000000	89.152523
1334.000000	89.277213
1333.000000	89.392243
1332.000000	89.502675
1331.000000	89.614241
1330.000000	89.723670
1329.000000	89.825576
1328.000000	89.922336
1327.000000	90.018640
1326.000000	90.112680
1325.000000	90.201101
1324.000000	90.286289
1323.000000	90.370362
1322.000000	90.448901
1321.000000	90.518901
1320.000000	90.587322
1319.000000	90.663772
1318.000000	90.748972
1317.000000	90.837882
1316.000000	90.928537
1315.000000	91.020781
1314.000000	91.112861
1313.000000	91.205880
1312.000000	91.305184
1311.000000	91.411086
1310.000000	91.514642
1309.000000	91.608683
1308.000000	91.696469
1307.000000	91.783739
1306.000000	91.869018
1305.000000	91.948673
1304.000000	92.025677
1303.000000	92.105717
1302.000000	92.189060
1301.000000	92.272219
1300.000000	92.353829
1299.000000	92.433766
1298.000000	92.510319
1297.000000	92.582875
1296.000000	92.653828
1295.000000	92.724067
1294.000000	92.790626
1293.000000	92.851481
1292.000000	92.907865
1291.000000	92.959640
1290.000000	93.003987
1289.000000	93.042179
1288.000000	93.082069
1287.000000	93.129897
1286.000000	93.183829
1285.000000	93.238127
1284.000000	93.288786
1283.000000	93.332912
1282.000000	93.369032
1281.000000	93.401519
1280.000000	93.439025
1279.000000	93.485020
1278.000000	93.534474
1277.000000	93.582244
1276.000000	93.629358
1275.000000	93.677821
1274.000000	93.724934
1273.000000	93.766984
1272.000000	93.804440
1271.000000	93.839995
1270.000000	93.874516
1269.000000	93.907500
1268.000000	93.938329
1267.000000	93.965712
1266.000000	93.989815
1265.000000	94.015028
1264.000000	94.045609
1263.000000	94.078179
1262.000000	94.104442
1261.000000	94.122610
1260.000000	94.139441
1259.000000	94.159618
1258.000000	94.180496
1257.000000	94.199344
1256.000000	94.218262
1255.000000	94.238831
1254.000000	94.258494
1253.000000	94.275575
1252.000000	94.292227
1251.000000	94.309052
1250.000000	94.321929
1249.000000	94.327834
1248.000000	94.329506
1247.000000	94.330751
1246.000000	94.331116
1245.000000	94.328325
1244.000000	94.322550
1243.000000	94.315801
1242.000000	94.310316
1241.000000	94.309536
1240.000000	94.316640
1239.000000	94.329436
1238.000000	94.340415
1237.000000	94.345057
1236.000000	94.347014
1235.000000	94.353056
1234.000000	94.366313
1233.000000	94.386275
1232.000000	94.411831
1231.000000	94.441086
1230.000000	94.470991
1229.000000	94.500145
1228.000000	94.530181
1227.000000	94.563452
1226.000000	94.601176
1225.000000	94.643925
1224.000000	94.691097
1223.000000	94.739653
1222.000000	94.786703
1221.000000	94.833094
1220.000000	94.880911
1219.000000	94.928278
1218.000000	94.971078
1217.000000	95.008791
1216.000000	95.043406
1215.000000	95.073741
1214.000000	95.097093
1213.000000	95.116405
1212.000000	95.138509
1211.000000	95.164031
1210.000000	95.185732
1209.000000	95.198560
1208.000000	95.205554
1207.000000	95.211886
1206.000000	95.218842
1205.000000	95.225962
1204.000000	95.233769
1203.000000	95.241848
1202.000000	95.248558
1201.000000	95.254885
1200.000000	95.264517
1199.000000	95.278508
1198.000000	95.294044
1197.000000	95.309628
1196.000000	95.326505
1195.000000	95.343721
1194.000000	95.357560
1193.000000	95.368049
1192.000000	95.380628
1191.000000	95.398594
1190.000000	95.418639
1189.000000	95.436495
1188.000000	95.452058
1187.000000	95.466135
1186.000000	95.477303
1185.000000	95.485787
1184.000000	95.495885
1183.000000	95.510179
1182.000000	95.524497
1181.000000	95.532575
1180.000000	95.533726
1179.000000	95.532217
1178.000000	95.531122
1177.000000	95.530422
1176.000000	95.529429
1175.000000	95.527965
1174.000000	95.525876
1173.000000	95.523475
1172.000000	95.521769
1171.000000	95.521266
1170.000000	95.521801
1169.000000	95.523871
1168.000000	95.528201
1167.000000	95.533760
1166.000000	95.538798
1165.000000	95.544018
1164.000000	95.551577
1163.000000	95.560504
1162.000000	95.566667
1161.000000	95.568324
1160.000000	95.568347
1159.000000	95.570206
1158.000000	95.575545
1157.000000	95.586473
1156.000000	95.605888
1155.000000	95.632990
1154.000000	95.662121
1153.000000	95.688961
1152.000000	95.715108
1151.000000	95.744813
1150.000000	95.779707
1149.000000	95.818261
1148.000000	95.857529
1147.000000	95.893748
1146.000000	95.924327
1145.000000	95.950933
1144.000000	95.977931
1143.000000	96.006554
1142.000000	96.033546
1141.000000	96.056711
1140.000000	96.078691
1139.000000	96.103699
1138.000000	96.132760
1137.000000	96.163082
1136.000000	96.189650
1135.000000	96.207265
1134.000000	96.214444
1133.000000	96.215906
1132.000000	96.218616
1131.000000	96.225097
1130.000000	96.233210
1129.000000	96.241859
1128.000000	96.252538
1127.000000	96.265023
1126.000000	96.276134
1125.000000	96.284258
1124.000000	96.291127
1123.000000	96.297404
1122.000000	96.300176
1121.000000	96.296950
1120.000000	96.289547
1119.000000	96.282688
1118.000000	96.280716
1117.000000	96.285820
1116.000000	96.296122
1115.000000	96.304624
1114.000000	96.303800
1113.000000	96.293278
1112.000000	96.280974
1111.000000	96.275933
1110.000000	96.282141
1109.000000	96.298432
1108.000000	96.320223
1107.000000	96.340532
1106.000000	96.353668
1105.000000	96.359868
1104.000000	96.363449
1103.000000	96.366191
1102.000000	96.366207
1101.000000	96.363962
1100.000000	96.364106
1099.000000	96.369857
1098.000000	96.379228
1097.000000	96.388487
1096.000000	96.396252
1095.000000	96.401463
1094.000000	96.401181
1093.000000	96.393118
1092.000000	96.378286
1091.000000	96.359109
1090.000000	96.336275
1089.000000	96.309058
1088.000000	96.277227
1087.000000	96.241789
1086.000000	96.205516
1085.000000	96.172829
1084.000000	96.147073
1083.000000	96.127583
1082.000000	96.111917
1081.000000	96.100822
1080.000000	96.098241
1079.000000	96.105835
1078.000000	96.121091
1077.000000	96.142034
1076.000000	96.169359
1075.000000	96.202684
1074.000000	96.238476
1073.000000	96.273661
1072.000000	96.307822
1071.000000	96.339653
1070.000000	96.364770
1069.000000	96.379948
1068.000000	96.387447
1067.000000	96.392985
1066.000000	96.401051
1065.000000	96.413132
1064.000000	96.428505
1063.000000	96.445220
1062.000000	96.461356
1061.000000	96.476033
1060.000000	96.488259
1059.000000	96.495951
1058.000000	96.498792
1057.000000	96.501134
1056.000000	96.508484
1055.000000	96.521040
1054.000000	96.534231
1053.000000	96.545746
1052.000000	96.557889
1051.000000	96.572096
1050.000000	96.585670
1049.000000	96.596050
1048.000000	96.604053
1047.000000	96.610370
1046.000000	96.612441
1045.000000	96.607918
1044.000000	96.599495
1043.000000	96.594413
1042.000000	96.599729
1041.000000	96.617355
1040.000000	96.641101
1039.000000	96.658557
1038.000000	96.659959
1037.000000	96.647179
1036.000000	96.631166
1035.000000	96.619534
1034.000000	96.610050
1033.000000	96.597851
1032.000000	96.585294
1031.000000	96.580378
1030.000000	96.586912
1029.000000	96.600637
1028.000000	96.615310
1027.000000	96.630133
1026.000000	96.649515
1025.000000	96.676379
1024.000000	96.707516
1023.000000	96.736205
1022.000000	96.758951
1021.000000	96.777447
1020.000000	96.793169
1019.000000	96.803173
1018.000000	96.804602
1017.000000	96.801865
1016.000000	96.804874
1015.000000	96.819859
1014.000000	96.845072
1013.000000	96.875926
1012.000000	96.910650
1011.000000	96.948730
1010.000000	96.986663
1009.000000	97.018941
1008.000000	97.043416
1007.000000	97.064282
1006.000000	97.089226
1005.000000	97.123297
1004.000000	97.165045
1003.000000	97.208591
1002.000000	97.249107
1001.000000	97.285290
1000.000000	97.317267
999.000000	97.345461
998.000000	97.373040
997.000000	97.406027
996.000000	97.447435
995.000000	97.492471
994.000000	97.532336
993.000000	97.562132
992.000000	97.583394
991.000000	97.601343
990.000000	97.622463
989.000000	97.651752
988.000000	97.687595
987.000000	97.720545
986.000000	97.741722
985.000000	97.752832
984.000000	97.764031
983.000000	97.782061
982.000000	97.804778
981.000000	97.826997
980.000000	97.846865
979.000000	97.864548
978.000000	97.878927
977.000000	97.889137
976.000000	97.897311
975.000000	97.906870
974.000000	97.918598
973.000000	97.930468
972.000000	97.941114
971.000000	97.952115
970.000000	97.966208
969.000000	97.983512
968.000000	98.000486
967.000000	98.013588
966.000000	98.024240
965.000000	98.038506
964.000000	98.060531
963.000000	98.087505
962.000000	98.112434
961.000000	98.131331
960.000000	98.146206
959.000000	98.161556
958.000000	98.179718
957.000000	98.199427
956.000000	98.217410
955.000000	98.230862
954.000000	98.239039
953.000000	98.243320
952.000000	98.246851
951.000000	98.254533
950.000000	98.271154
949.000000	98.296654
948.000000	98.323808
947.000000	98.343979
946.000000	98.355880
945.000000	98.365634
944.000000	98.378268
943.000000	98.393306
942.000000	98.409370
941.000000	98.427487
940.000000	98.446398
939.000000	98.459452
938.000000	98.461517
937.000000	98.457152
936.000000	98.457441
935.000000	98.469796
934.000000	98.493592
933.000000	98.523570
932.000000	98.553839
931.000000	98.579644
930.000000	98.599133
929.000000	98.613739
928.000000	98.625345
927.000000	98.634600
926.000000	98.643593
925.000000	98.656856
924.000000	98.676219
923.000000	98.696917
922.000000	98.713003
921.000000	98.725105
920.000000	98.739108
919.000000	98.758869
918.000000	98.784353
917.000000	98.815315
916.000000	98.851171
915.000000	98.887201
914.000000	98.916251
913.000000	98.936056
912.000000	98.951204
911.000000	98.966741
910.000000	98.983252
909.000000	98.999536
908.000000	99.016954
907.000000	99.038717
906.000000	99.066540
905.000000	99.099416
904.000000	99.134344
903.000000	99.167512
902.000000	99.196369
901.000000	99.221684
900.000000	99.246887
899.000000	99.274951
898.000000	99.306781
897.000000	99.341924
896.000000	99.378820
895.000000	99.414513
894.000000	99.446420
893.000000	99.475417
892.000000	99.505317
891.000000	99.538621
890.000000	99.573372
889.000000	99.603613
888.000000	99.619696
887.000000	99.603306
886.000000	99.524473
885.000000	99.346720
884.000000	99.039224
883.000000	98.588213
882.000000	97.996044
881.000000	97.275089
880.000000	96.441551
879.000000	95.512521
878.000000	94.505441
877.000000	93.436873
876.000000	92.319292
875.000000	91.147149
874.000000	89.900230
873.000000	88.611006
872.000000	87.475939
871.000000	86.861457
870.000000	87.100453
869.000000	88.228631
868.000000	89.919156
867.000000	91.690712
866.000000	93.193336
865.000000	94.328754
864.000000	95.160729
863.000000	95.776624
862.000000	96.236265
861.000000	96.586772
860.000000	96.869993
859.000000	97.109075
858.000000	97.309929
857.000000	97.473941
856.000000	97.603427
855.000000	97.703678
854.000000	97.787187
853.000000	97.867910
852.000000	97.938172
851.000000	97.963931
850.000000	97.923377
849.000000	97.848659
848.000000	97.813001
847.000000	97.869008
846.000000	98.005618
845.000000	98.166757
844.000000	98.301445
843.000000	98.393422
842.000000	98.454556
841.000000	98.502183
840.000000	98.545287
839.000000	98.585903
838.000000	98.625429
837.000000	98.664522
836.000000	98.699580
835.000000	98.726926
834.000000	98.751842
833.000000	98.785910
832.000000	98.830819
831.000000	98.871681
830.000000	98.892814
829.000000	98.895720
828.000000	98.895392
827.000000	98.902840
826.000000	98.918946
825.000000	98.941327
824.000000	98.967518
823.000000	98.992691
822.000000	99.012602
821.000000	99.028620
820.000000	99.043230
819.000000	99.052257
818.000000	99.049505
817.000000	99.038809
816.000000	99.033727
815.000000	99.043264
814.000000	99.063031
813.000000	99.082570
812.000000	99.096618
811.000000	99.106265
810.000000	99.113036
809.000000	99.116332
808.000000	99.116575
807.000000	99.118209
806.000000	99.127420
805.000000	99.145777
804.000000	99.166863
803.000000	99.181507
802.000000	99.186943
801.000000	99.188200
800.000000	99.189591
799.000000	99.188631
798.000000	99.180532
797.000000	99.165339
796.000000	99.148326
795.000000	99.136495
794.000000	99.136956
793.000000	99.154357
792.000000	99.184997
791.000000	99.215653
790.000000	99.232848
789.000000	99.232774
788.000000	99.219987
787.000000	99.199868
786.000000	99.176550
785.000000	99.155067
784.000000	99.139498
783.000000	99.128803
782.000000	99.118680
781.000000	99.107750
780.000000	99.099082
779.000000	99.096372
778.000000	99.101741
777.000000	99.115779
776.000000	99.135132
775.000000	99.150410
774.000000	99.151910
773.000000	99.139834
772.000000	99.125736
771.000000	99.121404
770.000000	99.127667
769.000000	99.135665
768.000000	99.137727
767.000000	99.135331
766.000000	99.137213
765.000000	99.151169
764.000000	99.177894
763.000000	99.211560
762.000000	99.244412
761.000000	99.270549
760.000000	99.287811
759.000000	99.298858
758.000000	99.309558
757.000000	99.322935
756.000000	99.335178
755.000000	99.341409
754.000000	99.345157
753.000000	99.356413
752.000000	99.378064
751.000000	99.399578
750.000000	99.408243
749.000000	99.403248
748.000000	99.394260
747.000000	99.389144
746.000000	99.388199
745.000000	99.388741
744.000000	99.390207
743.000000	99.394191
742.000000	99.402598
741.000000	99.416252
740.000000	99.433439
739.000000	99.450191
738.000000	99.463739
737.000000	99.474506
736.000000	99.482781
735.000000	99.484811
734.000000	99.474947
733.000000	99.452018
732.000000	99.422562
731.000000	99.397458
730.000000	99.383762
729.000000	99.377083
728.000000	99.362797
727.000000	99.329272
726.000000	99.281247
725.000000	99.235699
724.000000	99.202562
723.000000	99.173869
722.000000	99.132672
721.000000	99.066624
720.000000	98.968560
719.000000	98.827204
718.000000	98.620620
717.000000	98.317376
716.000000	97.891181
715.000000	97.355806
714.000000	96.799866
713.000000	96.372192
712.000000	96.200889
711.000000	96.307225
710.000000	96.600355
709.000000	96.955017
708.000000	97.288464
707.000000	97.573842
706.000000	97.807697
705.000000	97.986834
704.000000	98.112723
703.000000	98.199605
702.000000	98.267347
701.000000	98.327248
700.000000	98.377229
699.000000	98.410180
698.000000	98.426497
697.000000	98.438378
696.000000	98.460375
695.000000	98.495988
694.000000	98.535909
693.000000	98.568996
692.000000	98.591886
691.000000	98.607625
690.000000	98.619105
689.000000	98.626478
688.000000	98.628920
687.000000	98.627090
686.000000	98.625516
685.000000	98.632894
684.000000	98.655971
683.000000	98.690753
682.000000	98.723251
681.000000	98.741426
680.000000	98.744499
679.000000	98.739192
678.000000	98.729996
677.000000	98.717199
676.000000	98.702426
675.000000	98.690374
674.000000	98.685025
673.000000	98.686770
672.000000	98.691753
671.000000	98.692403
670.000000	98.679761
669.000000	98.650476
668.000000	98.614999
667.000000	98.595796
666.000000	98.605042
665.000000	98.628288
664.000000	98.647817
663.000000	98.657320
662.000000	98.656022
661.000000	98.647215
660.000000	98.638141
659.000000	98.636609
658.000000	98.645211
657.000000	98.660603
656.000000	98.678308
655.000000	98.694531
654.000000	98.703966
653.000000	98.702314
652.000000	98.693189
651.000000	98.688982
650.000000	98.700865
649.000000	98.727301
648.000000	98.754954
647.000000	98.770886
646.000000	98.772994
645.000000	98.769151
644.000000	98.767794
643.000000	98.771148
642.000000	98.776318
641.000000	98.780249
640.000000	98.781441
639.000000	98.778662
638.000000	98.771638
637.000000	98.763062
636.000000	98.757833
635.000000	98.759308
634.000000	98.767334
633.000000	98.778944
632.000000	98.787978
631.000000	98.785784
630.000000	98.767856
629.000000	98.740853
628.000000	98.718691
627.000000	98.709461
626.000000	98.708488
625.000000	98.706195
624.000000	98.699870
623.000000	98.694216
622.000000	98.693458
621.000000	98.697471
620.000000	98.703842
619.000000	98.709879
618.000000	98.712943
617.000000	98.711543
616.000000	98.706639
615.000000	98.700981
614.000000	98.697527
613.000000	98.698659
612.000000	98.704502
611.000000	98.711262
610.000000	98.714120
609.000000	98.712340
608.000000	98.709023
607.000000	98.705870
606.000000	98.703162
605.000000	98.705224
604.000000	98.718258
603.000000	98.738315
602.000000	98.748655
601.000000	98.737591
600.000000	98.715672
599.000000	98.706904
598.000000	98.723742
597.000000	98.756314
596.000000	98.784439
595.000000	98.793496
594.000000	98.780480
593.000000	98.753285
592.000000	98.727030
591.000000	98.717050
590.000000	98.729724
589.000000	98.758349
588.000000	98.787517
587.000000	98.802270
586.000000	98.799364
585.000000	98.790689
584.000000	98.790721
583.000000	98.800201
582.000000	98.809105
581.000000	98.815138
580.000000	98.828194
579.000000	98.850465
578.000000	98.865375
577.000000	98.858600
576.000000	98.840633
575.000000	98.835149
574.000000	98.846303
573.000000	98.853511
572.000000	98.839722
571.000000	98.810309
570.000000	98.782403
569.000000	98.764636
568.000000	98.753759
567.000000	98.746561
566.000000	98.746843
565.000000	98.760777
564.000000	98.788058
563.000000	98.815063
562.000000	98.819894
561.000000	98.791231
560.000000	98.742443
559.000000	98.701743
558.000000	98.686814
557.000000	98.691688
556.000000	98.698482
555.000000	98.697014
554.000000	98.691313
553.000000	98.692437
552.000000	98.708080
551.000000	98.735384
550.000000	98.762463
549.000000	98.780108
548.000000	98.789023
547.000000	98.791673
546.000000	98.783869
545.000000	98.763598
544.000000	98.743835
543.000000	98.743695
542.000000	98.766466
541.000000	98.796801
540.000000	98.819857
539.000000	98.830867
538.000000	98.827074
537.000000	98.806114
536.000000	98.778707
535.000000	98.768119
534.000000	98.785426
533.000000	98.812928
532.000000	98.823118
531.000000	98.804943
530.000000	98.764206
529.000000	98.709821
528.000000	98.652649
527.000000	98.611608
526.000000	98.604279
525.000000	98.628477
524.000000	98.663624
523.000000	98.690569
522.000000	98.703058
521.000000	98.708052
520.000000	98.721840
519.000000	98.756837
518.000000	98.803048
517.000000	98.831072
516.000000	98.823183
515.000000	98.790993
514.000000	98.758369
513.000000	98.741821
512.000000	98.754388
511.000000	98.808360
510.000000	98.897625
509.000000	98.987900
508.000000	99.041915
507.000000	99.050420
506.000000	99.030665
505.000000	99.000957
504.000000	98.968049
503.000000	98.938656
502.000000	98.926703
501.000000	98.940452
500.000000	98.971083
499.000000	98.997880
498.000000	99.002643
497.000000	98.985007
496.000000	98.968483
495.000000	98.981661
494.000000	99.026786
493.000000	99.074784
492.000000	99.098850
491.000000	99.103176
490.000000	99.109581
489.000000	99.129360
488.000000	99.165652
487.000000	99.225208
486.000000	99.305985
485.000000	99.383486
484.000000	99.431256
483.000000	99.451337
482.000000	99.463646
481.000000	99.474334
480.000000	99.476739
479.000000	99.472303
478.000000	99.469904
477.000000	99.466079
476.000000	99.442861
475.000000	99.386356
474.000000	99.301322
473.000000	99.210148
472.000000	99.143946
471.000000	99.121935
470.000000	99.130689
469.000000	99.140980
468.000000	99.152030
467.000000	99.202298
466.000000	99.316472
465.000000	99.450199
464.000000	99.525617
463.000000	99.515975
462.000000	99.461349
461.000000	99.411914
460.000000	99.351076
459.000000	99.282211
458.000000	99.219353
457.000000	99.368622
456.000000	99.495667
455.000000	99.537510
454.000000	99.511335
453.000000	99.427039
452.000000	99.386618
451.000000	99.425270
450.000000	99.509816
