PE IR       SUBTECH     SPECTRUM    ASCII       PEDS        4.00        
   -1
Chevre2-C002_1.ASC
23/09/14
14:28:20.00
23/09/14
14:38:30.00
uco
Sample 002 By uco Date Thursday, September 14 2023
450.000000
#HDR
-1
-1
#GR
cm-1
%T
1.0
0.0
4000.000000
-1.000000
3551
8
99.112271
91.588652
#DATA
4000.000000	99.085219
3999.000000	99.081025
3998.000000	99.081642
3997.000000	99.086389
3996.000000	99.092178
3995.000000	99.095653
3994.000000	99.094830
3993.000000	99.089481
3992.000000	99.081235
3991.000000	99.073176
3990.000000	99.068466
3989.000000	99.068346
3988.000000	99.071261
3987.000000	99.074203
3986.000000	99.074987
3985.000000	99.073483
3984.000000	99.071037
3983.000000	99.069215
3982.000000	99.069111
3981.000000	99.071101
3980.000000	99.074541
3979.000000	99.077792
3978.000000	99.079171
3977.000000	99.078345
3976.000000	99.076644
3975.000000	99.075666
3974.000000	99.075549
3973.000000	99.074925
3972.000000	99.072664
3971.000000	99.069257
3970.000000	99.066249
3969.000000	99.064637
3968.000000	99.063936
3967.000000	99.062768
3966.000000	99.060347
3965.000000	99.057365
3964.000000	99.055554
3963.000000	99.056394
3962.000000	99.059949
3961.000000	99.064770
3960.000000	99.068995
3959.000000	99.071352
3958.000000	99.071449
3957.000000	99.069795
3956.000000	99.067666
3955.000000	99.066568
3954.000000	99.067412
3953.000000	99.070050
3952.000000	99.073516
3951.000000	99.076434
3950.000000	99.077323
3949.000000	99.075136
3948.000000	99.070181
3947.000000	99.064612
3946.000000	99.061362
3945.000000	99.062001
3944.000000	99.065181
3943.000000	99.067335
3942.000000	99.066120
3941.000000	99.062749
3940.000000	99.060261
3939.000000	99.059911
3938.000000	99.059873
3937.000000	99.057643
3936.000000	99.053153
3935.000000	99.048972
3934.000000	99.047614
3933.000000	99.048850
3932.000000	99.050135
3931.000000	99.049504
3930.000000	99.047696
3929.000000	99.047167
3928.000000	99.049575
3927.000000	99.054834
3926.000000	99.061046
3925.000000	99.065046
3924.000000	99.064548
3923.000000	99.060036
3922.000000	99.054018
3921.000000	99.049130
3920.000000	99.047087
3919.000000	99.048303
3918.000000	99.051289
3917.000000	99.053005
3916.000000	99.051521
3915.000000	99.047907
3914.000000	99.044723
3913.000000	99.042922
3912.000000	99.041435
3911.000000	99.039188
3910.000000	99.036792
3909.000000	99.035828
3908.000000	99.036957
3907.000000	99.038956
3906.000000	99.040088
3905.000000	99.040412
3904.000000	99.042816
3903.000000	99.050710
3902.000000	99.063400
3901.000000	99.075036
3900.000000	99.078860
3899.000000	99.072945
3898.000000	99.062027
3897.000000	99.052681
3896.000000	99.048275
3895.000000	99.048778
3894.000000	99.052571
3893.000000	99.056934
3892.000000	99.057724
3891.000000	99.051657
3890.000000	99.040649
3889.000000	99.030667
3888.000000	99.026332
3887.000000	99.027320
3886.000000	99.028666
3885.000000	99.026509
3884.000000	99.023788
3883.000000	99.026688
3882.000000	99.036367
3881.000000	99.047213
3880.000000	99.052134
3879.000000	99.049631
3878.000000	99.044074
3877.000000	99.039513
3876.000000	99.036311
3875.000000	99.032648
3874.000000	99.027555
3873.000000	99.023001
3872.000000	99.022359
3871.000000	99.025889
3870.000000	99.029029
3869.000000	99.027696
3868.000000	99.023790
3867.000000	99.021729
3866.000000	99.022583
3865.000000	99.023473
3864.000000	99.021590
3863.000000	99.017364
3862.000000	99.013650
3861.000000	99.013159
3860.000000	99.016924
3859.000000	99.023289
3858.000000	99.028277
3857.000000	99.028170
3856.000000	99.023247
3855.000000	99.019193
3854.000000	99.021719
3853.000000	99.028445
3852.000000	99.033168
3851.000000	99.035363
3850.000000	99.035943
3849.000000	99.034724
3848.000000	99.032391
3847.000000	99.030852
3846.000000	99.031224
3845.000000	99.033012
3844.000000	99.035699
3843.000000	99.039547
3842.000000	99.044286
3841.000000	99.047622
3840.000000	99.045466
3839.000000	99.035513
3838.000000	99.021623
3837.000000	99.011462
3836.000000	99.009415
3835.000000	99.013957
3834.000000	99.021011
3833.000000	99.027346
3832.000000	99.031080
3831.000000	99.031894
3830.000000	99.031050
3829.000000	99.029906
3828.000000	99.028663
3827.000000	99.026664
3826.000000	99.023745
3825.000000	99.021815
3824.000000	99.024700
3823.000000	99.034800
3822.000000	99.048905
3821.000000	99.057585
3820.000000	99.055820
3819.000000	99.049621
3818.000000	99.046290
3817.000000	99.046904
3816.000000	99.046569
3815.000000	99.041412
3814.000000	99.033675
3813.000000	99.027678
3812.000000	99.024455
3811.000000	99.023540
3810.000000	99.025581
3809.000000	99.031394
3808.000000	99.039280
3807.000000	99.044997
3806.000000	99.047011
3805.000000	99.048980
3804.000000	99.054132
3803.000000	99.060180
3802.000000	99.059844
3801.000000	99.048464
3800.000000	99.032893
3799.000000	99.023710
3798.000000	99.023451
3797.000000	99.027509
3796.000000	99.030674
3795.000000	99.031798
3794.000000	99.033499
3793.000000	99.037729
3792.000000	99.043197
3791.000000	99.047207
3790.000000	99.048439
3789.000000	99.047734
3788.000000	99.046539
3787.000000	99.045239
3786.000000	99.042866
3785.000000	99.038402
3784.000000	99.032227
3783.000000	99.026284
3782.000000	99.022374
3781.000000	99.020623
3780.000000	99.019762
3779.000000	99.019141
3778.000000	99.020263
3777.000000	99.025162
3776.000000	99.033745
3775.000000	99.043277
3774.000000	99.050680
3773.000000	99.054751
3772.000000	99.056099
3771.000000	99.054882
3770.000000	99.050266
3769.000000	99.043259
3768.000000	99.037724
3767.000000	99.037008
3766.000000	99.040970
3765.000000	99.046616
3764.000000	99.051526
3763.000000	99.056083
3762.000000	99.061297
3761.000000	99.066274
3760.000000	99.068872
3759.000000	99.069134
3758.000000	99.070029
3757.000000	99.073518
3756.000000	99.078590
3755.000000	99.082853
3754.000000	99.084762
3753.000000	99.084348
3752.000000	99.082551
3751.000000	99.080110
3750.000000	99.076650
3749.000000	99.071423
3748.000000	99.064453
3747.000000	99.056775
3746.000000	99.050304
3745.000000	99.045713
3744.000000	99.042226
3743.000000	99.041117
3742.000000	99.044639
3741.000000	99.050630
3740.000000	99.055318
3739.000000	99.058809
3738.000000	99.064769
3737.000000	99.074354
3736.000000	99.083113
3735.000000	99.086342
3734.000000	99.086577
3733.000000	99.088881
3732.000000	99.092591
3731.000000	99.093563
3730.000000	99.089900
3729.000000	99.083541
3728.000000	99.078285
3727.000000	99.077217
3726.000000	99.080767
3725.000000	99.086585
3724.000000	99.090898
3723.000000	99.090099
3722.000000	99.082481
3721.000000	99.069248
3720.000000	99.053820
3719.000000	99.041102
3718.000000	99.035563
3717.000000	99.038206
3716.000000	99.046463
3715.000000	99.056454
3714.000000	99.065667
3713.000000	99.073510
3712.000000	99.080169
3711.000000	99.085708
3710.000000	99.090189
3709.000000	99.093528
3708.000000	99.094691
3707.000000	99.092443
3706.000000	99.087076
3705.000000	99.081045
3704.000000	99.076840
3703.000000	99.074753
3702.000000	99.072003
3701.000000	99.066550
3700.000000	99.060380
3699.000000	99.057835
3698.000000	99.061217
3697.000000	99.068692
3696.000000	99.076281
3695.000000	99.081182
3694.000000	99.083218
3693.000000	99.083656
3692.000000	99.084656
3691.000000	99.087890
3690.000000	99.091832
3689.000000	99.090594
3688.000000	99.080320
3687.000000	99.064589
3686.000000	99.049778
3685.000000	99.039888
3684.000000	99.036711
3683.000000	99.041959
3682.000000	99.055724
3681.000000	99.074086
3680.000000	99.089668
3679.000000	99.097411
3678.000000	99.099017
3677.000000	99.099528
3676.000000	99.098472
3675.000000	99.091056
3674.000000	99.079144
3673.000000	99.068448
3672.000000	99.059834
3671.000000	99.050170
3670.000000	99.037100
3669.000000	99.023476
3668.000000	99.015001
3667.000000	99.013315
3666.000000	99.016161
3665.000000	99.020854
3664.000000	99.025297
3663.000000	99.027657
3662.000000	99.026896
3661.000000	99.023580
3660.000000	99.019972
3659.000000	99.018870
3658.000000	99.021700
3657.000000	99.027034
3656.000000	99.031180
3655.000000	99.032183
3654.000000	99.031571
3653.000000	99.031598
3652.000000	99.033657
3651.000000	99.038081
3650.000000	99.042160
3649.000000	99.039927
3648.000000	99.028255
3647.000000	99.011218
3646.000000	98.994981
3645.000000	98.982967
3644.000000	98.975968
3643.000000	98.973467
3642.000000	98.973751
3641.000000	98.974198
3640.000000	98.972770
3639.000000	98.968937
3638.000000	98.963803
3637.000000	98.959085
3636.000000	98.955716
3635.000000	98.953134
3634.000000	98.949860
3633.000000	98.945615
3632.000000	98.942326
3631.000000	98.942792
3630.000000	98.947438
3629.000000	98.950769
3628.000000	98.946369
3627.000000	98.936133
3626.000000	98.925186
3625.000000	98.915248
3624.000000	98.906378
3623.000000	98.899258
3622.000000	98.895271
3621.000000	98.894693
3620.000000	98.894489
3619.000000	98.889348
3618.000000	98.877078
3617.000000	98.861483
3616.000000	98.848243
3615.000000	98.839914
3614.000000	98.834660
3613.000000	98.829414
3612.000000	98.824304
3611.000000	98.822022
3610.000000	98.822940
3609.000000	98.822633
3608.000000	98.816256
3607.000000	98.805280
3606.000000	98.795814
3605.000000	98.791249
3604.000000	98.789580
3603.000000	98.786874
3602.000000	98.781023
3601.000000	98.772726
3600.000000	98.763892
3599.000000	98.755871
3598.000000	98.748918
3597.000000	98.742635
3596.000000	98.737016
3595.000000	98.731926
3594.000000	98.726808
3593.000000	98.721450
3592.000000	98.717101
3591.000000	98.715970
3590.000000	98.719507
3589.000000	98.725174
3588.000000	98.725040
3587.000000	98.711468
3586.000000	98.686512
3585.000000	98.659961
3584.000000	98.639712
3583.000000	98.627995
3582.000000	98.622788
3581.000000	98.619825
3580.000000	98.614931
3579.000000	98.606183
3578.000000	98.594997
3577.000000	98.584964
3576.000000	98.579593
3575.000000	98.579715
3574.000000	98.582676
3573.000000	98.584124
3572.000000	98.581388
3571.000000	98.574737
3570.000000	98.566125
3569.000000	98.556614
3568.000000	98.544977
3567.000000	98.529400
3566.000000	98.511122
3565.000000	98.493850
3564.000000	98.479731
3563.000000	98.468505
3562.000000	98.459214
3561.000000	98.451059
3560.000000	98.443300
3559.000000	98.435383
3558.000000	98.427222
3557.000000	98.418999
3556.000000	98.410640
3555.000000	98.401607
3554.000000	98.391278
3553.000000	98.379680
3552.000000	98.368045
3551.000000	98.358065
3550.000000	98.350355
3549.000000	98.343879
3548.000000	98.336985
3547.000000	98.328833
3546.000000	98.319889
3545.000000	98.311105
3544.000000	98.302882
3543.000000	98.294761
3542.000000	98.286012
3541.000000	98.276365
3540.000000	98.266146
3539.000000	98.255735
3538.000000	98.244987
3537.000000	98.233495
3536.000000	98.221740
3535.000000	98.211123
3534.000000	98.202207
3533.000000	98.193367
3532.000000	98.182237
3531.000000	98.168592
3530.000000	98.155133
3529.000000	98.145029
3528.000000	98.139156
3527.000000	98.136161
3526.000000	98.134296
3525.000000	98.131877
3524.000000	98.126798
3523.000000	98.117731
3522.000000	98.106102
3521.000000	98.095224
3520.000000	98.086795
3519.000000	98.079106
3518.000000	98.069343
3517.000000	98.057082
3516.000000	98.044974
3515.000000	98.035948
3514.000000	98.030629
3513.000000	98.027402
3512.000000	98.024103
3511.000000	98.019111
3510.000000	98.011409
3509.000000	98.000553
3508.000000	97.987036
3507.000000	97.972461
3506.000000	97.958658
3505.000000	97.946381
3504.000000	97.934986
3503.000000	97.923966
3502.000000	97.914715
3501.000000	97.909454
3500.000000	97.907986
3499.000000	97.906619
3498.000000	97.901115
3497.000000	97.890562
3496.000000	97.878132
3495.000000	97.867937
3494.000000	97.861710
3493.000000	97.858406
3492.000000	97.855938
3491.000000	97.852606
3490.000000	97.847636
3489.000000	97.841129
3488.000000	97.833394
3487.000000	97.824213
3486.000000	97.813102
3485.000000	97.800448
3484.000000	97.787905
3483.000000	97.777085
3482.000000	97.767968
3481.000000	97.759153
3480.000000	97.749634
3479.000000	97.739829
3478.000000	97.730723
3477.000000	97.722610
3476.000000	97.715021
3475.000000	97.707705
3474.000000	97.701341
3473.000000	97.696938
3472.000000	97.694451
3471.000000	97.692141
3470.000000	97.687738
3469.000000	97.680476
3468.000000	97.671875
3467.000000	97.664369
3466.000000	97.659142
3465.000000	97.655261
3464.000000	97.650548
3463.000000	97.643177
3462.000000	97.632980
3461.000000	97.621829
3460.000000	97.612603
3459.000000	97.607124
3458.000000	97.604658
3457.000000	97.602533
3456.000000	97.598397
3455.000000	97.591974
3454.000000	97.584807
3453.000000	97.578453
3452.000000	97.573122
3451.000000	97.567931
3450.000000	97.562032
3449.000000	97.555096
3448.000000	97.546632
3447.000000	97.535540
3446.000000	97.521254
3445.000000	97.505415
3444.000000	97.491683
3443.000000	97.483411
3442.000000	97.481162
3441.000000	97.482232
3440.000000	97.482458
3439.000000	97.478633
3438.000000	97.470067
3437.000000	97.458783
3436.000000	97.448260
3435.000000	97.441126
3434.000000	97.437525
3433.000000	97.435384
3432.000000	97.432228
3431.000000	97.426775
3430.000000	97.419200
3429.000000	97.410388
3428.000000	97.400990
3427.000000	97.390995
3426.000000	97.380234
3425.000000	97.369372
3424.000000	97.360143
3423.000000	97.354129
3422.000000	97.351218
3421.000000	97.349382
3420.000000	97.346028
3419.000000	97.339609
3418.000000	97.330367
3417.000000	97.320125
3416.000000	97.311288
3415.000000	97.305250
3414.000000	97.301264
3413.000000	97.297089
3412.000000	97.290908
3411.000000	97.282498
3410.000000	97.272711
3409.000000	97.262392
3408.000000	97.252043
3407.000000	97.242190
3406.000000	97.233595
3405.000000	97.227097
3404.000000	97.223238
3403.000000	97.221727
3402.000000	97.221147
3401.000000	97.219441
3400.000000	97.215153
3399.000000	97.208284
3398.000000	97.199926
3397.000000	97.191034
3396.000000	97.181644
3395.000000	97.171270
3394.000000	97.159939
3393.000000	97.148680
3392.000000	97.138955
3391.000000	97.131658
3390.000000	97.126701
3389.000000	97.123247
3388.000000	97.119945
3387.000000	97.115035
3386.000000	97.106972
3385.000000	97.095520
3384.000000	97.082206
3383.000000	97.069370
3382.000000	97.058678
3381.000000	97.050270
3380.000000	97.042826
3379.000000	97.034245
3378.000000	97.022919
3377.000000	97.009133
3376.000000	96.995208
3375.000000	96.983889
3374.000000	96.976479
3373.000000	96.972497
3372.000000	96.970571
3371.000000	96.969032
3370.000000	96.966013
3369.000000	96.960178
3368.000000	96.951885
3367.000000	96.943084
3366.000000	96.935430
3365.000000	96.928647
3364.000000	96.921030
3363.000000	96.911340
3362.000000	96.899844
3361.000000	96.887736
3360.000000	96.875948
3359.000000	96.864418
3358.000000	96.852214
3357.000000	96.838348
3356.000000	96.822731
3355.000000	96.806511
3354.000000	96.791272
3353.000000	96.777808
3352.000000	96.765641
3351.000000	96.753687
3350.000000	96.741280
3349.000000	96.728501
3348.000000	96.715543
3347.000000	96.701877
3346.000000	96.686479
3345.000000	96.669243
3344.000000	96.652112
3343.000000	96.638139
3342.000000	96.628823
3341.000000	96.622427
3340.000000	96.615239
3339.000000	96.604519
3338.000000	96.590199
3337.000000	96.574170
3336.000000	96.558547
3335.000000	96.544584
3334.000000	96.532404
3333.000000	96.521064
3332.000000	96.509147
3331.000000	96.496132
3330.000000	96.483354
3329.000000	96.473059
3328.000000	96.466167
3327.000000	96.461368
3326.000000	96.456764
3325.000000	96.451784
3324.000000	96.446679
3323.000000	96.440349
3322.000000	96.430080
3321.000000	96.414279
3320.000000	96.395014
3319.000000	96.377009
3318.000000	96.363868
3317.000000	96.355441
3316.000000	96.348867
3315.000000	96.341740
3314.000000	96.334039
3313.000000	96.327235
3312.000000	96.322043
3311.000000	96.317525
3310.000000	96.312479
3309.000000	96.307249
3308.000000	96.303374
3307.000000	96.301072
3306.000000	96.297763
3305.000000	96.290041
3304.000000	96.277206
3303.000000	96.262186
3302.000000	96.248739
3301.000000	96.238343
3300.000000	96.230407
3299.000000	96.224695
3298.000000	96.222170
3297.000000	96.223291
3296.000000	96.226629
3295.000000	96.229828
3294.000000	96.231222
3293.000000	96.229987
3292.000000	96.225661
3291.000000	96.218764
3290.000000	96.211512
3289.000000	96.206413
3288.000000	96.203742
3287.000000	96.201366
3286.000000	96.197466
3285.000000	96.192598
3284.000000	96.188722
3283.000000	96.187187
3282.000000	96.188256
3281.000000	96.191730
3280.000000	96.196902
3279.000000	96.202200
3278.000000	96.206005
3277.000000	96.207868
3276.000000	96.208538
3275.000000	96.209058
3274.000000	96.210319
3273.000000	96.212775
3272.000000	96.215614
3271.000000	96.216648
3270.000000	96.214303
3269.000000	96.209776
3268.000000	96.206033
3267.000000	96.204635
3266.000000	96.204660
3265.000000	96.205154
3264.000000	96.207311
3263.000000	96.213094
3262.000000	96.222341
3261.000000	96.232360
3260.000000	96.240444
3259.000000	96.246207
3258.000000	96.251390
3257.000000	96.257792
3256.000000	96.265505
3255.000000	96.273066
3254.000000	96.279256
3253.000000	96.284396
3252.000000	96.289648
3251.000000	96.295445
3250.000000	96.301322
3249.000000	96.307253
3248.000000	96.314095
3247.000000	96.322240
3246.000000	96.330414
3245.000000	96.336489
3244.000000	96.339446
3243.000000	96.340302
3242.000000	96.341384
3241.000000	96.344899
3240.000000	96.351570
3239.000000	96.360060
3238.000000	96.367861
3237.000000	96.373255
3236.000000	96.376594
3235.000000	96.379733
3234.000000	96.384477
3233.000000	96.391397
3232.000000	96.399507
3231.000000	96.406815
3230.000000	96.411644
3229.000000	96.413889
3228.000000	96.414913
3227.000000	96.416304
3226.000000	96.419171
3225.000000	96.424471
3224.000000	96.432835
3223.000000	96.443303
3222.000000	96.452881
3221.000000	96.458582
3220.000000	96.460092
3219.000000	96.460106
3218.000000	96.461872
3217.000000	96.466778
3216.000000	96.474032
3215.000000	96.481880
3214.000000	96.488858
3213.000000	96.494219
3212.000000	96.497589
3211.000000	96.498710
3210.000000	96.497898
3209.000000	96.496694
3208.000000	96.497297
3207.000000	96.500950
3206.000000	96.507303
3205.000000	96.515721
3204.000000	96.526497
3203.000000	96.539925
3202.000000	96.554462
3201.000000	96.566883
3200.000000	96.574527
3199.000000	96.577119
3198.000000	96.576470
3197.000000	96.575233
3196.000000	96.575938
3195.000000	96.580072
3194.000000	96.587221
3193.000000	96.595481
3192.000000	96.603472
3191.000000	96.611752
3190.000000	96.621418
3189.000000	96.631548
3188.000000	96.639314
3187.000000	96.643484
3186.000000	96.646896
3185.000000	96.654139
3184.000000	96.666558
3183.000000	96.680813
3182.000000	96.692700
3181.000000	96.701418
3180.000000	96.709086
3179.000000	96.717128
3178.000000	96.724647
3177.000000	96.730465
3176.000000	96.735149
3175.000000	96.740236
3174.000000	96.746399
3173.000000	96.753442
3172.000000	96.761523
3171.000000	96.771359
3170.000000	96.783142
3169.000000	96.795965
3168.000000	96.808488
3167.000000	96.819893
3166.000000	96.830116
3165.000000	96.839469
3164.000000	96.848034
3163.000000	96.855299
3162.000000	96.860503
3161.000000	96.863661
3160.000000	96.866344
3159.000000	96.871381
3158.000000	96.881594
3157.000000	96.898295
3156.000000	96.920071
3155.000000	96.942706
3154.000000	96.961099
3153.000000	96.972270
3152.000000	96.976963
3151.000000	96.978385
3150.000000	96.979832
3149.000000	96.983398
3148.000000	96.989961
3147.000000	96.999323
3146.000000	97.010484
3145.000000	97.022330
3144.000000	97.033823
3143.000000	97.043457
3142.000000	97.049605
3141.000000	97.052655
3140.000000	97.056096
3139.000000	97.063733
3138.000000	97.075596
3137.000000	97.087969
3136.000000	97.097572
3135.000000	97.104324
3134.000000	97.109684
3133.000000	97.114339
3132.000000	97.118965
3131.000000	97.125542
3130.000000	97.135447
3129.000000	97.146537
3128.000000	97.154241
3127.000000	97.156242
3126.000000	97.154898
3125.000000	97.154542
3124.000000	97.157612
3123.000000	97.163986
3122.000000	97.172675
3121.000000	97.182479
3120.000000	97.191393
3119.000000	97.197005
3118.000000	97.198309
3117.000000	97.196569
3116.000000	97.193820
3115.000000	97.190858
3114.000000	97.187485
3113.000000	97.184532
3112.000000	97.184512
3111.000000	97.189233
3110.000000	97.196802
3109.000000	97.201980
3108.000000	97.200336
3107.000000	97.192222
3106.000000	97.182523
3105.000000	97.176655
3104.000000	97.176713
3103.000000	97.180735
3102.000000	97.184812
3101.000000	97.185874
3100.000000	97.183350
3099.000000	97.178738
3098.000000	97.173782
3097.000000	97.169017
3096.000000	97.164034
3095.000000	97.158659
3094.000000	97.153459
3093.000000	97.149130
3092.000000	97.145988
3091.000000	97.144051
3090.000000	97.142871
3089.000000	97.141026
3088.000000	97.136639
3087.000000	97.129438
3086.000000	97.122015
3085.000000	97.117993
3084.000000	97.118556
3083.000000	97.121281
3082.000000	97.122617
3081.000000	97.121100
3080.000000	97.118034
3079.000000	97.115556
3078.000000	97.114468
3077.000000	97.113627
3076.000000	97.111060
3075.000000	97.105897
3074.000000	97.099699
3073.000000	97.095742
3072.000000	97.096555
3071.000000	97.101810
3070.000000	97.108460
3069.000000	97.112736
3068.000000	97.112259
3067.000000	97.107211
3066.000000	97.100190
3065.000000	97.094757
3064.000000	97.093284
3063.000000	97.096001
3062.000000	97.102135
3061.000000	97.111505
3060.000000	97.124294
3059.000000	97.139252
3058.000000	97.152949
3057.000000	97.161437
3056.000000	97.163168
3055.000000	97.160561
3054.000000	97.158696
3053.000000	97.161602
3052.000000	97.169067
3051.000000	97.177294
3050.000000	97.183351
3049.000000	97.188814
3048.000000	97.197968
3047.000000	97.212550
3046.000000	97.229508
3045.000000	97.244338
3044.000000	97.255343
3043.000000	97.263941
3042.000000	97.271990
3041.000000	97.280144
3040.000000	97.288351
3039.000000	97.296450
3038.000000	97.303989
3037.000000	97.310317
3036.000000	97.315486
3035.000000	97.320692
3034.000000	97.327435
3033.000000	97.336307
3032.000000	97.346615
3031.000000	97.356894
3030.000000	97.365769
3029.000000	97.372799
3028.000000	97.378825
3027.000000	97.385255
3026.000000	97.392632
3025.000000	97.399939
3024.000000	97.405625
3023.000000	97.409545
3022.000000	97.413633
3021.000000	97.420441
3020.000000	97.430864
3019.000000	97.443511
3018.000000	97.456332
3017.000000	97.468623
3016.000000	97.481068
3015.000000	97.494050
3014.000000	97.506544
3013.000000	97.516988
3012.000000	97.524825
3011.000000	97.530749
3010.000000	97.535689
3009.000000	97.539917
3008.000000	97.543066
3007.000000	97.544544
3006.000000	97.543931
3005.000000	97.541449
3004.000000	97.538241
3003.000000	97.535883
3002.000000	97.535249
3001.000000	97.535914
3000.000000	97.536854
2999.000000	97.537434
2998.000000	97.537286
2997.000000	97.535309
2996.000000	97.529840
2995.000000	97.520700
2994.000000	97.510765
2993.000000	97.504337
2992.000000	97.503437
2991.000000	97.506333
2990.000000	97.509756
2989.000000	97.511502
2988.000000	97.510356
2987.000000	97.505144
2986.000000	97.495858
2985.000000	97.485258
2984.000000	97.477261
2983.000000	97.473083
2982.000000	97.470494
2981.000000	97.467340
2980.000000	97.464306
2979.000000	97.462989
2978.000000	97.462638
2977.000000	97.460617
2976.000000	97.455826
2975.000000	97.450142
2974.000000	97.446241
2973.000000	97.445069
2972.000000	97.445803
2971.000000	97.447495
2970.000000	97.450077
2969.000000	97.453868
2968.000000	97.458379
2967.000000	97.461797
2966.000000	97.462135
2965.000000	97.459147
2964.000000	97.454776
2963.000000	97.451240
2962.000000	97.449144
2961.000000	97.447977
2960.000000	97.447970
2959.000000	97.450330
2958.000000	97.455554
2957.000000	97.462338
2956.000000	97.468539
2955.000000	97.472727
2954.000000	97.474703
2953.000000	97.474934
2952.000000	97.473789
2951.000000	97.471025
2950.000000	97.466118
2949.000000	97.459552
2948.000000	97.453801
2947.000000	97.452293
2946.000000	97.456732
2945.000000	97.465585
2944.000000	97.475343
2943.000000	97.483205
2942.000000	97.488512
2941.000000	97.492353
2940.000000	97.496519
2939.000000	97.502828
2938.000000	97.512599
2937.000000	97.526000
2936.000000	97.541522
2935.000000	97.556168
2934.000000	97.566714
2933.000000	97.571711
2932.000000	97.572950
2931.000000	97.574859
2930.000000	97.581483
2929.000000	97.593210
2928.000000	97.606206
2927.000000	97.615496
2926.000000	97.618752
2925.000000	97.617245
2924.000000	97.613452
2923.000000	97.608465
2922.000000	97.601762
2921.000000	97.592689
2920.000000	97.581393
2919.000000	97.568817
2918.000000	97.556571
2917.000000	97.546766
2916.000000	97.540966
2915.000000	97.539149
2914.000000	97.540114
2913.000000	97.542856
2912.000000	97.546885
2911.000000	97.551294
2910.000000	97.554715
2909.000000	97.556718
2908.000000	97.558459
2907.000000	97.561137
2906.000000	97.564422
2905.000000	97.567201
2904.000000	97.569500
2903.000000	97.572659
2902.000000	97.577443
2901.000000	97.582618
2900.000000	97.586185
2899.000000	97.587416
2898.000000	97.587637
2897.000000	97.588779
2896.000000	97.591360
2895.000000	97.594239
2894.000000	97.596391
2893.000000	97.598303
2892.000000	97.600771
2891.000000	97.602745
2890.000000	97.601581
2889.000000	97.595910
2888.000000	97.587235
2887.000000	97.578179
2886.000000	97.570024
2885.000000	97.562833
2884.000000	97.557131
2883.000000	97.554149
2882.000000	97.554409
2881.000000	97.556852
2880.000000	97.559461
2879.000000	97.560479
2878.000000	97.559468
2877.000000	97.557933
2876.000000	97.558601
2875.000000	97.563313
2874.000000	97.571423
2873.000000	97.580514
2872.000000	97.588364
2871.000000	97.594035
2870.000000	97.597980
2869.000000	97.602133
2868.000000	97.609336
2867.000000	97.621311
2866.000000	97.636886
2865.000000	97.653064
2864.000000	97.668085
2863.000000	97.682886
2862.000000	97.699736
2861.000000	97.720049
2860.000000	97.743397
2859.000000	97.767409
2858.000000	97.788507
2857.000000	97.803809
2856.000000	97.812936
2855.000000	97.817483
2854.000000	97.818471
2853.000000	97.815108
2852.000000	97.806499
2851.000000	97.793848
2850.000000	97.780358
2849.000000	97.769155
2848.000000	97.761354
2847.000000	97.755736
2846.000000	97.750271
2845.000000	97.744473
2844.000000	97.740413
2843.000000	97.740667
2842.000000	97.745101
2841.000000	97.750365
2840.000000	97.753076
2839.000000	97.752895
2838.000000	97.752058
2837.000000	97.752618
2836.000000	97.754798
2835.000000	97.757553
2834.000000	97.759538
2833.000000	97.759507
2832.000000	97.756814
2831.000000	97.752321
2830.000000	97.748511
2829.000000	97.747969
2828.000000	97.751355
2827.000000	97.756884
2826.000000	97.761887
2825.000000	97.764759
2824.000000	97.765499
2823.000000	97.764930
2822.000000	97.764078
2821.000000	97.764124
2820.000000	97.766042
2819.000000	97.769795
2818.000000	97.774393
2817.000000	97.779088
2816.000000	97.783885
2815.000000	97.788425
2814.000000	97.791170
2813.000000	97.790773
2812.000000	97.787968
2811.000000	97.785184
2810.000000	97.784481
2809.000000	97.786652
2808.000000	97.791964
2807.000000	97.800249
2806.000000	97.809947
2805.000000	97.818345
2804.000000	97.823549
2803.000000	97.825616
2802.000000	97.825296
2801.000000	97.822637
2800.000000	97.817649
2799.000000	97.811649
2798.000000	97.806851
2797.000000	97.804663
2796.000000	97.805115
2795.000000	97.807853
2794.000000	97.812892
2793.000000	97.820040
2792.000000	97.828054
2791.000000	97.834972
2790.000000	97.839650
2789.000000	97.842936
2788.000000	97.846827
2787.000000	97.852083
2786.000000	97.856944
2785.000000	97.858893
2784.000000	97.857638
2783.000000	97.855470
2782.000000	97.854485
2781.000000	97.854478
2780.000000	97.854336
2779.000000	97.854624
2778.000000	97.857353
2777.000000	97.863083
2776.000000	97.869472
2775.000000	97.873458
2774.000000	97.874542
2773.000000	97.875245
2772.000000	97.878348
2771.000000	97.884024
2770.000000	97.889864
2769.000000	97.893378
2768.000000	97.894149
2767.000000	97.893669
2766.000000	97.893711
2765.000000	97.895136
2764.000000	97.897744
2763.000000	97.900484
2762.000000	97.901856
2761.000000	97.900928
2760.000000	97.898437
2759.000000	97.896598
2758.000000	97.897446
2757.000000	97.901395
2756.000000	97.907271
2755.000000	97.913320
2754.000000	97.918047
2753.000000	97.920717
2752.000000	97.921755
2751.000000	97.922579
2750.000000	97.924465
2749.000000	97.927384
2748.000000	97.930147
2747.000000	97.931932
2746.000000	97.933431
2745.000000	97.936140
2744.000000	97.940438
2743.000000	97.944698
2742.000000	97.946720
2741.000000	97.946071
2740.000000	97.944611
2739.000000	97.944536
2738.000000	97.946327
2737.000000	97.948974
2736.000000	97.951728
2735.000000	97.954790
2734.000000	97.958326
2733.000000	97.961757
2732.000000	97.964573
2731.000000	97.967222
2730.000000	97.970384
2729.000000	97.973478
2728.000000	97.974738
2727.000000	97.973234
2726.000000	97.970439
2725.000000	97.969363
2724.000000	97.972030
2723.000000	97.977879
2722.000000	97.984400
2721.000000	97.988972
2720.000000	97.990467
2719.000000	97.989976
2718.000000	97.990323
2717.000000	97.993984
2716.000000	98.000577
2715.000000	98.006764
2714.000000	98.009601
2713.000000	98.009792
2712.000000	98.010632
2711.000000	98.013864
2710.000000	98.017925
2709.000000	98.020523
2708.000000	98.021372
2707.000000	98.021551
2706.000000	98.021591
2705.000000	98.021634
2704.000000	98.022449
2703.000000	98.024531
2702.000000	98.026637
2701.000000	98.027016
2700.000000	98.026277
2699.000000	98.027348
2698.000000	98.031903
2697.000000	98.037796
2696.000000	98.040793
2695.000000	98.038531
2694.000000	98.032604
2693.000000	98.027368
2692.000000	98.026794
2691.000000	98.031524
2690.000000	98.038451
2689.000000	98.043584
2688.000000	98.045652
2687.000000	98.046720
2686.000000	98.049308
2685.000000	98.053515
2684.000000	98.057014
2683.000000	98.057351
2682.000000	98.054142
2681.000000	98.049604
2680.000000	98.047084
2679.000000	98.048404
2678.000000	98.052353
2677.000000	98.056013
2676.000000	98.057484
2675.000000	98.056909
2674.000000	98.055364
2673.000000	98.053835
2672.000000	98.053252
2671.000000	98.054165
2670.000000	98.055825
2669.000000	98.056464
2668.000000	98.055110
2667.000000	98.052488
2666.000000	98.049723
2665.000000	98.046997
2664.000000	98.044110
2663.000000	98.041528
2662.000000	98.039895
2661.000000	98.038899
2660.000000	98.037547
2659.000000	98.035566
2658.000000	98.033963
2657.000000	98.034107
2656.000000	98.036605
2655.000000	98.040965
2654.000000	98.046107
2653.000000	98.051214
2652.000000	98.056063
2651.000000	98.060373
2650.000000	98.063203
2649.000000	98.063928
2648.000000	98.063892
2647.000000	98.065792
2646.000000	98.070590
2645.000000	98.075932
2644.000000	98.078905
2643.000000	98.079889
2642.000000	98.082323
2641.000000	98.088544
2640.000000	98.096870
2639.000000	98.103208
2638.000000	98.104919
2637.000000	98.102862
2636.000000	98.100252
2635.000000	98.100012
2634.000000	98.102914
2633.000000	98.107607
2632.000000	98.112065
2631.000000	98.115092
2630.000000	98.116946
2629.000000	98.119172
2628.000000	98.123919
2627.000000	98.132680
2626.000000	98.144905
2625.000000	98.157757
2624.000000	98.167601
2623.000000	98.172160
2622.000000	98.171692
2621.000000	98.168600
2620.000000	98.165893
2619.000000	98.165613
2618.000000	98.168364
2617.000000	98.174038
2616.000000	98.182147
2615.000000	98.190841
2614.000000	98.196695
2613.000000	98.197241
2612.000000	98.193979
2611.000000	98.191267
2610.000000	98.191705
2609.000000	98.194062
2608.000000	98.196285
2607.000000	98.198695
2606.000000	98.202576
2605.000000	98.207172
2604.000000	98.210424
2603.000000	98.212081
2602.000000	98.213780
2601.000000	98.215958
2600.000000	98.217202
2599.000000	98.217334
2598.000000	98.218882
2597.000000	98.223743
2596.000000	98.229764
2595.000000	98.232774
2594.000000	98.231574
2593.000000	98.229385
2592.000000	98.230315
2591.000000	98.235743
2590.000000	98.244010
2589.000000	98.251901
2588.000000	98.256032
2587.000000	98.254880
2586.000000	98.251126
2585.000000	98.250805
2584.000000	98.257996
2583.000000	98.270248
2582.000000	98.280785
2581.000000	98.285135
2580.000000	98.284264
2579.000000	98.281522
2578.000000	98.278882
2577.000000	98.277264
2576.000000	98.278284
2575.000000	98.283305
2574.000000	98.291014
2573.000000	98.297669
2572.000000	98.299927
2571.000000	98.296961
2570.000000	98.290286
2569.000000	98.282543
2568.000000	98.276259
2567.000000	98.272845
2566.000000	98.272442
2565.000000	98.274472
2564.000000	98.277728
2563.000000	98.280229
2562.000000	98.280726
2561.000000	98.280901
2560.000000	98.284386
2559.000000	98.292188
2558.000000	98.300516
2557.000000	98.304470
2556.000000	98.302775
2555.000000	98.297593
2554.000000	98.291541
2553.000000	98.287079
2552.000000	98.287020
2551.000000	98.292222
2550.000000	98.299024
2549.000000	98.302058
2548.000000	98.300023
2547.000000	98.296570
2546.000000	98.295357
2545.000000	98.296730
2544.000000	98.299628
2543.000000	98.304132
2542.000000	98.310857
2541.000000	98.319341
2540.000000	98.327752
2539.000000	98.333258
2538.000000	98.333081
2537.000000	98.327382
2536.000000	98.321218
2535.000000	98.321211
2534.000000	98.329333
2533.000000	98.341470
2532.000000	98.351778
2531.000000	98.356362
2530.000000	98.353108
2529.000000	98.342099
2528.000000	98.328074
2527.000000	98.319347
2526.000000	98.321223
2525.000000	98.331340
2524.000000	98.342922
2523.000000	98.350997
2522.000000	98.354217
2521.000000	98.352753
2520.000000	98.347508
2519.000000	98.341060
2518.000000	98.337306
2517.000000	98.339611
2516.000000	98.349140
2515.000000	98.363575
2514.000000	98.376863
2513.000000	98.382408
2512.000000	98.378740
2511.000000	98.371159
2510.000000	98.366162
2509.000000	98.364938
2508.000000	98.363820
2507.000000	98.360132
2506.000000	98.355429
2505.000000	98.353006
2504.000000	98.354053
2503.000000	98.356966
2502.000000	98.359689
2501.000000	98.362160
2500.000000	98.366126
2499.000000	98.372471
2498.000000	98.379303
2497.000000	98.383918
2496.000000	98.386192
2495.000000	98.387938
2494.000000	98.388585
2493.000000	98.384394
2492.000000	98.374043
2491.000000	98.362940
2490.000000	98.359192
2489.000000	98.365602
2488.000000	98.377586
2487.000000	98.388413
2486.000000	98.394525
2485.000000	98.396160
2484.000000	98.395260
2483.000000	98.393640
2482.000000	98.391843
2481.000000	98.389125
2480.000000	98.385160
2479.000000	98.381538
2478.000000	98.380378
2477.000000	98.381645
2476.000000	98.383175
2475.000000	98.383417
2474.000000	98.382571
2473.000000	98.380822
2472.000000	98.377455
2471.000000	98.372840
2470.000000	98.369631
2469.000000	98.370179
2468.000000	98.373648
2467.000000	98.377534
2466.000000	98.381488
2465.000000	98.387178
2464.000000	98.393992
2463.000000	98.397731
2462.000000	98.395661
2461.000000	98.391287
2460.000000	98.391249
2459.000000	98.397517
2458.000000	98.404949
2457.000000	98.407009
2456.000000	98.401975
2455.000000	98.392884
2454.000000	98.383585
2453.000000	98.376794
2452.000000	98.374287
2451.000000	98.376361
2450.000000	98.380909
2449.000000	98.384565
2448.000000	98.385369
2447.000000	98.384114
2446.000000	98.383354
2445.000000	98.385061
2444.000000	98.388271
2443.000000	98.388932
2442.000000	98.383930
2441.000000	98.375924
2440.000000	98.371919
2439.000000	98.375566
2438.000000	98.383301
2437.000000	98.389943
2436.000000	98.395432
2435.000000	98.402400
2434.000000	98.409271
2433.000000	98.410877
2432.000000	98.406113
2431.000000	98.400690
2430.000000	98.400832
2429.000000	98.407288
2428.000000	98.416444
2427.000000	98.424561
2426.000000	98.429687
2425.000000	98.432015
2424.000000	98.433781
2423.000000	98.437047
2422.000000	98.440858
2421.000000	98.442861
2420.000000	98.443863
2419.000000	98.447369
2418.000000	98.453333
2417.000000	98.455888
2416.000000	98.449912
2415.000000	98.437150
2414.000000	98.423454
2413.000000	98.412299
2412.000000	98.404097
2411.000000	98.399919
2410.000000	98.402007
2409.000000	98.410607
2408.000000	98.422986
2407.000000	98.435970
2406.000000	98.447698
2405.000000	98.457071
2404.000000	98.463167
2403.000000	98.465387
2402.000000	98.463227
2401.000000	98.456638
2400.000000	98.447830
2399.000000	98.441667
2398.000000	98.442055
2397.000000	98.447917
2396.000000	98.454394
2395.000000	98.458009
2394.000000	98.459321
2393.000000	98.460522
2392.000000	98.462126
2391.000000	98.462841
2390.000000	98.461671
2389.000000	98.459402
2388.000000	98.458198
2387.000000	98.459488
2386.000000	98.462193
2385.000000	98.463393
2384.000000	98.461444
2383.000000	98.458062
2382.000000	98.456251
2381.000000	98.456897
2380.000000	98.458277
2379.000000	98.458750
2378.000000	98.458632
2377.000000	98.458925
2376.000000	98.459421
2375.000000	98.458953
2374.000000	98.457252
2373.000000	98.455603
2372.000000	98.455618
2371.000000	98.457635
2370.000000	98.460293
2369.000000	98.461926
2368.000000	98.462438
2367.000000	98.463396
2366.000000	98.465316
2365.000000	98.465407
2364.000000	98.458878
2363.000000	98.442059
2362.000000	98.418358
2361.000000	98.400820
2360.000000	98.400515
2359.000000	98.418443
2358.000000	98.444682
2357.000000	98.462557
2356.000000	98.465051
2355.000000	98.451906
2354.000000	98.432524
2353.000000	98.420811
2352.000000	98.428722
2351.000000	98.452688
2350.000000	98.472468
2349.000000	98.471951
2348.000000	98.449249
2347.000000	98.418511
2346.000000	98.399916
2345.000000	98.400924
2344.000000	98.412211
2343.000000	98.415974
2342.000000	98.410683
2341.000000	98.403700
2340.000000	98.399417
2339.000000	98.398427
2338.000000	98.399560
2337.000000	98.401390
2336.000000	98.399815
2335.000000	98.394805
2334.000000	98.388695
2333.000000	98.387527
2332.000000	98.390286
2331.000000	98.396456
2330.000000	98.399465
2329.000000	98.399856
2328.000000	98.389839
2327.000000	98.364195
2326.000000	98.322631
2325.000000	98.280129
2324.000000	98.257868
2323.000000	98.266271
2322.000000	98.297115
2321.000000	98.332367
2320.000000	98.357099
2319.000000	98.369509
2318.000000	98.371471
2317.000000	98.370209
2316.000000	98.369526
2315.000000	98.376187
2314.000000	98.389497
2313.000000	98.406595
2312.000000	98.418454
2311.000000	98.422084
2310.000000	98.418634
2309.000000	98.416638
2308.000000	98.420412
2307.000000	98.429030
2306.000000	98.436000
2305.000000	98.438626
2304.000000	98.437971
2303.000000	98.436775
2302.000000	98.433574
2301.000000	98.427744
2300.000000	98.419949
2299.000000	98.414951
2298.000000	98.414434
2297.000000	98.418140
2296.000000	98.420644
2295.000000	98.416767
2294.000000	98.403991
2293.000000	98.388384
2292.000000	98.379954
2291.000000	98.383476
2290.000000	98.392612
2289.000000	98.396211
2288.000000	98.389003
2287.000000	98.373994
2286.000000	98.358348
2285.000000	98.348268
2284.000000	98.347482
2283.000000	98.354479
2282.000000	98.363828
2281.000000	98.371453
2280.000000	98.379550
2279.000000	98.392289
2278.000000	98.409328
2277.000000	98.426491
2276.000000	98.440775
2275.000000	98.450816
2274.000000	98.453420
2273.000000	98.446481
2272.000000	98.433951
2271.000000	98.423841
2270.000000	98.420874
2269.000000	98.425779
2268.000000	98.439143
2267.000000	98.459276
2266.000000	98.476759
2265.000000	98.480247
2264.000000	98.469659
2263.000000	98.457675
2262.000000	98.455506
2261.000000	98.463364
2260.000000	98.477028
2259.000000	98.495102
2258.000000	98.515377
2257.000000	98.529131
2256.000000	98.527263
2255.000000	98.510637
2254.000000	98.489685
2253.000000	98.475103
2252.000000	98.470937
2251.000000	98.475503
2250.000000	98.484306
2249.000000	98.493133
2248.000000	98.500336
2247.000000	98.507317
2246.000000	98.516298
2245.000000	98.528443
2244.000000	98.543514
2243.000000	98.559270
2242.000000	98.570402
2241.000000	98.570384
2240.000000	98.556454
2239.000000	98.533042
2238.000000	98.510361
2237.000000	98.498501
2236.000000	98.499759
2235.000000	98.505877
2234.000000	98.506852
2233.000000	98.503858
2232.000000	98.508425
2231.000000	98.525588
2230.000000	98.543863
2229.000000	98.547748
2228.000000	98.534924
2227.000000	98.514115
2226.000000	98.491401
2225.000000	98.468709
2224.000000	98.452060
2223.000000	98.448842
2222.000000	98.456424
2221.000000	98.463479
2220.000000	98.464702
2219.000000	98.466273
2218.000000	98.475227
2217.000000	98.490925
2216.000000	98.507949
2215.000000	98.520486
2214.000000	98.523280
2213.000000	98.515660
2212.000000	98.505159
2211.000000	98.499998
2210.000000	98.498615
2209.000000	98.494327
2208.000000	98.488421
2207.000000	98.489096
2206.000000	98.498097
2205.000000	98.508746
2204.000000	98.516904
2203.000000	98.523050
2202.000000	98.523586
2201.000000	98.512612
2200.000000	98.494328
2199.000000	98.481467
2198.000000	98.479782
2197.000000	98.485838
2196.000000	98.500447
2195.000000	98.528195
2194.000000	98.559596
2193.000000	98.570930
2192.000000	98.551948
2191.000000	98.520249
2190.000000	98.498062
2189.000000	98.489264
2188.000000	98.489286
2187.000000	98.503492
2186.000000	98.538533
2185.000000	98.583175
2184.000000	98.615307
2183.000000	98.626280
2182.000000	98.625194
2181.000000	98.621727
2180.000000	98.617739
2179.000000	98.614408
2178.000000	98.616483
2177.000000	98.627264
2176.000000	98.644497
2175.000000	98.660286
2174.000000	98.662435
2173.000000	98.641340
2172.000000	98.601892
2171.000000	98.564678
2170.000000	98.549577
2169.000000	98.557335
2168.000000	98.568083
2167.000000	98.557568
2166.000000	98.516233
2165.000000	98.458245
2164.000000	98.414687
2163.000000	98.412774
2162.000000	98.461850
2161.000000	98.559379
2160.000000	98.699074
2159.000000	98.858386
2158.000000	98.984973
2157.000000	99.030213
2156.000000	99.002443
2155.000000	98.956793
2154.000000	98.933544
2153.000000	98.925203
2152.000000	98.900827
2151.000000	98.847859
2150.000000	98.784638
2149.000000	98.739036
2148.000000	98.722272
2147.000000	98.723190
2146.000000	98.723568
2145.000000	98.714849
2144.000000	98.698746
2143.000000	98.678091
2142.000000	98.657611
2141.000000	98.652890
2140.000000	98.682327
2139.000000	98.740675
2138.000000	98.792298
2137.000000	98.804649
2136.000000	98.782958
2135.000000	98.757982
2134.000000	98.744441
2133.000000	98.731593
2132.000000	98.711759
2131.000000	98.696542
2130.000000	98.698135
2129.000000	98.709719
2128.000000	98.713701
2127.000000	98.702229
2126.000000	98.682013
2125.000000	98.662613
2124.000000	98.646607
2123.000000	98.631183
2122.000000	98.615409
2121.000000	98.603615
2120.000000	98.600197
2119.000000	98.601708
2118.000000	98.598586
2117.000000	98.587061
2116.000000	98.574993
2115.000000	98.571058
2114.000000	98.573252
2113.000000	98.574586
2112.000000	98.574989
2111.000000	98.577334
2110.000000	98.575363
2109.000000	98.559802
2108.000000	98.537410
2107.000000	98.529530
2106.000000	98.545343
2105.000000	98.567617
2104.000000	98.572516
2103.000000	98.555283
2102.000000	98.529709
2101.000000	98.509885
2100.000000	98.501578
2099.000000	98.505827
2098.000000	98.520964
2097.000000	98.540983
2096.000000	98.557868
2095.000000	98.566875
2094.000000	98.568279
2093.000000	98.566351
2092.000000	98.567758
2091.000000	98.577236
2090.000000	98.592709
2089.000000	98.606929
2088.000000	98.614012
2087.000000	98.611344
2086.000000	98.596896
2085.000000	98.571949
2084.000000	98.545902
2083.000000	98.530037
2082.000000	98.524939
2081.000000	98.522205
2080.000000	98.520228
2079.000000	98.528615
2078.000000	98.551986
2077.000000	98.578265
2076.000000	98.591341
2075.000000	98.589554
2074.000000	98.584434
2073.000000	98.584674
2072.000000	98.587101
2071.000000	98.581530
2070.000000	98.561326
2069.000000	98.532737
2068.000000	98.515184
2067.000000	98.526212
2066.000000	98.563547
2065.000000	98.605685
2064.000000	98.632400
2063.000000	98.640270
2062.000000	98.637527
2061.000000	98.634059
2060.000000	98.637829
2059.000000	98.649066
2058.000000	98.654920
2057.000000	98.640786
2056.000000	98.610113
2055.000000	98.581414
2054.000000	98.562365
2053.000000	98.542126
2052.000000	98.515669
2051.000000	98.499066
2050.000000	98.508342
2049.000000	98.533957
2048.000000	98.553011
2047.000000	98.562726
2046.000000	98.581479
2045.000000	98.619295
2044.000000	98.666647
2043.000000	98.710552
2042.000000	98.744913
2041.000000	98.766399
2040.000000	98.773683
2039.000000	98.769726
2038.000000	98.757063
2037.000000	98.736772
2036.000000	98.717587
2035.000000	98.714590
2034.000000	98.729338
2033.000000	98.744656
2032.000000	98.751005
2031.000000	98.760350
2030.000000	98.775738
2029.000000	98.766748
2028.000000	98.703150
2027.000000	98.606569
2026.000000	98.543225
2025.000000	98.564049
2024.000000	98.662252
2023.000000	98.787997
2022.000000	98.889322
2021.000000	98.938183
2020.000000	98.937203
2019.000000	98.910139
2018.000000	98.882806
2017.000000	98.872147
2016.000000	98.886328
2015.000000	98.922371
2014.000000	98.959379
2013.000000	98.965320
2012.000000	98.923433
2011.000000	98.850013
2010.000000	98.780985
2009.000000	98.748638
2008.000000	98.769657
2007.000000	98.838452
2006.000000	98.922284
2005.000000	98.973841
2004.000000	98.965565
2003.000000	98.909407
2002.000000	98.837453
2001.000000	98.772885
2000.000000	98.722202
1999.000000	98.684376
1998.000000	98.660689
1997.000000	98.656399
1996.000000	98.676725
1995.000000	98.721713
1994.000000	98.782920
1993.000000	98.843041
1992.000000	98.880303
1991.000000	98.877022
1990.000000	98.828551
1989.000000	98.752051
1988.000000	98.685500
1987.000000	98.662967
1986.000000	98.682944
1985.000000	98.708301
1984.000000	98.703919
1983.000000	98.670944
1982.000000	98.640875
1981.000000	98.643547
1980.000000	98.684950
1979.000000	98.748131
1978.000000	98.810351
1977.000000	98.859345
1976.000000	98.895256
1975.000000	98.917732
1974.000000	98.920564
1973.000000	98.905974
1972.000000	98.892135
1971.000000	98.892851
1970.000000	98.898957
1969.000000	98.894072
1968.000000	98.881358
1967.000000	98.878178
1966.000000	98.887451
1965.000000	98.894197
1964.000000	98.889768
1963.000000	98.879978
1962.000000	98.870850
1961.000000	98.864007
1960.000000	98.864285
1959.000000	98.873680
1958.000000	98.877530
1957.000000	98.856222
1956.000000	98.814583
1955.000000	98.782088
1954.000000	98.778317
1953.000000	98.792293
1952.000000	98.801824
1951.000000	98.801552
1950.000000	98.801545
1949.000000	98.808557
1948.000000	98.819093
1947.000000	98.825705
1946.000000	98.822722
1945.000000	98.809722
1944.000000	98.794950
1943.000000	98.791499
1942.000000	98.803530
1941.000000	98.819783
1940.000000	98.825950
1939.000000	98.817006
1938.000000	98.796192
1937.000000	98.770532
1936.000000	98.748066
1935.000000	98.734536
1934.000000	98.731948
1933.000000	98.741260
1932.000000	98.763561
1931.000000	98.795400
1930.000000	98.824601
1929.000000	98.839225
1928.000000	98.840272
1927.000000	98.836965
1926.000000	98.832973
1925.000000	98.824997
1924.000000	98.816119
1923.000000	98.816956
1922.000000	98.828291
1921.000000	98.835333
1920.000000	98.825684
1919.000000	98.802463
1918.000000	98.778624
1917.000000	98.763626
1916.000000	98.759022
1915.000000	98.761945
1914.000000	98.766886
1913.000000	98.767306
1912.000000	98.761864
1911.000000	98.757925
1910.000000	98.764529
1909.000000	98.783922
1908.000000	98.810766
1907.000000	98.835576
1906.000000	98.848388
1905.000000	98.842563
1904.000000	98.821714
1903.000000	98.797284
1902.000000	98.777335
1901.000000	98.763563
1900.000000	98.757720
1899.000000	98.762787
1898.000000	98.777214
1897.000000	98.792414
1896.000000	98.800762
1895.000000	98.802418
1894.000000	98.801717
1893.000000	98.801488
1892.000000	98.802862
1891.000000	98.805915
1890.000000	98.809372
1889.000000	98.813146
1888.000000	98.820914
1887.000000	98.834303
1886.000000	98.846672
1885.000000	98.849327
1884.000000	98.843141
1883.000000	98.837295
1882.000000	98.835348
1881.000000	98.832340
1880.000000	98.826020
1879.000000	98.820864
1878.000000	98.819873
1877.000000	98.819462
1876.000000	98.816057
1875.000000	98.812219
1874.000000	98.811946
1873.000000	98.815408
1872.000000	98.821794
1871.000000	98.831416
1870.000000	98.841018
1869.000000	98.842146
1868.000000	98.832399
1867.000000	98.821745
1866.000000	98.818295
1865.000000	98.820570
1864.000000	98.824750
1863.000000	98.829945
1862.000000	98.835336
1861.000000	98.837684
1860.000000	98.835730
1859.000000	98.833189
1858.000000	98.833751
1857.000000	98.836037
1856.000000	98.835873
1855.000000	98.831008
1854.000000	98.823132
1853.000000	98.817970
1852.000000	98.822495
1851.000000	98.835637
1850.000000	98.848097
1849.000000	98.853017
1848.000000	98.855207
1847.000000	98.863787
1846.000000	98.877639
1845.000000	98.884904
1844.000000	98.878618
1843.000000	98.868621
1842.000000	98.866258
1841.000000	98.870149
1840.000000	98.873843
1839.000000	98.874171
1838.000000	98.871650
1837.000000	98.867906
1836.000000	98.866255
1835.000000	98.869158
1834.000000	98.874354
1833.000000	98.877496
1832.000000	98.877251
1831.000000	98.874813
1830.000000	98.871930
1829.000000	98.868960
1828.000000	98.866956
1827.000000	98.867557
1826.000000	98.869694
1825.000000	98.870009
1824.000000	98.867941
1823.000000	98.867566
1822.000000	98.871188
1821.000000	98.877055
1820.000000	98.883292
1819.000000	98.891105
1818.000000	98.902766
1817.000000	98.917134
1816.000000	98.930765
1815.000000	98.939350
1814.000000	98.937766
1813.000000	98.925282
1812.000000	98.910265
1811.000000	98.905514
1810.000000	98.911386
1809.000000	98.913292
1808.000000	98.903378
1807.000000	98.890368
1806.000000	98.884741
1805.000000	98.885894
1804.000000	98.887631
1803.000000	98.888159
1802.000000	98.889246
1801.000000	98.892234
1800.000000	98.896842
1799.000000	98.903948
1798.000000	98.911998
1797.000000	98.917048
1796.000000	98.918996
1795.000000	98.922559
1794.000000	98.930697
1793.000000	98.940587
1792.000000	98.945458
1791.000000	98.943279
1790.000000	98.936240
1789.000000	98.926644
1788.000000	98.918526
1787.000000	98.916026
1786.000000	98.918307
1785.000000	98.920596
1784.000000	98.921963
1783.000000	98.924721
1782.000000	98.926389
1781.000000	98.924387
1780.000000	98.921276
1779.000000	98.923071
1778.000000	98.929539
1777.000000	98.935522
1776.000000	98.939486
1775.000000	98.943180
1774.000000	98.947223
1773.000000	98.950331
1772.000000	98.952094
1771.000000	98.954150
1770.000000	98.955201
1769.000000	98.951818
1768.000000	98.947943
1767.000000	98.951608
1766.000000	98.961359
1765.000000	98.968061
1764.000000	98.968543
1763.000000	98.971376
1762.000000	98.985241
1761.000000	99.005320
1760.000000	99.018636
1759.000000	99.021683
1758.000000	99.017190
1757.000000	99.010298
1756.000000	99.007501
1755.000000	99.011221
1754.000000	99.018161
1753.000000	99.024649
1752.000000	99.032238
1751.000000	99.043783
1750.000000	99.057182
1749.000000	99.066051
1748.000000	99.070142
1747.000000	99.074083
1746.000000	99.079066
1745.000000	99.082985
1744.000000	99.085185
1743.000000	99.089450
1742.000000	99.096290
1741.000000	99.099356
1740.000000	99.095627
1739.000000	99.093260
1738.000000	99.096381
1737.000000	99.095326
1736.000000	99.080854
1735.000000	99.058614
1734.000000	99.042169
1733.000000	99.036043
1732.000000	99.037977
1731.000000	99.045869
1730.000000	99.054580
1729.000000	99.057851
1728.000000	99.053948
1727.000000	99.046629
1726.000000	99.040113
1725.000000	99.035229
1724.000000	99.031793
1723.000000	99.034250
1722.000000	99.042523
1721.000000	99.045696
1720.000000	99.033891
1719.000000	99.014478
1718.000000	99.008530
1717.000000	99.015741
1716.000000	99.016070
1715.000000	99.008785
1714.000000	98.997423
1713.000000	98.976463
1712.000000	98.945624
1711.000000	98.913888
1710.000000	98.887126
1709.000000	98.861369
1708.000000	98.828856
1707.000000	98.783850
1706.000000	98.722969
1705.000000	98.646677
1704.000000	98.566360
1703.000000	98.489543
1702.000000	98.405567
1701.000000	98.293762
1700.000000	98.164083
1699.000000	98.065467
1698.000000	97.992018
1697.000000	97.893466
1696.000000	97.757479
1695.000000	97.632470
1694.000000	97.548235
1693.000000	97.474537
1692.000000	97.378638
1691.000000	97.261284
1690.000000	97.141895
1689.000000	97.032685
1688.000000	96.932027
1687.000000	96.832804
1686.000000	96.726923
1685.000000	96.596656
1684.000000	96.445242
1683.000000	96.318229
1682.000000	96.215926
1681.000000	96.103353
1680.000000	95.974787
1679.000000	95.851022
1678.000000	95.741533
1677.000000	95.628866
1676.000000	95.493131
1675.000000	95.343463
1674.000000	95.206658
1673.000000	95.085606
1672.000000	94.962360
1671.000000	94.827237
1670.000000	94.679147
1669.000000	94.520314
1668.000000	94.362948
1667.000000	94.222432
1666.000000	94.098140
1665.000000	93.972921
1664.000000	93.832479
1663.000000	93.686131
1662.000000	93.555568
1661.000000	93.442746
1660.000000	93.332815
1659.000000	93.220220
1658.000000	93.110613
1657.000000	93.006005
1656.000000	92.899185
1655.000000	92.783482
1654.000000	92.661058
1653.000000	92.547297
1652.000000	92.465272
1651.000000	92.419974
1650.000000	92.388906
1649.000000	92.339493
1648.000000	92.263209
1647.000000	92.183485
1646.000000	92.124513
1645.000000	92.074869
1644.000000	92.020727
1643.000000	91.965382
1642.000000	91.912198
1641.000000	91.860530
1640.000000	91.809095
1639.000000	91.758755
1638.000000	91.711370
1637.000000	91.669129
1636.000000	91.640726
1635.000000	91.631293
1634.000000	91.628700
1633.000000	91.618898
1632.000000	91.601964
1631.000000	91.588652
1630.000000	91.590664
1629.000000	91.611467
1628.000000	91.647255
1627.000000	91.692304
1626.000000	91.742263
1625.000000	91.800629
1624.000000	91.880153
1623.000000	91.989914
1622.000000	92.111256
1621.000000	92.214978
1620.000000	92.293554
1619.000000	92.361706
1618.000000	92.451282
1617.000000	92.591718
1616.000000	92.767966
1615.000000	92.931434
1614.000000	93.064232
1613.000000	93.180974
1612.000000	93.301087
1611.000000	93.432431
1610.000000	93.568503
1609.000000	93.703047
1608.000000	93.837043
1607.000000	93.969059
1606.000000	94.092037
1605.000000	94.206106
1604.000000	94.318346
1603.000000	94.431714
1602.000000	94.543113
1601.000000	94.650741
1600.000000	94.754400
1599.000000	94.849151
1598.000000	94.929010
1597.000000	94.996417
1596.000000	95.059720
1595.000000	95.121738
1594.000000	95.178392
1593.000000	95.228562
1592.000000	95.275045
1591.000000	95.316560
1590.000000	95.348583
1589.000000	95.372662
1588.000000	95.394020
1587.000000	95.410790
1586.000000	95.416161
1585.000000	95.410695
1584.000000	95.402495
1583.000000	95.391509
1582.000000	95.371033
1581.000000	95.340825
1580.000000	95.305040
1579.000000	95.258789
1578.000000	95.195075
1577.000000	95.123730
1576.000000	95.071106
1575.000000	95.043548
1574.000000	95.019403
1573.000000	94.983755
1572.000000	94.933686
1571.000000	94.869317
1570.000000	94.790524
1569.000000	94.708095
1568.000000	94.635719
1567.000000	94.567151
1566.000000	94.490155
1565.000000	94.405626
1564.000000	94.326613
1563.000000	94.255262
1562.000000	94.180402
1561.000000	94.093588
1560.000000	93.992241
1559.000000	93.886670
1558.000000	93.802902
1557.000000	93.731804
1556.000000	93.658499
1555.000000	93.579969
1554.000000	93.500855
1553.000000	93.427901
1552.000000	93.359637
1551.000000	93.291867
1550.000000	93.228528
1549.000000	93.176112
1548.000000	93.133310
1547.000000	93.091943
1546.000000	93.047363
1545.000000	93.001976
1544.000000	92.961014
1543.000000	92.923724
1542.000000	92.886476
1541.000000	92.852801
1540.000000	92.839644
1539.000000	92.847594
1538.000000	92.856656
1537.000000	92.859236
1536.000000	92.853810
1535.000000	92.846209
1534.000000	92.852952
1533.000000	92.882425
1532.000000	92.916492
1531.000000	92.940333
1530.000000	92.957516
1529.000000	92.975108
1528.000000	92.997831
1527.000000	93.030524
1526.000000	93.072408
1525.000000	93.110757
1524.000000	93.132067
1523.000000	93.142585
1522.000000	93.172181
1521.000000	93.239332
1520.000000	93.316976
1519.000000	93.378650
1518.000000	93.430219
1517.000000	93.489196
1516.000000	93.558389
1515.000000	93.624936
1514.000000	93.685318
1513.000000	93.747531
1512.000000	93.813765
1511.000000	93.877048
1510.000000	93.930299
1509.000000	93.979730
1508.000000	94.056749
1507.000000	94.207618
1506.000000	94.396528
1505.000000	94.529561
1504.000000	94.608000
1503.000000	94.669887
1502.000000	94.736680
1501.000000	94.817975
1500.000000	94.911719
1499.000000	95.010121
1498.000000	95.114690
1497.000000	95.228947
1496.000000	95.341743
1495.000000	95.440668
1494.000000	95.525783
1493.000000	95.600965
1492.000000	95.672034
1491.000000	95.751124
1490.000000	95.845411
1489.000000	95.937857
1488.000000	96.006444
1487.000000	96.055669
1486.000000	96.096784
1485.000000	96.128876
1484.000000	96.150043
1483.000000	96.164359
1482.000000	96.178613
1481.000000	96.190619
1480.000000	96.193064
1479.000000	96.185923
1478.000000	96.174377
1477.000000	96.157688
1476.000000	96.129756
1475.000000	96.091548
1474.000000	96.050946
1473.000000	96.015206
1472.000000	95.984862
1471.000000	95.956888
1470.000000	95.927379
1469.000000	95.892267
1468.000000	95.850281
1467.000000	95.804883
1466.000000	95.759017
1465.000000	95.712935
1464.000000	95.666082
1463.000000	95.619380
1462.000000	95.573983
1461.000000	95.527182
1460.000000	95.475097
1459.000000	95.416180
1458.000000	95.352650
1457.000000	95.286039
1456.000000	95.218943
1455.000000	95.158903
1454.000000	95.106180
1453.000000	95.056878
1452.000000	95.015351
1451.000000	94.989195
1450.000000	94.978088
1449.000000	94.976760
1448.000000	94.982582
1447.000000	94.994157
1446.000000	95.006152
1445.000000	95.017115
1444.000000	95.029864
1443.000000	95.047432
1442.000000	95.069438
1441.000000	95.091804
1440.000000	95.109579
1439.000000	95.121717
1438.000000	95.139189
1437.000000	95.180673
1436.000000	95.247864
1435.000000	95.313992
1434.000000	95.362870
1433.000000	95.400403
1432.000000	95.438175
1431.000000	95.481620
1430.000000	95.528586
1429.000000	95.573442
1428.000000	95.610607
1427.000000	95.637600
1426.000000	95.656072
1425.000000	95.673596
1424.000000	95.694932
1423.000000	95.713575
1422.000000	95.720736
1421.000000	95.717420
1420.000000	95.714262
1419.000000	95.721731
1418.000000	95.739270
1417.000000	95.754436
1416.000000	95.757812
1415.000000	95.749610
1414.000000	95.734461
1413.000000	95.715975
1412.000000	95.695459
1411.000000	95.673988
1410.000000	95.653418
1409.000000	95.633504
1408.000000	95.612471
1407.000000	95.592116
1406.000000	95.577395
1405.000000	95.573145
1404.000000	95.577624
1403.000000	95.583531
1402.000000	95.587332
1401.000000	95.592105
1400.000000	95.603537
1399.000000	95.621962
1398.000000	95.640552
1397.000000	95.655143
1396.000000	95.671017
1395.000000	95.694788
1394.000000	95.722795
1393.000000	95.746122
1392.000000	95.761717
1391.000000	95.773240
1390.000000	95.785035
1389.000000	95.799949
1388.000000	95.819719
1387.000000	95.843569
1386.000000	95.866595
1385.000000	95.884658
1384.000000	95.898747
1383.000000	95.913334
1382.000000	95.932627
1381.000000	95.957592
1380.000000	95.987089
1379.000000	96.018066
1378.000000	96.045608
1377.000000	96.067348
1376.000000	96.088116
1375.000000	96.116476
1374.000000	96.154241
1373.000000	96.192407
1372.000000	96.222201
1371.000000	96.245636
1370.000000	96.270668
1369.000000	96.304549
1368.000000	96.348193
1367.000000	96.395359
1366.000000	96.438593
1365.000000	96.474525
1364.000000	96.504717
1363.000000	96.533697
1362.000000	96.564131
1361.000000	96.593764
1360.000000	96.618449
1359.000000	96.635563
1358.000000	96.644276
1357.000000	96.645684
1356.000000	96.642023
1355.000000	96.635080
1354.000000	96.625345
1353.000000	96.612278
1352.000000	96.595317
1351.000000	96.574853
1350.000000	96.550743
1349.000000	96.523692
1348.000000	96.494920
1347.000000	96.465178
1346.000000	96.433971
1345.000000	96.400386
1344.000000	96.363912
1343.000000	96.324780
1342.000000	96.284044
1341.000000	96.243735
1340.000000	96.206062
1339.000000	96.171704
1338.000000	96.141253
1337.000000	96.118262
1336.000000	96.107205
1335.000000	96.108211
1334.000000	96.115923
1333.000000	96.125336
1332.000000	96.136581
1331.000000	96.151924
1330.000000	96.170593
1329.000000	96.190398
1328.000000	96.212627
1327.000000	96.240312
1326.000000	96.271498
1325.000000	96.299332
1324.000000	96.318427
1323.000000	96.329361
1322.000000	96.336363
1321.000000	96.342785
1320.000000	96.349775
1319.000000	96.357754
1318.000000	96.367420
1317.000000	96.379281
1316.000000	96.393456
1315.000000	96.409979
1314.000000	96.428771
1313.000000	96.449113
1312.000000	96.469529
1311.000000	96.488712
1310.000000	96.506855
1309.000000	96.525664
1308.000000	96.546378
1307.000000	96.567870
1306.000000	96.586886
1305.000000	96.601464
1304.000000	96.612773
1303.000000	96.623838
1302.000000	96.636836
1301.000000	96.651582
1300.000000	96.665768
1299.000000	96.676876
1298.000000	96.684726
1297.000000	96.691988
1296.000000	96.700975
1295.000000	96.709168
1294.000000	96.709913
1293.000000	96.698461
1292.000000	96.676404
1291.000000	96.649821
1290.000000	96.623893
1289.000000	96.600602
1288.000000	96.580103
1287.000000	96.561540
1286.000000	96.542573
1285.000000	96.520706
1284.000000	96.496459
1283.000000	96.473899
1282.000000	96.456971
1281.000000	96.445885
1280.000000	96.438307
1279.000000	96.432810
1278.000000	96.430277
1277.000000	96.432066
1276.000000	96.437201
1275.000000	96.441602
1274.000000	96.440950
1273.000000	96.435054
1272.000000	96.428403
1271.000000	96.424839
1270.000000	96.422495
1269.000000	96.416318
1268.000000	96.404978
1267.000000	96.392440
1266.000000	96.382608
1265.000000	96.374721
1264.000000	96.365262
1263.000000	96.352150
1262.000000	96.335049
1261.000000	96.313159
1260.000000	96.285221
1259.000000	96.251601
1258.000000	96.215159
1257.000000	96.179231
1256.000000	96.145355
1255.000000	96.112519
1254.000000	96.078396
1253.000000	96.041751
1252.000000	96.003401
1251.000000	95.964240
1250.000000	95.923184
1249.000000	95.878608
1248.000000	95.831050
1247.000000	95.781994
1246.000000	95.730826
1245.000000	95.676044
1244.000000	95.620008
1243.000000	95.569204
1242.000000	95.528309
1241.000000	95.496425
1240.000000	95.470163
1239.000000	95.447506
1238.000000	95.427384
1237.000000	95.409424
1236.000000	95.395977
1235.000000	95.391759
1234.000000	95.399464
1233.000000	95.417111
1232.000000	95.441625
1231.000000	95.472278
1230.000000	95.509287
1229.000000	95.551865
1228.000000	95.598988
1227.000000	95.650930
1226.000000	95.708314
1225.000000	95.770940
1224.000000	95.838341
1223.000000	95.909362
1222.000000	95.980728
1221.000000	96.047808
1220.000000	96.107817
1219.000000	96.161050
1218.000000	96.208930
1217.000000	96.252355
1216.000000	96.292221
1215.000000	96.329582
1214.000000	96.363378
1213.000000	96.389975
1212.000000	96.406246
1211.000000	96.412459
1210.000000	96.411176
1209.000000	96.403642
1208.000000	96.389550
1207.000000	96.369866
1206.000000	96.348276
1205.000000	96.329623
1204.000000	96.317613
1203.000000	96.313747
1202.000000	96.317252
1201.000000	96.326333
1200.000000	96.339983
1199.000000	96.359008
1198.000000	96.385004
1197.000000	96.418825
1196.000000	96.459944
1195.000000	96.505936
1194.000000	96.553210
1193.000000	96.599356
1192.000000	96.644869
1191.000000	96.691556
1190.000000	96.739233
1189.000000	96.785448
1188.000000	96.828323
1187.000000	96.868163
1186.000000	96.905816
1185.000000	96.941141
1184.000000	96.973772
1183.000000	97.004194
1182.000000	97.032990
1181.000000	97.059319
1180.000000	97.081283
1179.000000	97.097265
1178.000000	97.106877
1177.000000	97.111738
1176.000000	97.115661
1175.000000	97.122812
1174.000000	97.133993
1173.000000	97.145544
1172.000000	97.153279
1171.000000	97.156474
1170.000000	97.156932
1169.000000	97.155136
1168.000000	97.149259
1167.000000	97.137961
1166.000000	97.122605
1165.000000	97.106904
1164.000000	97.095504
1163.000000	97.092363
1162.000000	97.098417
1161.000000	97.110847
1160.000000	97.125832
1159.000000	97.141916
1158.000000	97.160081
1157.000000	97.181029
1156.000000	97.204210
1155.000000	97.228923
1154.000000	97.254815
1153.000000	97.281429
1152.000000	97.308473
1151.000000	97.336434
1150.000000	97.365532
1149.000000	97.394467
1148.000000	97.421971
1147.000000	97.449194
1146.000000	97.478185
1145.000000	97.507576
1144.000000	97.532332
1143.000000	97.549106
1142.000000	97.560478
1141.000000	97.572464
1140.000000	97.588919
1139.000000	97.609369
1138.000000	97.630630
1137.000000	97.649399
1136.000000	97.664320
1135.000000	97.676815
1134.000000	97.689057
1133.000000	97.700394
1132.000000	97.707661
1131.000000	97.710099
1130.000000	97.711461
1129.000000	97.715030
1128.000000	97.718534
1127.000000	97.717597
1126.000000	97.713189
1125.000000	97.711577
1124.000000	97.716322
1123.000000	97.723537
1122.000000	97.726851
1121.000000	97.725220
1120.000000	97.723758
1119.000000	97.727394
1118.000000	97.734999
1117.000000	97.740039
1116.000000	97.736835
1115.000000	97.726198
1114.000000	97.714772
1113.000000	97.708638
1112.000000	97.708305
1111.000000	97.710378
1110.000000	97.712512
1109.000000	97.715049
1108.000000	97.717917
1107.000000	97.718422
1106.000000	97.713202
1105.000000	97.701782
1104.000000	97.687697
1103.000000	97.676255
1102.000000	97.670890
1101.000000	97.671095
1100.000000	97.673297
1099.000000	97.674499
1098.000000	97.673508
1097.000000	97.669836
1096.000000	97.662906
1095.000000	97.653073
1094.000000	97.641538
1093.000000	97.627546
1092.000000	97.607131
1091.000000	97.577180
1090.000000	97.539379
1089.000000	97.497923
1088.000000	97.454059
1087.000000	97.406086
1086.000000	97.354762
1085.000000	97.305253
1084.000000	97.262422
1083.000000	97.226557
1082.000000	97.196404
1081.000000	97.174665
1080.000000	97.167909
1079.000000	97.179704
1078.000000	97.205619
1077.000000	97.236965
1076.000000	97.267827
1075.000000	97.297714
1074.000000	97.328105
1073.000000	97.358631
1072.000000	97.387236
1071.000000	97.412313
1070.000000	97.433095
1069.000000	97.448106
1068.000000	97.455298
1067.000000	97.454970
1066.000000	97.451789
1065.000000	97.451786
1064.000000	97.457133
1063.000000	97.465342
1062.000000	97.473540
1061.000000	97.481942
1060.000000	97.492283
1059.000000	97.504335
1058.000000	97.515552
1057.000000	97.523358
1056.000000	97.526644
1055.000000	97.525922
1054.000000	97.523452
1053.000000	97.522516
1052.000000	97.524542
1051.000000	97.526837
1050.000000	97.524658
1049.000000	97.516017
1048.000000	97.503621
1047.000000	97.492426
1046.000000	97.486283
1045.000000	97.486290
1044.000000	97.490287
1043.000000	97.493661
1042.000000	97.492446
1041.000000	97.486704
1040.000000	97.479675
1039.000000	97.472929
1038.000000	97.463632
1037.000000	97.447114
1036.000000	97.421319
1035.000000	97.388370
1034.000000	97.353440
1033.000000	97.323041
1032.000000	97.302734
1031.000000	97.294069
1030.000000	97.293493
1029.000000	97.295528
1028.000000	97.296851
1027.000000	97.296914
1026.000000	97.296248
1025.000000	97.296101
1024.000000	97.298896
1023.000000	97.306303
1022.000000	97.316628
1021.000000	97.325927
1020.000000	97.332026
1019.000000	97.336206
1018.000000	97.341234
1017.000000	97.349865
1016.000000	97.365720
1015.000000	97.392764
1014.000000	97.432017
1013.000000	97.479261
1012.000000	97.527483
1011.000000	97.572354
1010.000000	97.615364
1009.000000	97.661842
1008.000000	97.714939
1007.000000	97.771489
1006.000000	97.824501
1005.000000	97.869811
1004.000000	97.908867
1003.000000	97.944745
1002.000000	97.978224
1001.000000	98.009640
1000.000000	98.042114
999.000000	98.078933
998.000000	98.117884
997.000000	98.152287
996.000000	98.179126
995.000000	98.203501
994.000000	98.232959
993.000000	98.268950
992.000000	98.306239
991.000000	98.338785
990.000000	98.363778
989.000000	98.380828
988.000000	98.390851
987.000000	98.396889
986.000000	98.403222
985.000000	98.411879
984.000000	98.421050
983.000000	98.427735
982.000000	98.430662
981.000000	98.429946
980.000000	98.426062
979.000000	98.420702
978.000000	98.416959
977.000000	98.416609
976.000000	98.417936
975.000000	98.417938
974.000000	98.416041
973.000000	98.414353
972.000000	98.415242
971.000000	98.420325
970.000000	98.430584
969.000000	98.445279
968.000000	98.461513
967.000000	98.477016
966.000000	98.493170
965.000000	98.512722
964.000000	98.534745
963.000000	98.554799
962.000000	98.570391
961.000000	98.583560
960.000000	98.597076
959.000000	98.611371
958.000000	98.626798
957.000000	98.645526
956.000000	98.668177
955.000000	98.690761
954.000000	98.708648
953.000000	98.722369
952.000000	98.736130
951.000000	98.750781
950.000000	98.761921
949.000000	98.765938
948.000000	98.764770
947.000000	98.763157
946.000000	98.762909
945.000000	98.762186
944.000000	98.759645
943.000000	98.756630
942.000000	98.754310
941.000000	98.750236
940.000000	98.740721
939.000000	98.727428
938.000000	98.719631
937.000000	98.726864
936.000000	98.749329
935.000000	98.777826
934.000000	98.803095
933.000000	98.823093
932.000000	98.839925
931.000000	98.852874
930.000000	98.858161
929.000000	98.854593
928.000000	98.846580
927.000000	98.841014
926.000000	98.842245
925.000000	98.849266
924.000000	98.856418
923.000000	98.858061
922.000000	98.854882
921.000000	98.854481
920.000000	98.863426
919.000000	98.879266
918.000000	98.893420
917.000000	98.901991
916.000000	98.909883
915.000000	98.923771
914.000000	98.944150
913.000000	98.965943
912.000000	98.983943
911.000000	98.995122
910.000000	98.998197
909.000000	98.994532
908.000000	98.988890
907.000000	98.986557
906.000000	98.989260
905.000000	98.994936
904.000000	99.001494
903.000000	99.009450
902.000000	99.020557
901.000000	99.034691
900.000000	99.048292
899.000000	99.056229
898.000000	99.056396
897.000000	99.053047
896.000000	99.054032
895.000000	99.063194
894.000000	99.076025
893.000000	99.084442
892.000000	99.085310
891.000000	99.083147
890.000000	99.084787
889.000000	99.092281
888.000000	99.101187
887.000000	99.104407
886.000000	99.097485
885.000000	99.081300
884.000000	99.060797
883.000000	99.041720
882.000000	99.028217
881.000000	99.021978
880.000000	99.021714
879.000000	99.023191
878.000000	99.021665
877.000000	99.015848
876.000000	99.008844
875.000000	99.004231
874.000000	99.001854
873.000000	98.998242
872.000000	98.990229
871.000000	98.977649
870.000000	98.963846
869.000000	98.954606
868.000000	98.954835
867.000000	98.964609
866.000000	98.979269
865.000000	98.994612
864.000000	99.010021
863.000000	99.024672
862.000000	99.033259
861.000000	99.029963
860.000000	99.016522
859.000000	99.002271
858.000000	98.995134
857.000000	98.994626
856.000000	98.994773
855.000000	98.991513
854.000000	98.985857
853.000000	98.982050
852.000000	98.984175
851.000000	98.993022
850.000000	99.005019
849.000000	99.015348
848.000000	99.022700
847.000000	99.029375
846.000000	99.036153
845.000000	99.040064
844.000000	99.039227
843.000000	99.037418
842.000000	99.040295
841.000000	99.047702
840.000000	99.053356
839.000000	99.052762
838.000000	99.048938
837.000000	99.048627
836.000000	99.054695
835.000000	99.064458
834.000000	99.074582
833.000000	99.085084
832.000000	99.097184
831.000000	99.108417
830.000000	99.112271
829.000000	99.103994
828.000000	99.086947
827.000000	99.072146
826.000000	99.070137
825.000000	99.082260
824.000000	99.099477
823.000000	99.110543
822.000000	99.111346
821.000000	99.105593
820.000000	99.097592
819.000000	99.087181
818.000000	99.073278
817.000000	99.059889
816.000000	99.054193
815.000000	99.057660
814.000000	99.061922
813.000000	99.056647
812.000000	99.040972
811.000000	99.025535
810.000000	99.023101
809.000000	99.037338
808.000000	99.060079
807.000000	99.078803
806.000000	99.087279
805.000000	99.089375
804.000000	99.092182
803.000000	99.096993
802.000000	99.099486
801.000000	99.097402
800.000000	99.093705
799.000000	99.091271
798.000000	99.088550
797.000000	99.082254
796.000000	99.070937
795.000000	99.054873
794.000000	99.037122
793.000000	99.026394
792.000000	99.032184
791.000000	99.052474
790.000000	99.071662
789.000000	99.076648
788.000000	99.070158
787.000000	99.062457
786.000000	99.056165
785.000000	99.048015
784.000000	99.040895
783.000000	99.041770
782.000000	99.048157
781.000000	99.048627
780.000000	99.039710
779.000000	99.031802
778.000000	99.033660
777.000000	99.040045
776.000000	99.040885
775.000000	99.035396
774.000000	99.030134
773.000000	99.028130
772.000000	99.026929
771.000000	99.024535
770.000000	99.021444
769.000000	99.018754
768.000000	99.018900
767.000000	99.025669
766.000000	99.038989
765.000000	99.052084
764.000000	99.058145
763.000000	99.057978
762.000000	99.056769
761.000000	99.055312
760.000000	99.049239
759.000000	99.036062
758.000000	99.018611
757.000000	99.001419
756.000000	98.986877
755.000000	98.975217
754.000000	98.965958
753.000000	98.959166
752.000000	98.956238
751.000000	98.958525
750.000000	98.964266
749.000000	98.968623
748.000000	98.967517
747.000000	98.959203
746.000000	98.942017
745.000000	98.914925
744.000000	98.882707
743.000000	98.856312
742.000000	98.843949
741.000000	98.843840
740.000000	98.848608
739.000000	98.854391
738.000000	98.862056
737.000000	98.871577
736.000000	98.878726
735.000000	98.876721
734.000000	98.859744
733.000000	98.827395
732.000000	98.788238
731.000000	98.756388
730.000000	98.740804
729.000000	98.738289
728.000000	98.738750
727.000000	98.734692
726.000000	98.723522
725.000000	98.705675
724.000000	98.685425
723.000000	98.669561
722.000000	98.659591
721.000000	98.647311
720.000000	98.624403
719.000000	98.595176
718.000000	98.572875
717.000000	98.563271
716.000000	98.557800
715.000000	98.544440
714.000000	98.520790
713.000000	98.494408
712.000000	98.473152
711.000000	98.457550
710.000000	98.442202
709.000000	98.422816
708.000000	98.400991
707.000000	98.381954
706.000000	98.367739
705.000000	98.355368
704.000000	98.342457
703.000000	98.330777
702.000000	98.322755
701.000000	98.317637
700.000000	98.313774
699.000000	98.311949
698.000000	98.313002
697.000000	98.314449
696.000000	98.313386
695.000000	98.310611
694.000000	98.308090
693.000000	98.303454
692.000000	98.291897
691.000000	98.274742
690.000000	98.260658
689.000000	98.255828
688.000000	98.255249
687.000000	98.248103
686.000000	98.232517
685.000000	98.219546
684.000000	98.219704
683.000000	98.228297
682.000000	98.228294
681.000000	98.208146
680.000000	98.173504
679.000000	98.140372
678.000000	98.119313
677.000000	98.109097
676.000000	98.104413
675.000000	98.100433
674.000000	98.093556
673.000000	98.081900
672.000000	98.066000
671.000000	98.047356
670.000000	98.028172
669.000000	98.013125
668.000000	98.002992
667.000000	97.995361
666.000000	97.988480
665.000000	97.966842
664.000000	97.933803
663.000000	97.908646
662.000000	97.897629
661.000000	97.886869
660.000000	97.867943
659.000000	97.853583
658.000000	97.856201
657.000000	97.867105
656.000000	97.873485
655.000000	97.879508
654.000000	97.899007
653.000000	97.934915
652.000000	97.976309
651.000000	98.008030
650.000000	98.017844
649.000000	98.003669
648.000000	97.980139
647.000000	97.968975
646.000000	97.975316
645.000000	97.981734
644.000000	97.972607
643.000000	97.954534
642.000000	97.945398
641.000000	97.949846
640.000000	97.955402
639.000000	97.951312
638.000000	97.941507
637.000000	97.938066
636.000000	97.945562
635.000000	97.952620
634.000000	97.941743
633.000000	97.910011
632.000000	97.875617
631.000000	97.859314
630.000000	97.862126
629.000000	97.868966
628.000000	97.870858
627.000000	97.871795
626.000000	97.875202
625.000000	97.877977
624.000000	97.880315
623.000000	97.886939
622.000000	97.895297
621.000000	97.895400
620.000000	97.886126
619.000000	97.878916
618.000000	97.879868
617.000000	97.879974
616.000000	97.870816
615.000000	97.859032
614.000000	97.856587
613.000000	97.867685
612.000000	97.891659
611.000000	97.926728
610.000000	97.961697
609.000000	97.974633
608.000000	97.951605
607.000000	97.902601
606.000000	97.852275
605.000000	97.820326
604.000000	97.814349
603.000000	97.830507
602.000000	97.852567
601.000000	97.859510
600.000000	97.844020
599.000000	97.818013
598.000000	97.796338
597.000000	97.783132
596.000000	97.778571
595.000000	97.785984
594.000000	97.804212
593.000000	97.823523
592.000000	97.836945
591.000000	97.846057
590.000000	97.848778
589.000000	97.833910
588.000000	97.797372
587.000000	97.753806
586.000000	97.722622
585.000000	97.709445
584.000000	97.710442
583.000000	97.726106
582.000000	97.757851
581.000000	97.797036
580.000000	97.829419
579.000000	97.846501
578.000000	97.845657
577.000000	97.825234
576.000000	97.788530
575.000000	97.747614
574.000000	97.713064
573.000000	97.685713
572.000000	97.666453
571.000000	97.664086
570.000000	97.682004
569.000000	97.703757
568.000000	97.704317
567.000000	97.674126
566.000000	97.626184
565.000000	97.583441
564.000000	97.563625
563.000000	97.568273
562.000000	97.580485
561.000000	97.580314
560.000000	97.567124
559.000000	97.557716
558.000000	97.561336
557.000000	97.571117
556.000000	97.582382
555.000000	97.599794
554.000000	97.617323
553.000000	97.614067
552.000000	97.584225
551.000000	97.554047
550.000000	97.553059
549.000000	97.577745
548.000000	97.600753
547.000000	97.605031
546.000000	97.594815
545.000000	97.584166
544.000000	97.588302
543.000000	97.615906
542.000000	97.655198
541.000000	97.677460
540.000000	97.667908
539.000000	97.641747
538.000000	97.619884
537.000000	97.603015
536.000000	97.585461
535.000000	97.579441
534.000000	97.600597
533.000000	97.636018
532.000000	97.651705
531.000000	97.631605
530.000000	97.594955
529.000000	97.573244
528.000000	97.582082
527.000000	97.612797
526.000000	97.642499
525.000000	97.658910
524.000000	97.675323
523.000000	97.710375
522.000000	97.758896
521.000000	97.798539
520.000000	97.823547
519.000000	97.852864
518.000000	97.896679
517.000000	97.935038
516.000000	97.947976
515.000000	97.945278
514.000000	97.947739
513.000000	97.959750
512.000000	97.974360
511.000000	97.987234
510.000000	97.993975
509.000000	97.990157
508.000000	97.988714
507.000000	98.017991
506.000000	98.088445
505.000000	98.179598
504.000000	98.267606
503.000000	98.339572
502.000000	98.374954
501.000000	98.352019
500.000000	98.287768
499.000000	98.231268
498.000000	98.208936
497.000000	98.203480
496.000000	98.201018
495.000000	98.232007
494.000000	98.333127
493.000000	98.484039
492.000000	98.613186
491.000000	98.663136
490.000000	98.634659
489.000000	98.572386
488.000000	98.529465
487.000000	98.537380
486.000000	98.583083
485.000000	98.621965
484.000000	98.632835
483.000000	98.641682
482.000000	98.671040
481.000000	98.698915
480.000000	98.693532
479.000000	98.659920
478.000000	98.625822
477.000000	98.602334
476.000000	98.587868
475.000000	98.593360
474.000000	98.630822
473.000000	98.684010
472.000000	98.724811
471.000000	98.751697
470.000000	98.773985
469.000000	98.775408
468.000000	98.737978
467.000000	98.686306
466.000000	98.666627
465.000000	98.684902
464.000000	98.713754
463.000000	98.751179
462.000000	98.822306
461.000000	98.924612
460.000000	99.017478
459.000000	99.069766
458.000000	99.086892
457.000000	99.088950
456.000000	99.080997
455.000000	99.064106
454.000000	99.051593
453.000000	99.082005
452.000000	99.082334
451.000000	99.070199
450.000000	99.061158
