PE IR       SUBTECH     SPECTRUM    ASCII       PEDS        4.00        
   -1
Histo2-Veau-C002_1.ASC
23/09/14
13:51:38.00
23/09/14
14:07:41.00
uco
Sample 002 By uco Date Thursday, September 14 2023
450.000000
#HDR
-1
-1
#GR
cm-1
%T
1.0
0.0
4000.000000
-1.000000
3551
8
99.593136
94.578533
#DATA
4000.000000	99.509431
3999.000000	99.514844
3998.000000	99.519929
3997.000000	99.521508
3996.000000	99.518623
3995.000000	99.512628
3994.000000	99.505595
3993.000000	99.496576
3992.000000	99.491558
3991.000000	99.488978
3990.000000	99.489413
3989.000000	99.492543
3988.000000	99.497298
3987.000000	99.502445
3986.000000	99.506700
3985.000000	99.508683
3984.000000	99.507644
3983.000000	99.504535
3982.000000	99.501790
3981.000000	99.501416
3980.000000	99.503439
3979.000000	99.506194
3978.000000	99.507771
3977.000000	99.506946
3976.000000	99.503322
3975.000000	99.497493
3974.000000	99.491093
3973.000000	99.486070
3972.000000	99.483544
3971.000000	99.483423
3970.000000	99.484984
3969.000000	99.487242
3968.000000	99.488825
3967.000000	99.488304
3966.000000	99.485462
3965.000000	99.482031
3964.000000	99.480463
3963.000000	99.481717
3962.000000	99.484367
3961.000000	99.485981
3960.000000	99.485416
3959.000000	99.483544
3958.000000	99.482201
3957.000000	99.482756
3956.000000	99.485167
3955.000000	99.488018
3954.000000	99.489505
3953.000000	99.488788
3952.000000	99.486630
3951.000000	99.484650
3950.000000	99.483815
3949.000000	99.483649
3948.000000	99.482922
3947.000000	99.481049
3946.000000	99.478693
3945.000000	99.477127
3944.000000	99.477083
3943.000000	99.477981
3942.000000	99.478299
3941.000000	99.476833
3940.000000	99.474078
3939.000000	99.472334
3938.000000	99.474037
3937.000000	99.479806
3936.000000	99.487968
3935.000000	99.496108
3934.000000	99.502823
3933.000000	99.507750
3932.000000	99.510512
3931.000000	99.510421
3930.000000	99.507520
3929.000000	99.503064
3928.000000	99.498400
3927.000000	99.494078
3926.000000	99.490049
3925.000000	99.486653
3924.000000	99.484879
3923.000000	99.485212
3922.000000	99.486950
3921.000000	99.489182
3920.000000	99.491900
3919.000000	99.495584
3918.000000	99.499582
3917.000000	99.501649
3916.000000	99.499982
3915.000000	99.495518
3914.000000	99.491705
3913.000000	99.491697
3912.000000	99.495905
3911.000000	99.501378
3910.000000	99.503851
3909.000000	99.501249
3908.000000	99.495277
3907.000000	99.490131
3906.000000	99.489400
3905.000000	99.492962
3904.000000	99.496467
3903.000000	99.494992
3902.000000	99.487735
3901.000000	99.478809
3900.000000	99.473353
3899.000000	99.473598
3898.000000	99.477842
3897.000000	99.482476
3896.000000	99.484870
3895.000000	99.484466
3894.000000	99.482526
3893.000000	99.481168
3892.000000	99.481572
3891.000000	99.482448
3890.000000	99.481099
3889.000000	99.476717
3888.000000	99.472276
3887.000000	99.472614
3886.000000	99.479948
3885.000000	99.491103
3884.000000	99.500233
3883.000000	99.504084
3882.000000	99.503312
3881.000000	99.500515
3880.000000	99.498028
3879.000000	99.496357
3878.000000	99.494424
3877.000000	99.491761
3876.000000	99.489037
3875.000000	99.486130
3874.000000	99.481483
3873.000000	99.474327
3872.000000	99.466588
3871.000000	99.461669
3870.000000	99.461813
3869.000000	99.466571
3868.000000	99.473689
3867.000000	99.481299
3866.000000	99.488288
3865.000000	99.493207
3864.000000	99.494838
3863.000000	99.493263
3862.000000	99.489471
3861.000000	99.484489
3860.000000	99.479113
3859.000000	99.473695
3858.000000	99.467836
3857.000000	99.461446
3856.000000	99.456169
3855.000000	99.454477
3854.000000	99.455522
3853.000000	99.456025
3852.000000	99.457010
3851.000000	99.460892
3850.000000	99.467280
3849.000000	99.474429
3848.000000	99.480820
3847.000000	99.486137
3846.000000	99.490990
3845.000000	99.495817
3844.000000	99.499842
3843.000000	99.501161
3842.000000	99.498625
3841.000000	99.493287
3840.000000	99.488261
3839.000000	99.487127
3838.000000	99.490619
3837.000000	99.494892
3836.000000	99.494930
3835.000000	99.488985
3834.000000	99.479174
3833.000000	99.468944
3832.000000	99.460999
3831.000000	99.456761
3830.000000	99.456359
3829.000000	99.459003
3828.000000	99.463444
3827.000000	99.467784
3826.000000	99.469835
3825.000000	99.468307
3824.000000	99.463878
3823.000000	99.459133
3822.000000	99.457110
3821.000000	99.459134
3820.000000	99.463632
3819.000000	99.467056
3818.000000	99.467462
3817.000000	99.466408
3816.000000	99.466622
3815.000000	99.469713
3814.000000	99.475023
3813.000000	99.480546
3812.000000	99.484893
3811.000000	99.487701
3810.000000	99.489276
3809.000000	99.490220
3808.000000	99.490405
3807.000000	99.488334
3806.000000	99.482816
3805.000000	99.474126
3804.000000	99.463747
3803.000000	99.453569
3802.000000	99.444770
3801.000000	99.438554
3800.000000	99.437121
3799.000000	99.441555
3798.000000	99.451370
3797.000000	99.464168
3796.000000	99.475310
3795.000000	99.480921
3794.000000	99.481412
3793.000000	99.480403
3792.000000	99.481185
3791.000000	99.484577
3790.000000	99.489161
3789.000000	99.493081
3788.000000	99.495106
3787.000000	99.494710
3786.000000	99.491994
3785.000000	99.488004
3784.000000	99.484521
3783.000000	99.482891
3782.000000	99.483170
3781.000000	99.484624
3780.000000	99.486729
3779.000000	99.489534
3778.000000	99.493024
3777.000000	99.496060
3776.000000	99.496721
3775.000000	99.493622
3774.000000	99.487187
3773.000000	99.480294
3772.000000	99.477309
3771.000000	99.480844
3770.000000	99.488773
3769.000000	99.495659
3768.000000	99.497990
3767.000000	99.497019
3766.000000	99.496459
3765.000000	99.498819
3764.000000	99.503930
3763.000000	99.510231
3762.000000	99.516177
3761.000000	99.519942
3760.000000	99.519347
3759.000000	99.513506
3758.000000	99.503783
3757.000000	99.492367
3756.000000	99.480707
3755.000000	99.469688
3754.000000	99.460397
3753.000000	99.454231
3752.000000	99.452842
3751.000000	99.457522
3750.000000	99.467115
3749.000000	99.476971
3748.000000	99.483061
3747.000000	99.486580
3746.000000	99.492250
3745.000000	99.501820
3744.000000	99.510864
3743.000000	99.514194
3742.000000	99.511249
3741.000000	99.504405
3740.000000	99.496329
3739.000000	99.489779
3738.000000	99.487209
3737.000000	99.489404
3736.000000	99.494141
3735.000000	99.497497
3734.000000	99.497140
3733.000000	99.493088
3732.000000	99.487444
3731.000000	99.483327
3730.000000	99.482848
3729.000000	99.486348
3728.000000	99.492284
3727.000000	99.497181
3726.000000	99.497081
3725.000000	99.490640
3724.000000	99.480359
3723.000000	99.470600
3722.000000	99.465252
3721.000000	99.465920
3720.000000	99.471826
3719.000000	99.480623
3718.000000	99.488856
3717.000000	99.493099
3716.000000	99.491864
3715.000000	99.486686
3714.000000	99.480927
3713.000000	99.477436
3712.000000	99.477171
3711.000000	99.480048
3710.000000	99.485792
3709.000000	99.493303
3708.000000	99.500519
3707.000000	99.505100
3706.000000	99.505303
3705.000000	99.500433
3704.000000	99.491725
3703.000000	99.482916
3702.000000	99.479258
3701.000000	99.483924
3700.000000	99.495078
3699.000000	99.508114
3698.000000	99.519488
3697.000000	99.527293
3696.000000	99.530036
3695.000000	99.526431
3694.000000	99.516211
3693.000000	99.501311
3692.000000	99.486375
3691.000000	99.477617
3690.000000	99.478872
3689.000000	99.487879
3688.000000	99.498416
3687.000000	99.506003
3686.000000	99.509547
3685.000000	99.508995
3684.000000	99.504136
3683.000000	99.495550
3682.000000	99.485111
3681.000000	99.474806
3680.000000	99.464895
3679.000000	99.454348
3678.000000	99.443129
3677.000000	99.432990
3676.000000	99.426270
3675.000000	99.424974
3674.000000	99.428239
3673.000000	99.432402
3672.000000	99.437084
3671.000000	99.445925
3670.000000	99.461207
3669.000000	99.480292
3668.000000	99.497564
3667.000000	99.509588
3666.000000	99.516765
3665.000000	99.520404
3664.000000	99.520545
3663.000000	99.516885
3662.000000	99.510358
3661.000000	99.502945
3660.000000	99.496044
3659.000000	99.490338
3658.000000	99.486977
3657.000000	99.487107
3656.000000	99.489661
3655.000000	99.491092
3654.000000	99.488922
3653.000000	99.484396
3652.000000	99.480615
3651.000000	99.477522
3650.000000	99.469158
3649.000000	99.451554
3648.000000	99.432993
3647.000000	99.425415
3646.000000	99.430211
3645.000000	99.439798
3644.000000	99.446634
3643.000000	99.447997
3642.000000	99.445615
3641.000000	99.442258
3640.000000	99.438110
3639.000000	99.431135
3638.000000	99.421264
3637.000000	99.412929
3636.000000	99.412361
3635.000000	99.422087
3634.000000	99.438314
3633.000000	99.453956
3632.000000	99.463691
3631.000000	99.464644
3630.000000	99.453670
3629.000000	99.430674
3628.000000	99.406767
3627.000000	99.394160
3626.000000	99.392003
3625.000000	99.392696
3624.000000	99.390212
3623.000000	99.383194
3622.000000	99.374894
3621.000000	99.369930
3620.000000	99.369842
3619.000000	99.371672
3618.000000	99.371615
3617.000000	99.369044
3616.000000	99.366399
3615.000000	99.366754
3614.000000	99.371018
3613.000000	99.376189
3612.000000	99.376803
3611.000000	99.369118
3610.000000	99.354198
3609.000000	99.337363
3608.000000	99.324816
3607.000000	99.319415
3606.000000	99.319823
3605.000000	99.323519
3604.000000	99.328732
3603.000000	99.333798
3602.000000	99.336888
3601.000000	99.337756
3600.000000	99.338842
3599.000000	99.343018
3598.000000	99.349741
3597.000000	99.354747
3596.000000	99.353657
3595.000000	99.345690
3594.000000	99.334395
3593.000000	99.324483
3592.000000	99.318222
3591.000000	99.314998
3590.000000	99.312793
3589.000000	99.309414
3588.000000	99.304236
3587.000000	99.299644
3586.000000	99.298335
3585.000000	99.298973
3584.000000	99.297637
3583.000000	99.292020
3582.000000	99.283024
3581.000000	99.273724
3580.000000	99.267082
3579.000000	99.264030
3578.000000	99.263130
3577.000000	99.261971
3576.000000	99.259083
3575.000000	99.254901
3574.000000	99.250747
3573.000000	99.246916
3572.000000	99.241934
3571.000000	99.234106
3570.000000	99.223428
3569.000000	99.211835
3568.000000	99.201976
3567.000000	99.195987
3566.000000	99.194432
3565.000000	99.195340
3564.000000	99.195116
3563.000000	99.191057
3562.000000	99.183041
3561.000000	99.173375
3560.000000	99.164909
3559.000000	99.158978
3558.000000	99.155364
3557.000000	99.153789
3556.000000	99.154533
3555.000000	99.157680
3554.000000	99.162355
3553.000000	99.166915
3552.000000	99.169489
3551.000000	99.168319
3550.000000	99.162312
3549.000000	99.151892
3548.000000	99.139393
3547.000000	99.128155
3546.000000	99.120539
3545.000000	99.116276
3544.000000	99.113057
3543.000000	99.108889
3542.000000	99.103960
3541.000000	99.100321
3540.000000	99.099773
3539.000000	99.101777
3538.000000	99.103208
3537.000000	99.100345
3536.000000	99.091649
3535.000000	99.079069
3534.000000	99.066926
3533.000000	99.059413
3532.000000	99.058148
3531.000000	99.061035
3530.000000	99.063502
3529.000000	99.062139
3528.000000	99.057539
3527.000000	99.053237
3526.000000	99.051754
3525.000000	99.052261
3524.000000	99.051831
3523.000000	99.048200
3522.000000	99.041265
3521.000000	99.032596
3520.000000	99.024149
3519.000000	99.017166
3518.000000	99.011405
3517.000000	99.005104
3516.000000	98.996451
3515.000000	98.985540
3514.000000	98.974919
3513.000000	98.967677
3512.000000	98.964784
3511.000000	98.964399
3510.000000	98.963931
3509.000000	98.962647
3508.000000	98.961769
3507.000000	98.962211
3506.000000	98.962903
3505.000000	98.961620
3504.000000	98.957202
3503.000000	98.951077
3502.000000	98.946189
3501.000000	98.944026
3500.000000	98.943030
3499.000000	98.940237
3498.000000	98.934285
3497.000000	98.926812
3496.000000	98.920937
3495.000000	98.918485
3494.000000	98.919030
3493.000000	98.921105
3492.000000	98.923300
3491.000000	98.924061
3490.000000	98.921672
3489.000000	98.915272
3488.000000	98.905627
3487.000000	98.894534
3486.000000	98.883748
3485.000000	98.874716
3484.000000	98.868644
3483.000000	98.865841
3482.000000	98.865140
3481.000000	98.864891
3480.000000	98.864596
3479.000000	98.865007
3478.000000	98.866600
3477.000000	98.868645
3476.000000	98.869771
3475.000000	98.868900
3474.000000	98.865398
3473.000000	98.858831
3472.000000	98.849296
3471.000000	98.838139
3470.000000	98.827860
3469.000000	98.820782
3468.000000	98.817490
3467.000000	98.816546
3466.000000	98.815790
3465.000000	98.813835
3464.000000	98.810484
3463.000000	98.806352
3462.000000	98.802586
3461.000000	98.800361
3460.000000	98.799612
3459.000000	98.798328
3458.000000	98.794350
3457.000000	98.788365
3456.000000	98.784187
3455.000000	98.784943
3454.000000	98.789312
3453.000000	98.792451
3452.000000	98.790611
3451.000000	98.784436
3450.000000	98.778048
3449.000000	98.775593
3448.000000	98.778176
3447.000000	98.782937
3446.000000	98.785122
3445.000000	98.781772
3444.000000	98.773415
3443.000000	98.762423
3442.000000	98.750637
3441.000000	98.739164
3440.000000	98.729598
3439.000000	98.723889
3438.000000	98.722691
3437.000000	98.724773
3436.000000	98.728414
3435.000000	98.732493
3434.000000	98.735798
3433.000000	98.736221
3432.000000	98.731858
3431.000000	98.722683
3430.000000	98.710629
3429.000000	98.698394
3428.000000	98.688645
3427.000000	98.683658
3426.000000	98.684226
3425.000000	98.688499
3424.000000	98.692768
3423.000000	98.694220
3422.000000	98.692919
3421.000000	98.690943
3420.000000	98.689825
3419.000000	98.689175
3418.000000	98.687542
3417.000000	98.683895
3416.000000	98.678121
3415.000000	98.670688
3414.000000	98.662302
3413.000000	98.653832
3412.000000	98.646314
3411.000000	98.640947
3410.000000	98.638765
3409.000000	98.639644
3408.000000	98.641488
3407.000000	98.641373
3406.000000	98.638399
3405.000000	98.634910
3404.000000	98.633709
3403.000000	98.634105
3402.000000	98.632273
3401.000000	98.626054
3400.000000	98.617912
3399.000000	98.611895
3398.000000	98.608515
3397.000000	98.604321
3396.000000	98.596464
3395.000000	98.586145
3394.000000	98.577081
3393.000000	98.571753
3392.000000	98.569874
3391.000000	98.569783
3390.000000	98.570265
3389.000000	98.571043
3388.000000	98.572164
3387.000000	98.573289
3386.000000	98.573553
3385.000000	98.572294
3384.000000	98.570109
3383.000000	98.568778
3382.000000	98.569596
3381.000000	98.571613
3380.000000	98.571839
3379.000000	98.567624
3378.000000	98.559205
3377.000000	98.549991
3376.000000	98.544054
3375.000000	98.542745
3374.000000	98.543451
3373.000000	98.541882
3372.000000	98.535910
3371.000000	98.527235
3370.000000	98.519389
3369.000000	98.514300
3368.000000	98.510890
3367.000000	98.506679
3366.000000	98.500387
3365.000000	98.492933
3364.000000	98.486350
3363.000000	98.481999
3362.000000	98.479667
3361.000000	98.478050
3360.000000	98.476107
3359.000000	98.474026
3358.000000	98.472737
3357.000000	98.472261
3356.000000	98.470780
3355.000000	98.465935
3354.000000	98.457159
3353.000000	98.446230
3352.000000	98.435262
3351.000000	98.424709
3350.000000	98.413912
3349.000000	98.403131
3348.000000	98.394089
3347.000000	98.388306
3346.000000	98.385466
3345.000000	98.383688
3344.000000	98.381111
3343.000000	98.377119
3342.000000	98.372329
3341.000000	98.367622
3340.000000	98.363019
3339.000000	98.357652
3338.000000	98.351144
3337.000000	98.344682
3336.000000	98.339990
3335.000000	98.337288
3334.000000	98.335093
3333.000000	98.332120
3332.000000	98.328430
3331.000000	98.324521
3330.000000	98.320486
3329.000000	98.316631
3328.000000	98.313787
3327.000000	98.311999
3326.000000	98.309605
3325.000000	98.304702
3324.000000	98.297218
3323.000000	98.288721
3322.000000	98.280702
3321.000000	98.274051
3320.000000	98.269574
3319.000000	98.267590
3318.000000	98.267036
3317.000000	98.266100
3316.000000	98.264084
3315.000000	98.261857
3314.000000	98.260351
3313.000000	98.259427
3312.000000	98.258215
3311.000000	98.255793
3310.000000	98.251632
3309.000000	98.246338
3308.000000	98.242045
3307.000000	98.240840
3306.000000	98.242403
3305.000000	98.244099
3304.000000	98.243628
3303.000000	98.240618
3302.000000	98.235523
3301.000000	98.228491
3300.000000	98.220453
3299.000000	98.214051
3298.000000	98.211630
3297.000000	98.212543
3296.000000	98.213770
3295.000000	98.213342
3294.000000	98.211981
3293.000000	98.211028
3292.000000	98.210029
3291.000000	98.207335
3290.000000	98.202623
3289.000000	98.197889
3288.000000	98.195753
3287.000000	98.197228
3286.000000	98.201201
3285.000000	98.205579
3284.000000	98.208524
3283.000000	98.208857
3282.000000	98.206118
3281.000000	98.200853
3280.000000	98.194795
3279.000000	98.190219
3278.000000	98.188795
3277.000000	98.190914
3276.000000	98.195913
3275.000000	98.202636
3274.000000	98.209763
3273.000000	98.216098
3272.000000	98.220870
3271.000000	98.223708
3270.000000	98.224302
3269.000000	98.222410
3268.000000	98.218531
3267.000000	98.214471
3266.000000	98.212763
3265.000000	98.214965
3264.000000	98.220251
3263.000000	98.225934
3262.000000	98.229836
3261.000000	98.232366
3260.000000	98.235958
3259.000000	98.242084
3258.000000	98.249255
3257.000000	98.254497
3256.000000	98.256511
3255.000000	98.256774
3254.000000	98.257550
3253.000000	98.259712
3252.000000	98.262887
3251.000000	98.266856
3250.000000	98.271991
3249.000000	98.278469
3248.000000	98.285693
3247.000000	98.292558
3246.000000	98.297991
3245.000000	98.301252
3244.000000	98.301985
3243.000000	98.300168
3242.000000	98.296261
3241.000000	98.291705
3240.000000	98.289057
3239.000000	98.290790
3238.000000	98.297335
3237.000000	98.306527
3236.000000	98.315360
3235.000000	98.322249
3234.000000	98.327406
3233.000000	98.331511
3232.000000	98.334612
3231.000000	98.336235
3230.000000	98.336090
3229.000000	98.334626
3228.000000	98.333156
3227.000000	98.333068
3226.000000	98.334356
3225.000000	98.335126
3224.000000	98.333453
3223.000000	98.330081
3222.000000	98.328573
3221.000000	98.332154
3220.000000	98.340674
3219.000000	98.350953
3218.000000	98.359798
3217.000000	98.365954
3216.000000	98.369578
3215.000000	98.371126
3214.000000	98.371351
3213.000000	98.371619
3212.000000	98.373154
3211.000000	98.375853
3210.000000	98.378371
3209.000000	98.379743
3208.000000	98.380701
3207.000000	98.383208
3206.000000	98.388569
3205.000000	98.396059
3204.000000	98.403328
3203.000000	98.408278
3202.000000	98.410673
3201.000000	98.411906
3200.000000	98.413292
3199.000000	98.414926
3198.000000	98.416438
3197.000000	98.418212
3196.000000	98.420921
3195.000000	98.423848
3194.000000	98.424897
3193.000000	98.423102
3192.000000	98.420599
3191.000000	98.421068
3190.000000	98.426224
3189.000000	98.434501
3188.000000	98.443120
3187.000000	98.450629
3186.000000	98.457241
3185.000000	98.463684
3184.000000	98.470360
3183.000000	98.477146
3182.000000	98.483226
3181.000000	98.487255
3180.000000	98.488357
3179.000000	98.487093
3178.000000	98.485227
3177.000000	98.484468
3176.000000	98.485530
3175.000000	98.488074
3174.000000	98.491068
3173.000000	98.493478
3172.000000	98.495343
3171.000000	98.498344
3170.000000	98.504459
3169.000000	98.513537
3168.000000	98.522472
3167.000000	98.527645
3166.000000	98.528472
3165.000000	98.528387
3164.000000	98.531932
3163.000000	98.540721
3162.000000	98.551986
3161.000000	98.561144
3160.000000	98.565827
3159.000000	98.567613
3158.000000	98.569967
3157.000000	98.574753
3156.000000	98.580800
3155.000000	98.585477
3154.000000	98.587108
3153.000000	98.586025
3152.000000	98.584064
3151.000000	98.583360
3150.000000	98.585084
3149.000000	98.588617
3148.000000	98.592173
3147.000000	98.594752
3146.000000	98.597495
3145.000000	98.602571
3144.000000	98.610752
3143.000000	98.620503
3142.000000	98.629430
3141.000000	98.635817
3140.000000	98.638635
3139.000000	98.637075
3138.000000	98.631345
3137.000000	98.623880
3136.000000	98.618950
3135.000000	98.620325
3134.000000	98.628844
3133.000000	98.641757
3132.000000	98.654254
3131.000000	98.662420
3130.000000	98.665661
3129.000000	98.666734
3128.000000	98.669048
3127.000000	98.673464
3126.000000	98.677432
3125.000000	98.677243
3124.000000	98.671363
3123.000000	98.662244
3122.000000	98.655316
3121.000000	98.655643
3120.000000	98.664478
3119.000000	98.678456
3118.000000	98.691960
3117.000000	98.700294
3116.000000	98.701103
3115.000000	98.694268
3114.000000	98.681793
3113.000000	98.667625
3112.000000	98.656079
3111.000000	98.649656
3110.000000	98.648591
3109.000000	98.652386
3108.000000	98.660527
3107.000000	98.671242
3106.000000	98.680746
3105.000000	98.685285
3104.000000	98.684025
3103.000000	98.679616
3102.000000	98.675903
3101.000000	98.675374
3100.000000	98.678037
3099.000000	98.681926
3098.000000	98.684370
3097.000000	98.683395
3096.000000	98.678451
3095.000000	98.670478
3094.000000	98.661761
3093.000000	98.655541
3092.000000	98.654526
3091.000000	98.658799
3090.000000	98.665359
3089.000000	98.670343
3088.000000	98.671667
3087.000000	98.669466
3086.000000	98.664846
3085.000000	98.659314
3084.000000	98.654947
3083.000000	98.653504
3082.000000	98.654564
3081.000000	98.655296
3080.000000	98.652998
3079.000000	98.647935
3078.000000	98.643234
3077.000000	98.641973
3076.000000	98.644579
3075.000000	98.649012
3074.000000	98.653015
3073.000000	98.655855
3072.000000	98.658013
3071.000000	98.659839
3070.000000	98.661023
3069.000000	98.661139
3068.000000	98.660110
3067.000000	98.658216
3066.000000	98.656238
3065.000000	98.655478
3064.000000	98.656821
3063.000000	98.659676
3062.000000	98.662769
3061.000000	98.666091
3060.000000	98.671001
3059.000000	98.677867
3058.000000	98.684744
3057.000000	98.689269
3056.000000	98.691051
3055.000000	98.691077
3054.000000	98.689742
3053.000000	98.687132
3052.000000	98.685006
3051.000000	98.686522
3050.000000	98.693152
3049.000000	98.702683
3048.000000	98.710994
3047.000000	98.715519
3046.000000	98.716742
3045.000000	98.716992
3044.000000	98.718342
3043.000000	98.721436
3042.000000	98.725719
3041.000000	98.730313
3040.000000	98.734360
3039.000000	98.736887
3038.000000	98.737330
3037.000000	98.736759
3036.000000	98.737782
3035.000000	98.742411
3034.000000	98.750351
3033.000000	98.759957
3032.000000	98.769844
3031.000000	98.778434
3030.000000	98.783112
3029.000000	98.782266
3028.000000	98.778219
3027.000000	98.775986
3026.000000	98.778307
3025.000000	98.783398
3024.000000	98.788235
3023.000000	98.792403
3022.000000	98.797186
3021.000000	98.802319
3020.000000	98.805719
3019.000000	98.806264
3018.000000	98.805312
3017.000000	98.805356
3016.000000	98.808143
3015.000000	98.814041
3014.000000	98.822018
3013.000000	98.829799
3012.000000	98.834787
3011.000000	98.835621
3010.000000	98.832859
3009.000000	98.828233
3008.000000	98.823573
3007.000000	98.820283
3006.000000	98.819182
3005.000000	98.820202
3004.000000	98.822058
3003.000000	98.822557
3002.000000	98.819923
3001.000000	98.814579
3000.000000	98.809480
2999.000000	98.807941
2998.000000	98.810519
2997.000000	98.814409
2996.000000	98.816125
2995.000000	98.814475
2994.000000	98.810796
2993.000000	98.806975
2992.000000	98.803875
2991.000000	98.801223
2990.000000	98.798276
2989.000000	98.794554
2988.000000	98.790200
2987.000000	98.785482
2986.000000	98.779779
2985.000000	98.771747
2984.000000	98.761046
2983.000000	98.749568
2982.000000	98.740115
2981.000000	98.733990
2980.000000	98.730374
2979.000000	98.727639
2978.000000	98.724276
2977.000000	98.718692
2976.000000	98.709588
2975.000000	98.697418
2974.000000	98.684927
2973.000000	98.675371
2972.000000	98.670173
2971.000000	98.668208
2970.000000	98.666670
2969.000000	98.662141
2968.000000	98.651692
2967.000000	98.634420
2966.000000	98.612361
2965.000000	98.589318
2964.000000	98.568257
2963.000000	98.549960
2962.000000	98.534053
2961.000000	98.520547
2960.000000	98.509828
2959.000000	98.501528
2958.000000	98.494294
2957.000000	98.486784
2956.000000	98.478636
2955.000000	98.470512
2954.000000	98.463723
2953.000000	98.459755
2952.000000	98.459359
2951.000000	98.461568
2950.000000	98.463878
2949.000000	98.463960
2948.000000	98.461131
2947.000000	98.456060
2946.000000	98.449491
2945.000000	98.441679
2944.000000	98.432652
2943.000000	98.421989
2942.000000	98.408351
2941.000000	98.390152
2940.000000	98.367292
2939.000000	98.341759
2938.000000	98.315785
2937.000000	98.289501
2936.000000	98.260710
2935.000000	98.227118
2934.000000	98.188674
2933.000000	98.147817
2932.000000	98.107492
2931.000000	98.068895
2930.000000	98.031107
2929.000000	97.992918
2928.000000	97.954606
2927.000000	97.917559
2926.000000	97.882198
2925.000000	97.846996
2924.000000	97.810044
2923.000000	97.771516
2922.000000	97.734384
2921.000000	97.702663
2920.000000	97.679328
2919.000000	97.665885
2918.000000	97.663978
2917.000000	97.676956
2916.000000	97.708794
2915.000000	97.760537
2914.000000	97.827385
2913.000000	97.899939
2912.000000	97.968910
2911.000000	98.029271
2910.000000	98.080663
2909.000000	98.124943
2908.000000	98.164023
2907.000000	98.199169
2906.000000	98.231395
2905.000000	98.261786
2904.000000	98.291420
2903.000000	98.320490
2902.000000	98.347347
2901.000000	98.368985
2900.000000	98.383739
2899.000000	98.393521
2898.000000	98.402801
2897.000000	98.414869
2896.000000	98.429404
2895.000000	98.443697
2894.000000	98.455648
2893.000000	98.465109
2892.000000	98.473035
2891.000000	98.480404
2890.000000	98.488132
2889.000000	98.497158
2888.000000	98.507873
2887.000000	98.519500
2886.000000	98.530442
2885.000000	98.539297
2884.000000	98.545619
2883.000000	98.549966
2882.000000	98.553437
2881.000000	98.556844
2880.000000	98.559826
2879.000000	98.560869
2878.000000	98.558735
2877.000000	98.553959
2876.000000	98.548421
2875.000000	98.543309
2874.000000	98.538138
2873.000000	98.532179
2872.000000	98.526366
2871.000000	98.523024
2870.000000	98.523849
2869.000000	98.528664
2868.000000	98.535962
2867.000000	98.543725
2866.000000	98.549421
2865.000000	98.550049
2864.000000	98.543103
2863.000000	98.527924
2862.000000	98.506134
2861.000000	98.480810
2860.000000	98.454959
2859.000000	98.429930
2858.000000	98.404729
2857.000000	98.376881
2856.000000	98.344261
2855.000000	98.306271
2854.000000	98.264001
2853.000000	98.220186
2852.000000	98.179701
2851.000000	98.149762
2850.000000	98.138224
2849.000000	98.150482
2848.000000	98.186642
2847.000000	98.241030
2846.000000	98.304501
2845.000000	98.368344
2844.000000	98.427303
2843.000000	98.480125
2842.000000	98.527782
2841.000000	98.571042
2840.000000	98.609370
2839.000000	98.641214
2838.000000	98.665394
2837.000000	98.682637
2836.000000	98.695888
2835.000000	98.708470
2834.000000	98.721461
2833.000000	98.733176
2832.000000	98.741558
2831.000000	98.746828
2830.000000	98.751248
2829.000000	98.756752
2828.000000	98.763512
2827.000000	98.770742
2826.000000	98.778042
2825.000000	98.785483
2824.000000	98.792937
2823.000000	98.799993
2822.000000	98.806498
2821.000000	98.812711
2820.000000	98.818833
2819.000000	98.824707
2818.000000	98.830184
2817.000000	98.835500
2816.000000	98.840865
2815.000000	98.845745
2814.000000	98.849045
2813.000000	98.850383
2812.000000	98.850907
2811.000000	98.852367
2810.000000	98.855375
2809.000000	98.859009
2808.000000	98.862217
2807.000000	98.864975
2806.000000	98.867645
2805.000000	98.869767
2804.000000	98.870452
2803.000000	98.870091
2802.000000	98.870782
2801.000000	98.874379
2800.000000	98.880324
2799.000000	98.885852
2798.000000	98.888374
2797.000000	98.887464
2796.000000	98.884829
2795.000000	98.882846
2794.000000	98.883175
2793.000000	98.886103
2792.000000	98.890660
2791.000000	98.895311
2790.000000	98.898783
2789.000000	98.900370
2788.000000	98.899871
2787.000000	98.897958
2786.000000	98.896721
2785.000000	98.898826
2784.000000	98.905069
2783.000000	98.913000
2782.000000	98.919010
2781.000000	98.921887
2780.000000	98.923366
2779.000000	98.925055
2778.000000	98.926131
2777.000000	98.924928
2776.000000	98.921825
2775.000000	98.919304
2774.000000	98.919370
2773.000000	98.922017
2772.000000	98.926089
2771.000000	98.930564
2770.000000	98.934791
2769.000000	98.938377
2768.000000	98.941291
2767.000000	98.943504
2766.000000	98.944401
2765.000000	98.943342
2764.000000	98.941197
2763.000000	98.940454
2762.000000	98.942929
2761.000000	98.947736
2760.000000	98.952334
2759.000000	98.955306
2758.000000	98.957326
2757.000000	98.959495
2756.000000	98.961796
2755.000000	98.963654
2754.000000	98.965227
2753.000000	98.967176
2752.000000	98.969360
2751.000000	98.970708
2750.000000	98.970716
2749.000000	98.970429
2748.000000	98.971313
2747.000000	98.973385
2746.000000	98.975161
2745.000000	98.975492
2744.000000	98.974959
2743.000000	98.975260
2742.000000	98.977644
2741.000000	98.982084
2740.000000	98.987354
2739.000000	98.991400
2738.000000	98.992124
2737.000000	98.988743
2736.000000	98.982668
2735.000000	98.976737
2734.000000	98.973360
2733.000000	98.973358
2732.000000	98.976234
2731.000000	98.980972
2730.000000	98.986488
2729.000000	98.991798
2728.000000	98.996179
2727.000000	98.999117
2726.000000	99.000048
2725.000000	98.998276
2724.000000	98.993477
2723.000000	98.986483
2722.000000	98.979554
2721.000000	98.975444
2720.000000	98.975550
2719.000000	98.978683
2718.000000	98.982012
2717.000000	98.983563
2716.000000	98.983702
2715.000000	98.984119
2714.000000	98.985799
2713.000000	98.988321
2712.000000	98.990724
2711.000000	98.992501
2710.000000	98.993812
2709.000000	98.995265
2708.000000	98.997509
2707.000000	99.000770
2706.000000	99.004701
2705.000000	99.008699
2704.000000	99.012076
2703.000000	99.013874
2702.000000	99.013191
2701.000000	99.010317
2700.000000	99.007094
2699.000000	99.005324
2698.000000	99.005000
2697.000000	99.004849
2696.000000	99.004493
2695.000000	99.005149
2694.000000	99.007890
2693.000000	99.011936
2692.000000	99.015145
2691.000000	99.015929
2690.000000	99.014475
2689.000000	99.012350
2688.000000	99.011154
2687.000000	99.011454
2686.000000	99.012906
2685.000000	99.015180
2684.000000	99.018195
2683.000000	99.021224
2682.000000	99.022531
2681.000000	99.020847
2680.000000	99.017070
2679.000000	99.013627
2678.000000	99.012048
2677.000000	99.011829
2676.000000	99.011808
2675.000000	99.011977
2674.000000	99.013650
2673.000000	99.018149
2672.000000	99.025299
2671.000000	99.032875
2670.000000	99.037748
2669.000000	99.038182
2668.000000	99.035019
2667.000000	99.030254
2666.000000	99.024934
2665.000000	99.019312
2664.000000	99.014445
2663.000000	99.011912
2662.000000	99.011650
2661.000000	99.011628
2660.000000	99.010520
2659.000000	99.009540
2658.000000	99.010460
2657.000000	99.012531
2656.000000	99.012790
2655.000000	99.009526
2654.000000	99.004680
2653.000000	99.002583
2652.000000	99.006376
2651.000000	99.015174
2650.000000	99.024389
2649.000000	99.029306
2648.000000	99.028977
2647.000000	99.026370
2646.000000	99.024631
2645.000000	99.024026
2644.000000	99.023185
2643.000000	99.022168
2642.000000	99.022684
2641.000000	99.025397
2640.000000	99.028566
2639.000000	99.030086
2638.000000	99.030027
2637.000000	99.030248
2636.000000	99.031748
2635.000000	99.033370
2634.000000	99.033619
2633.000000	99.033343
2632.000000	99.035576
2631.000000	99.042194
2630.000000	99.051324
2629.000000	99.058898
2628.000000	99.062392
2627.000000	99.062145
2626.000000	99.059628
2625.000000	99.056280
2624.000000	99.054422
2623.000000	99.057156
2622.000000	99.065581
2621.000000	99.076750
2620.000000	99.085689
2619.000000	99.089267
2618.000000	99.087665
2617.000000	99.083200
2616.000000	99.078977
2615.000000	99.077847
2614.000000	99.080844
2613.000000	99.086353
2612.000000	99.091614
2611.000000	99.095098
2610.000000	99.096854
2609.000000	99.097288
2608.000000	99.096699
2607.000000	99.095630
2606.000000	99.094454
2605.000000	99.092776
2604.000000	99.090432
2603.000000	99.088783
2602.000000	99.089521
2601.000000	99.091952
2600.000000	99.093094
2599.000000	99.091300
2598.000000	99.088892
2597.000000	99.090109
2596.000000	99.096591
2595.000000	99.105547
2594.000000	99.112269
2593.000000	99.114074
2592.000000	99.111819
2591.000000	99.108124
2590.000000	99.104915
2589.000000	99.102948
2588.000000	99.102881
2587.000000	99.105427
2586.000000	99.110188
2585.000000	99.115352
2584.000000	99.119047
2583.000000	99.120470
2582.000000	99.119764
2581.000000	99.118208
2580.000000	99.118729
2579.000000	99.124152
2578.000000	99.133429
2577.000000	99.141136
2576.000000	99.142510
2575.000000	99.137989
2574.000000	99.131095
2573.000000	99.123444
2572.000000	99.114664
2571.000000	99.106367
2570.000000	99.102478
2569.000000	99.104722
2568.000000	99.110581
2567.000000	99.117166
2566.000000	99.124577
2565.000000	99.133615
2564.000000	99.142100
2563.000000	99.146253
2562.000000	99.145031
2561.000000	99.140825
2560.000000	99.135848
2559.000000	99.129887
2558.000000	99.122502
2557.000000	99.115846
2556.000000	99.113615
2555.000000	99.116969
2554.000000	99.122525
2553.000000	99.125389
2552.000000	99.124202
2551.000000	99.122292
2550.000000	99.123406
2549.000000	99.127328
2548.000000	99.130972
2547.000000	99.132857
2546.000000	99.134410
2545.000000	99.136661
2544.000000	99.138130
2543.000000	99.137343
2542.000000	99.135752
2541.000000	99.136435
2540.000000	99.140764
2539.000000	99.147899
2538.000000	99.156449
2537.000000	99.164637
2536.000000	99.169403
2535.000000	99.167865
2534.000000	99.160163
2533.000000	99.149262
2532.000000	99.137624
2531.000000	99.125706
2530.000000	99.114308
2529.000000	99.106158
2528.000000	99.103675
2527.000000	99.106251
2526.000000	99.111047
2525.000000	99.115549
2524.000000	99.118316
2523.000000	99.118675
2522.000000	99.117654
2521.000000	99.118359
2520.000000	99.123094
2519.000000	99.130089
2518.000000	99.134938
2517.000000	99.135472
2516.000000	99.133443
2515.000000	99.131301
2514.000000	99.129414
2513.000000	99.127402
2512.000000	99.126147
2511.000000	99.126701
2510.000000	99.128292
2509.000000	99.129164
2508.000000	99.129209
2507.000000	99.130618
2506.000000	99.135890
2505.000000	99.145536
2504.000000	99.157147
2503.000000	99.166405
2502.000000	99.169965
2501.000000	99.168254
2500.000000	99.164897
2499.000000	99.162894
2498.000000	99.162053
2497.000000	99.160599
2496.000000	99.157728
2495.000000	99.153659
2494.000000	99.148878
2493.000000	99.145234
2492.000000	99.146553
2491.000000	99.155630
2490.000000	99.170467
2489.000000	99.184911
2488.000000	99.193100
2487.000000	99.192519
2486.000000	99.183956
2485.000000	99.170956
2484.000000	99.159013
2483.000000	99.152866
2482.000000	99.153684
2481.000000	99.159750
2480.000000	99.169185
2479.000000	99.180148
2478.000000	99.189038
2477.000000	99.191759
2476.000000	99.187944
2475.000000	99.181953
2474.000000	99.178764
2473.000000	99.180486
2472.000000	99.187057
2471.000000	99.197210
2470.000000	99.207056
2469.000000	99.210355
2468.000000	99.203526
2467.000000	99.190156
2466.000000	99.178544
2465.000000	99.174688
2464.000000	99.178173
2463.000000	99.184035
2462.000000	99.187556
2461.000000	99.187861
2460.000000	99.187882
2459.000000	99.190236
2458.000000	99.192890
2457.000000	99.190525
2456.000000	99.181394
2455.000000	99.171097
2454.000000	99.167294
2453.000000	99.171700
2452.000000	99.179303
2451.000000	99.184689
2450.000000	99.186791
2449.000000	99.187385
2448.000000	99.187664
2447.000000	99.187412
2446.000000	99.186085
2445.000000	99.183796
2444.000000	99.181975
2443.000000	99.183238
2442.000000	99.189303
2441.000000	99.198370
2440.000000	99.205506
2439.000000	99.206550
2438.000000	99.201553
2437.000000	99.194619
2436.000000	99.190763
2435.000000	99.192308
2434.000000	99.197104
2433.000000	99.200252
2432.000000	99.198822
2431.000000	99.195083
2430.000000	99.193901
2429.000000	99.196954
2428.000000	99.201211
2427.000000	99.203736
2426.000000	99.206135
2425.000000	99.212465
2424.000000	99.223443
2423.000000	99.234277
2422.000000	99.238386
2421.000000	99.232702
2420.000000	99.219838
2419.000000	99.206208
2418.000000	99.197768
2417.000000	99.196299
2416.000000	99.199295
2415.000000	99.203527
2414.000000	99.208118
2413.000000	99.213417
2412.000000	99.217915
2411.000000	99.218640
2410.000000	99.215377
2409.000000	99.212392
2408.000000	99.214075
2407.000000	99.219665
2406.000000	99.224417
2405.000000	99.225914
2404.000000	99.227036
2403.000000	99.231675
2402.000000	99.239082
2401.000000	99.244088
2400.000000	99.242267
2399.000000	99.233771
2398.000000	99.222593
2397.000000	99.213663
2396.000000	99.210497
2395.000000	99.213526
2394.000000	99.219335
2393.000000	99.222669
2392.000000	99.220750
2391.000000	99.215496
2390.000000	99.210619
2389.000000	99.207232
2388.000000	99.204166
2387.000000	99.202165
2386.000000	99.204995
2385.000000	99.214434
2384.000000	99.225896
2383.000000	99.232244
2382.000000	99.231659
2381.000000	99.229520
2380.000000	99.231298
2379.000000	99.235725
2378.000000	99.236981
2377.000000	99.231935
2376.000000	99.223067
2375.000000	99.215077
2374.000000	99.211873
2373.000000	99.216264
2372.000000	99.228679
2371.000000	99.244629
2370.000000	99.256950
2369.000000	99.262521
2368.000000	99.263817
2367.000000	99.263724
2366.000000	99.261939
2365.000000	99.256982
2364.000000	99.247877
2363.000000	99.233771
2362.000000	99.216533
2361.000000	99.203294
2360.000000	99.201315
2359.000000	99.209143
2358.000000	99.218026
2357.000000	99.223447
2356.000000	99.226470
2355.000000	99.227490
2354.000000	99.226729
2353.000000	99.227600
2352.000000	99.232205
2351.000000	99.235960
2350.000000	99.233885
2349.000000	99.226103
2348.000000	99.217781
2347.000000	99.215171
2346.000000	99.218335
2345.000000	99.217724
2344.000000	99.204680
2343.000000	99.185621
2342.000000	99.174974
2341.000000	99.179615
2340.000000	99.193709
2339.000000	99.206458
2338.000000	99.212963
2337.000000	99.215940
2336.000000	99.219228
2335.000000	99.222756
2334.000000	99.225246
2333.000000	99.227265
2332.000000	99.229528
2331.000000	99.229179
2330.000000	99.222778
2329.000000	99.209760
2328.000000	99.193559
2327.000000	99.177829
2326.000000	99.164795
2325.000000	99.156757
2324.000000	99.156457
2323.000000	99.164676
2322.000000	99.176797
2321.000000	99.185488
2320.000000	99.187677
2319.000000	99.186152
2318.000000	99.184590
2317.000000	99.183162
2316.000000	99.181409
2315.000000	99.180852
2314.000000	99.183486
2313.000000	99.188469
2312.000000	99.193770
2311.000000	99.199410
2310.000000	99.207475
2309.000000	99.218019
2308.000000	99.227642
2307.000000	99.232145
2306.000000	99.230336
2305.000000	99.225097
2304.000000	99.221318
2303.000000	99.221904
2302.000000	99.225465
2301.000000	99.227748
2300.000000	99.226321
2299.000000	99.222783
2298.000000	99.220946
2297.000000	99.223165
2296.000000	99.228383
2295.000000	99.232123
2294.000000	99.229187
2293.000000	99.218560
2292.000000	99.206106
2291.000000	99.199856
2290.000000	99.201208
2289.000000	99.203029
2288.000000	99.198088
2287.000000	99.187789
2286.000000	99.180176
2285.000000	99.180939
2284.000000	99.189006
2283.000000	99.200451
2282.000000	99.213469
2281.000000	99.228199
2280.000000	99.243150
2279.000000	99.253603
2278.000000	99.254399
2277.000000	99.245037
2276.000000	99.231693
2275.000000	99.222498
2274.000000	99.220417
2273.000000	99.221548
2272.000000	99.220573
2271.000000	99.215752
2270.000000	99.208132
2269.000000	99.198809
2268.000000	99.189811
2267.000000	99.185988
2266.000000	99.192538
2265.000000	99.209628
2264.000000	99.231166
2263.000000	99.249790
2262.000000	99.262105
2261.000000	99.268553
2260.000000	99.269521
2259.000000	99.263858
2258.000000	99.252269
2257.000000	99.240405
2256.000000	99.234702
2255.000000	99.233888
2254.000000	99.228956
2253.000000	99.215343
2252.000000	99.201909
2251.000000	99.201450
2250.000000	99.213585
2249.000000	99.223902
2248.000000	99.221724
2247.000000	99.212470
2246.000000	99.209283
2245.000000	99.217873
2244.000000	99.234123
2243.000000	99.252289
2242.000000	99.268539
2241.000000	99.278121
2240.000000	99.275797
2239.000000	99.260713
2238.000000	99.237122
2237.000000	99.210131
2236.000000	99.184203
2235.000000	99.165916
2234.000000	99.163212
2233.000000	99.178146
2232.000000	99.202126
2231.000000	99.221841
2230.000000	99.230321
2229.000000	99.230865
2228.000000	99.230978
2227.000000	99.234796
2226.000000	99.242122
2225.000000	99.252568
2224.000000	99.267129
2223.000000	99.284451
2222.000000	99.297394
2221.000000	99.296482
2220.000000	99.278901
2219.000000	99.253906
2218.000000	99.237653
2217.000000	99.240660
2216.000000	99.258713
2215.000000	99.277279
2214.000000	99.286262
2213.000000	99.288262
2212.000000	99.290641
2211.000000	99.292933
2210.000000	99.288779
2209.000000	99.279210
2208.000000	99.274880
2207.000000	99.282022
2206.000000	99.294746
2205.000000	99.306892
2204.000000	99.322479
2203.000000	99.345118
2202.000000	99.363756
2201.000000	99.362279
2200.000000	99.342410
2199.000000	99.324295
2198.000000	99.322739
2197.000000	99.333456
2196.000000	99.345416
2195.000000	99.355958
2194.000000	99.367422
2193.000000	99.376838
2192.000000	99.377098
2191.000000	99.365876
2190.000000	99.348679
2189.000000	99.335944
2188.000000	99.338786
2187.000000	99.362105
2186.000000	99.397602
2185.000000	99.426402
2184.000000	99.431870
2183.000000	99.408939
2182.000000	99.361690
2181.000000	99.299803
2180.000000	99.240227
2179.000000	99.204591
2178.000000	99.207729
2177.000000	99.246680
2176.000000	99.300607
2175.000000	99.343179
2174.000000	99.360034
2173.000000	99.358109
2172.000000	99.356219
2171.000000	99.362438
2170.000000	99.364067
2169.000000	99.343520
2168.000000	99.300732
2167.000000	99.252073
2166.000000	99.211775
2165.000000	99.186109
2164.000000	99.182832
2163.000000	99.210866
2162.000000	99.266793
2161.000000	99.334659
2160.000000	99.403546
2159.000000	99.472191
2158.000000	99.528659
2157.000000	99.548942
2156.000000	99.530588
2155.000000	99.503584
2154.000000	99.496947
2153.000000	99.509277
2152.000000	99.516753
2151.000000	99.498857
2150.000000	99.451822
2149.000000	99.389152
2148.000000	99.338601
2147.000000	99.328427
2146.000000	99.363047
2145.000000	99.413619
2144.000000	99.443409
2143.000000	99.443231
2142.000000	99.433577
2141.000000	99.434476
2140.000000	99.442824
2139.000000	99.441605
2138.000000	99.423812
2137.000000	99.400621
2136.000000	99.388125
2135.000000	99.390555
2134.000000	99.398247
2133.000000	99.398600
2132.000000	99.385762
2131.000000	99.361500
2130.000000	99.331787
2129.000000	99.305105
2128.000000	99.290553
2127.000000	99.293246
2126.000000	99.310875
2125.000000	99.335532
2124.000000	99.358533
2123.000000	99.373116
2122.000000	99.374956
2121.000000	99.363605
2120.000000	99.343773
2119.000000	99.322695
2118.000000	99.305327
2117.000000	99.292725
2116.000000	99.283831
2115.000000	99.277254
2114.000000	99.271850
2113.000000	99.267158
2112.000000	99.262811
2111.000000	99.257273
2110.000000	99.249550
2109.000000	99.243284
2108.000000	99.245145
2107.000000	99.255453
2106.000000	99.263788
2105.000000	99.259812
2104.000000	99.247213
2103.000000	99.241177
2102.000000	99.251792
2101.000000	99.275015
2100.000000	99.300012
2099.000000	99.319682
2098.000000	99.332041
2097.000000	99.337041
2096.000000	99.336430
2095.000000	99.333832
2094.000000	99.331695
2093.000000	99.329600
2092.000000	99.326108
2091.000000	99.319508
2090.000000	99.306756
2089.000000	99.285919
2088.000000	99.262039
2087.000000	99.247643
2086.000000	99.254429
2085.000000	99.283537
2084.000000	99.322751
2083.000000	99.352402
2082.000000	99.357366
2081.000000	99.338546
2080.000000	99.313469
2079.000000	99.300913
2078.000000	99.303611
2077.000000	99.309668
2076.000000	99.310390
2075.000000	99.310525
2074.000000	99.318733
2073.000000	99.334083
2072.000000	99.347081
2071.000000	99.351082
2070.000000	99.348477
2069.000000	99.347342
2068.000000	99.354720
2067.000000	99.371397
2066.000000	99.390756
2065.000000	99.403637
2064.000000	99.406173
2063.000000	99.401738
2062.000000	99.395111
2061.000000	99.387823
2060.000000	99.379095
2059.000000	99.368210
2058.000000	99.355588
2057.000000	99.343650
2056.000000	99.335734
2055.000000	99.331244
2054.000000	99.323983
2053.000000	99.310190
2052.000000	99.296411
2051.000000	99.293558
2050.000000	99.303173
2049.000000	99.314046
2048.000000	99.315065
2047.000000	99.309343
2046.000000	99.312587
2045.000000	99.339274
2044.000000	99.388889
2043.000000	99.441246
2042.000000	99.467594
2041.000000	99.454373
2040.000000	99.415714
2039.000000	99.372969
2038.000000	99.328670
2037.000000	99.276630
2036.000000	99.232236
2035.000000	99.230681
2034.000000	99.287673
2033.000000	99.377147
2032.000000	99.457728
2031.000000	99.511439
2030.000000	99.545072
2029.000000	99.566303
2028.000000	99.572884
2027.000000	99.559025
2026.000000	99.523936
2025.000000	99.478307
2024.000000	99.441341
2023.000000	99.422230
2022.000000	99.406997
2021.000000	99.374366
2020.000000	99.325212
2019.000000	99.284705
2018.000000	99.274847
2017.000000	99.295099
2016.000000	99.330171
2015.000000	99.366299
2014.000000	99.393697
2013.000000	99.403676
2012.000000	99.393040
2011.000000	99.368376
2010.000000	99.344866
2009.000000	99.345307
2008.000000	99.391215
2007.000000	99.477990
2006.000000	99.562252
2005.000000	99.593136
2004.000000	99.561910
2003.000000	99.506248
2002.000000	99.465644
2001.000000	99.447686
2000.000000	99.435298
1999.000000	99.411685
1998.000000	99.375578
1997.000000	99.343949
1996.000000	99.342847
1995.000000	99.385071
1994.000000	99.451652
1993.000000	99.500469
1992.000000	99.502138
1991.000000	99.465854
1990.000000	99.421913
1989.000000	99.391647
1988.000000	99.381487
1987.000000	99.387968
1986.000000	99.396788
1985.000000	99.388468
1984.000000	99.358360
1983.000000	99.325991
1982.000000	99.315066
1981.000000	99.328763
1980.000000	99.352645
1979.000000	99.376478
1978.000000	99.401228
1977.000000	99.423830
1976.000000	99.429451
1975.000000	99.408979
1974.000000	99.376733
1973.000000	99.361811
1972.000000	99.379816
1971.000000	99.416309
1970.000000	99.442893
1969.000000	99.447531
1968.000000	99.442728
1967.000000	99.443499
1966.000000	99.449612
1965.000000	99.457024
1964.000000	99.470251
1963.000000	99.488585
1962.000000	99.493991
1961.000000	99.473368
1960.000000	99.447202
1959.000000	99.450787
1958.000000	99.486690
1957.000000	99.518402
1956.000000	99.514584
1955.000000	99.481656
1954.000000	99.447765
1953.000000	99.431013
1952.000000	99.431057
1951.000000	99.440574
1950.000000	99.453086
1949.000000	99.462712
1948.000000	99.465133
1947.000000	99.459635
1946.000000	99.448917
1945.000000	99.438440
1944.000000	99.434229
1943.000000	99.436658
1942.000000	99.438579
1941.000000	99.436860
1940.000000	99.440068
1939.000000	99.455289
1938.000000	99.473951
1937.000000	99.479425
1936.000000	99.467617
1935.000000	99.449487
1934.000000	99.432780
1933.000000	99.415674
1932.000000	99.401480
1931.000000	99.404640
1930.000000	99.431531
1929.000000	99.464585
1928.000000	99.478287
1927.000000	99.466729
1926.000000	99.446904
1925.000000	99.437257
1924.000000	99.441277
1923.000000	99.450149
1922.000000	99.455422
1921.000000	99.457581
1920.000000	99.462268
1919.000000	99.470791
1918.000000	99.475422
1917.000000	99.467234
1916.000000	99.449361
1915.000000	99.433267
1914.000000	99.425770
1913.000000	99.425723
1912.000000	99.429115
1911.000000	99.433489
1910.000000	99.436685
1909.000000	99.436606
1908.000000	99.435296
1907.000000	99.437237
1906.000000	99.442659
1905.000000	99.445973
1904.000000	99.442579
1903.000000	99.433635
1902.000000	99.422428
1901.000000	99.412001
1900.000000	99.406945
1899.000000	99.410621
1898.000000	99.419719
1897.000000	99.426415
1896.000000	99.428414
1895.000000	99.431728
1894.000000	99.439454
1893.000000	99.445129
1892.000000	99.442466
1891.000000	99.435627
1890.000000	99.434772
1889.000000	99.443119
1888.000000	99.453134
1887.000000	99.455189
1886.000000	99.445030
1885.000000	99.426581
1884.000000	99.411518
1883.000000	99.410961
1882.000000	99.423691
1881.000000	99.436414
1880.000000	99.438690
1879.000000	99.433835
1878.000000	99.432208
1877.000000	99.437568
1876.000000	99.444987
1875.000000	99.450994
1874.000000	99.458588
1873.000000	99.470712
1872.000000	99.484253
1871.000000	99.492922
1870.000000	99.493622
1869.000000	99.489228
1868.000000	99.485463
1867.000000	99.483376
1866.000000	99.477888
1865.000000	99.466524
1864.000000	99.454766
1863.000000	99.450453
1862.000000	99.454998
1861.000000	99.462892
1860.000000	99.469472
1859.000000	99.475321
1858.000000	99.482068
1857.000000	99.488362
1856.000000	99.492390
1855.000000	99.494811
1854.000000	99.497440
1853.000000	99.500865
1852.000000	99.504903
1851.000000	99.507818
1850.000000	99.506986
1849.000000	99.502525
1848.000000	99.498576
1847.000000	99.498632
1846.000000	99.500290
1845.000000	99.498549
1844.000000	99.494197
1843.000000	99.493977
1842.000000	99.499017
1841.000000	99.503840
1840.000000	99.506189
1839.000000	99.507759
1838.000000	99.508260
1837.000000	99.503886
1836.000000	99.494324
1835.000000	99.485896
1834.000000	99.483993
1833.000000	99.487265
1832.000000	99.491485
1831.000000	99.495048
1830.000000	99.499425
1829.000000	99.504900
1828.000000	99.508725
1827.000000	99.507561
1826.000000	99.501051
1825.000000	99.493486
1824.000000	99.491356
1823.000000	99.496929
1822.000000	99.504952
1821.000000	99.508430
1820.000000	99.505173
1819.000000	99.498439
1818.000000	99.492779
1817.000000	99.489894
1816.000000	99.489465
1815.000000	99.491184
1814.000000	99.494207
1813.000000	99.498460
1812.000000	99.504873
1811.000000	99.512827
1810.000000	99.517510
1809.000000	99.513276
1808.000000	99.502065
1807.000000	99.492544
1806.000000	99.489214
1805.000000	99.486951
1804.000000	99.478035
1803.000000	99.461401
1802.000000	99.442010
1801.000000	99.425127
1800.000000	99.412226
1799.000000	99.402199
1798.000000	99.393944
1797.000000	99.388234
1796.000000	99.388086
1795.000000	99.395597
1794.000000	99.408649
1793.000000	99.422492
1792.000000	99.433485
1791.000000	99.442558
1790.000000	99.451580
1789.000000	99.458238
1788.000000	99.459802
1787.000000	99.457553
1786.000000	99.456066
1785.000000	99.459065
1784.000000	99.466279
1783.000000	99.473736
1782.000000	99.476390
1781.000000	99.474550
1780.000000	99.473782
1779.000000	99.478267
1778.000000	99.486081
1777.000000	99.493117
1776.000000	99.499940
1775.000000	99.508914
1774.000000	99.518610
1773.000000	99.524573
1772.000000	99.524599
1771.000000	99.521004
1770.000000	99.515537
1769.000000	99.508056
1768.000000	99.501644
1767.000000	99.501870
1766.000000	99.508519
1765.000000	99.514378
1764.000000	99.513762
1763.000000	99.507712
1762.000000	99.500766
1761.000000	99.496697
1760.000000	99.495348
1759.000000	99.494104
1758.000000	99.491013
1757.000000	99.487471
1756.000000	99.488248
1755.000000	99.494237
1754.000000	99.499568
1753.000000	99.499016
1752.000000	99.494232
1751.000000	99.490068
1750.000000	99.486466
1749.000000	99.477632
1748.000000	99.463126
1747.000000	99.449300
1746.000000	99.437856
1745.000000	99.424685
1744.000000	99.408151
1743.000000	99.393510
1742.000000	99.384990
1741.000000	99.378637
1740.000000	99.369518
1739.000000	99.361609
1738.000000	99.360084
1737.000000	99.361680
1736.000000	99.362279
1735.000000	99.365162
1734.000000	99.375043
1733.000000	99.385731
1732.000000	99.386688
1731.000000	99.374456
1730.000000	99.355453
1729.000000	99.340025
1728.000000	99.336346
1727.000000	99.343767
1726.000000	99.353489
1725.000000	99.356835
1724.000000	99.352286
1723.000000	99.347355
1722.000000	99.348683
1721.000000	99.353589
1720.000000	99.356362
1719.000000	99.355432
1718.000000	99.351140
1717.000000	99.339672
1716.000000	99.320583
1715.000000	99.300637
1714.000000	99.285433
1713.000000	99.275650
1712.000000	99.268989
1711.000000	99.262969
1710.000000	99.255242
1709.000000	99.244713
1708.000000	99.232868
1707.000000	99.221075
1706.000000	99.207596
1705.000000	99.189936
1704.000000	99.171798
1703.000000	99.156587
1702.000000	99.138896
1701.000000	99.109820
1700.000000	99.076899
1699.000000	99.061879
1698.000000	99.055312
1697.000000	99.030315
1696.000000	98.981891
1695.000000	98.935308
1694.000000	98.908303
1693.000000	98.886881
1692.000000	98.858543
1691.000000	98.824632
1690.000000	98.788944
1689.000000	98.752702
1688.000000	98.718598
1687.000000	98.687779
1686.000000	98.652920
1685.000000	98.599530
1684.000000	98.531552
1683.000000	98.481377
1682.000000	98.449342
1681.000000	98.409333
1680.000000	98.356345
1679.000000	98.304126
1678.000000	98.260757
1677.000000	98.215688
1676.000000	98.154215
1675.000000	98.082045
1674.000000	98.021484
1673.000000	97.976312
1672.000000	97.931272
1671.000000	97.875957
1670.000000	97.807972
1669.000000	97.732200
1668.000000	97.661516
1667.000000	97.603991
1666.000000	97.555140
1665.000000	97.503480
1664.000000	97.439179
1663.000000	97.364797
1662.000000	97.294270
1661.000000	97.236007
1660.000000	97.186611
1659.000000	97.142700
1658.000000	97.105815
1657.000000	97.077709
1656.000000	97.057933
1655.000000	97.042217
1654.000000	97.013406
1653.000000	96.950701
1652.000000	96.894428
1651.000000	96.875131
1650.000000	96.870077
1649.000000	96.865657
1648.000000	96.853007
1647.000000	96.826375
1646.000000	96.797543
1645.000000	96.782477
1644.000000	96.777758
1643.000000	96.776316
1642.000000	96.776092
1641.000000	96.776719
1640.000000	96.779598
1639.000000	96.787997
1638.000000	96.803805
1637.000000	96.820776
1636.000000	96.824919
1635.000000	96.812087
1634.000000	96.798306
1633.000000	96.790743
1632.000000	96.787492
1631.000000	96.790442
1630.000000	96.802231
1629.000000	96.822755
1628.000000	96.849580
1627.000000	96.880139
1626.000000	96.912210
1625.000000	96.945160
1624.000000	96.980448
1623.000000	97.019930
1622.000000	97.062059
1621.000000	97.104065
1620.000000	97.146377
1619.000000	97.192813
1618.000000	97.247706
1617.000000	97.310075
1616.000000	97.370858
1615.000000	97.421371
1614.000000	97.461714
1613.000000	97.497839
1612.000000	97.535077
1611.000000	97.574575
1610.000000	97.613762
1609.000000	97.650931
1608.000000	97.686853
1607.000000	97.722213
1606.000000	97.756383
1605.000000	97.790470
1604.000000	97.826730
1603.000000	97.864339
1602.000000	97.899126
1601.000000	97.927435
1600.000000	97.948850
1599.000000	97.965289
1598.000000	97.980145
1597.000000	97.997338
1596.000000	98.018052
1595.000000	98.038934
1594.000000	98.055853
1593.000000	98.069202
1592.000000	98.082159
1591.000000	98.094828
1590.000000	98.104043
1589.000000	98.108877
1588.000000	98.112085
1587.000000	98.115456
1586.000000	98.117763
1585.000000	98.117104
1584.000000	98.112612
1583.000000	98.101753
1582.000000	98.082968
1581.000000	98.060845
1580.000000	98.042802
1579.000000	98.030684
1578.000000	98.020356
1577.000000	98.007364
1576.000000	97.991699
1575.000000	97.976283
1574.000000	97.960715
1573.000000	97.945159
1572.000000	97.932004
1571.000000	97.918467
1570.000000	97.894780
1569.000000	97.858408
1568.000000	97.822992
1567.000000	97.795568
1566.000000	97.770607
1565.000000	97.742949
1564.000000	97.715103
1563.000000	97.691969
1562.000000	97.673492
1561.000000	97.654580
1560.000000	97.624933
1559.000000	97.565255
1558.000000	97.490385
1557.000000	97.437273
1556.000000	97.391131
1555.000000	97.340572
1554.000000	97.290346
1553.000000	97.247993
1552.000000	97.210850
1551.000000	97.170576
1550.000000	97.126466
1549.000000	97.086281
1548.000000	97.055705
1547.000000	97.028786
1546.000000	96.995911
1545.000000	96.954421
1544.000000	96.911493
1543.000000	96.877544
1542.000000	96.856047
1541.000000	96.839787
1540.000000	96.822274
1539.000000	96.813517
1538.000000	96.821403
1537.000000	96.837492
1536.000000	96.857801
1535.000000	96.886884
1534.000000	96.927115
1533.000000	96.972365
1532.000000	97.015487
1531.000000	97.056601
1530.000000	97.095316
1529.000000	97.127551
1528.000000	97.152110
1527.000000	97.175774
1526.000000	97.206837
1525.000000	97.245218
1524.000000	97.283257
1523.000000	97.313750
1522.000000	97.331147
1521.000000	97.334857
1520.000000	97.338443
1519.000000	97.350714
1518.000000	97.364295
1517.000000	97.370514
1516.000000	97.371778
1515.000000	97.379703
1514.000000	97.395585
1513.000000	97.411620
1512.000000	97.424039
1511.000000	97.436197
1510.000000	97.451342
1509.000000	97.470076
1508.000000	97.494874
1507.000000	97.525493
1506.000000	97.549104
1505.000000	97.558645
1504.000000	97.554959
1503.000000	97.544652
1502.000000	97.535326
1501.000000	97.528701
1500.000000	97.524610
1499.000000	97.523643
1498.000000	97.521885
1497.000000	97.509111
1496.000000	97.484022
1495.000000	97.460042
1494.000000	97.441569
1493.000000	97.419862
1492.000000	97.389865
1491.000000	97.357286
1490.000000	97.329924
1489.000000	97.305608
1488.000000	97.278333
1487.000000	97.247492
1486.000000	97.213117
1485.000000	97.174622
1484.000000	97.134938
1483.000000	97.094914
1482.000000	97.050434
1481.000000	96.998137
1480.000000	96.942465
1479.000000	96.888215
1478.000000	96.830679
1477.000000	96.762812
1476.000000	96.688080
1475.000000	96.616941
1474.000000	96.546691
1473.000000	96.465002
1472.000000	96.378209
1471.000000	96.307625
1470.000000	96.251733
1469.000000	96.194787
1468.000000	96.132146
1467.000000	96.069963
1466.000000	96.012319
1465.000000	95.957639
1464.000000	95.907346
1463.000000	95.864760
1462.000000	95.826560
1461.000000	95.787146
1460.000000	95.747170
1459.000000	95.708261
1458.000000	95.659475
1457.000000	95.584460
1456.000000	95.505540
1455.000000	95.453905
1454.000000	95.418689
1453.000000	95.383788
1452.000000	95.347533
1451.000000	95.314241
1450.000000	95.282681
1449.000000	95.247592
1448.000000	95.210408
1447.000000	95.179345
1446.000000	95.154996
1445.000000	95.130650
1444.000000	95.102848
1443.000000	95.073734
1442.000000	95.046099
1441.000000	95.020600
1440.000000	94.997284
1439.000000	94.973966
1438.000000	94.945824
1437.000000	94.910384
1436.000000	94.876934
1435.000000	94.855897
1434.000000	94.841142
1433.000000	94.823337
1432.000000	94.803592
1431.000000	94.786230
1430.000000	94.769256
1429.000000	94.748588
1428.000000	94.727544
1427.000000	94.711595
1426.000000	94.698242
1425.000000	94.683548
1424.000000	94.669431
1423.000000	94.658453
1422.000000	94.646118
1421.000000	94.625591
1420.000000	94.599717
1419.000000	94.581627
1418.000000	94.578533
1417.000000	94.584392
1416.000000	94.593808
1415.000000	94.607482
1414.000000	94.625939
1413.000000	94.648701
1412.000000	94.676649
1411.000000	94.709168
1410.000000	94.741871
1409.000000	94.771351
1408.000000	94.799123
1407.000000	94.828458
1406.000000	94.859413
1405.000000	94.890910
1404.000000	94.922660
1403.000000	94.951428
1402.000000	94.970960
1401.000000	94.978423
1400.000000	94.978811
1399.000000	94.980128
1398.000000	94.986272
1397.000000	94.999063
1396.000000	95.024207
1395.000000	95.066468
1394.000000	95.119436
1393.000000	95.172758
1392.000000	95.223440
1391.000000	95.273296
1390.000000	95.323382
1389.000000	95.375054
1388.000000	95.431921
1387.000000	95.494975
1386.000000	95.558960
1385.000000	95.619283
1384.000000	95.676071
1383.000000	95.729581
1382.000000	95.778170
1381.000000	95.822332
1380.000000	95.867152
1379.000000	95.916223
1378.000000	95.966554
1377.000000	96.013503
1376.000000	96.057600
1375.000000	96.103291
1374.000000	96.153372
1373.000000	96.207716
1372.000000	96.264044
1371.000000	96.317963
1370.000000	96.365804
1369.000000	96.409680
1368.000000	96.454800
1367.000000	96.501456
1366.000000	96.545241
1365.000000	96.585327
1364.000000	96.627392
1363.000000	96.676234
1362.000000	96.729232
1361.000000	96.781597
1360.000000	96.831513
1359.000000	96.876606
1358.000000	96.913106
1357.000000	96.940877
1356.000000	96.965084
1355.000000	96.990753
1354.000000	97.018199
1353.000000	97.044980
1352.000000	97.069609
1351.000000	97.092096
1350.000000	97.111843
1349.000000	97.128439
1348.000000	97.141854
1347.000000	97.151882
1346.000000	97.159276
1345.000000	97.166415
1344.000000	97.174208
1343.000000	97.179225
1342.000000	97.177415
1341.000000	97.170251
1340.000000	97.164323
1339.000000	97.164764
1338.000000	97.172674
1337.000000	97.188379
1336.000000	97.211549
1335.000000	97.238453
1334.000000	97.263611
1333.000000	97.285431
1332.000000	97.307064
1331.000000	97.330656
1330.000000	97.353744
1329.000000	97.372753
1328.000000	97.387279
1327.000000	97.399803
1326.000000	97.413275
1325.000000	97.429955
1324.000000	97.449376
1323.000000	97.467046
1322.000000	97.478163
1321.000000	97.483056
1320.000000	97.487275
1319.000000	97.496459
1318.000000	97.512555
1317.000000	97.533913
1316.000000	97.556362
1315.000000	97.574937
1314.000000	97.588168
1313.000000	97.600972
1312.000000	97.619947
1311.000000	97.645618
1310.000000	97.672202
1309.000000	97.694698
1308.000000	97.712664
1307.000000	97.727668
1306.000000	97.740472
1305.000000	97.751841
1304.000000	97.763008
1303.000000	97.774231
1302.000000	97.784715
1301.000000	97.794472
1300.000000	97.804678
1299.000000	97.815877
1298.000000	97.827291
1297.000000	97.837864
1296.000000	97.846950
1295.000000	97.854217
1294.000000	97.860071
1293.000000	97.865248
1292.000000	97.868643
1291.000000	97.866880
1290.000000	97.857887
1289.000000	97.844257
1288.000000	97.831321
1287.000000	97.822742
1286.000000	97.819234
1285.000000	97.819993
1284.000000	97.823070
1283.000000	97.825556
1282.000000	97.826242
1281.000000	97.827696
1280.000000	97.833355
1279.000000	97.842635
1278.000000	97.851255
1277.000000	97.856319
1276.000000	97.859211
1275.000000	97.863386
1274.000000	97.870866
1273.000000	97.880854
1272.000000	97.890454
1271.000000	97.897028
1270.000000	97.900600
1269.000000	97.903009
1268.000000	97.904453
1267.000000	97.903128
1266.000000	97.899617
1265.000000	97.898214
1264.000000	97.901030
1263.000000	97.903453
1262.000000	97.899210
1261.000000	97.888598
1260.000000	97.877501
1259.000000	97.869253
1258.000000	97.861942
1257.000000	97.853478
1256.000000	97.844897
1255.000000	97.837728
1254.000000	97.831475
1253.000000	97.824877
1252.000000	97.817385
1251.000000	97.808430
1250.000000	97.796976
1249.000000	97.782502
1248.000000	97.765169
1247.000000	97.744863
1246.000000	97.721914
1245.000000	97.698579
1244.000000	97.677786
1243.000000	97.660033
1242.000000	97.643412
1241.000000	97.627265
1240.000000	97.613885
1239.000000	97.605793
1238.000000	97.602675
1237.000000	97.602356
1236.000000	97.603525
1235.000000	97.606478
1234.000000	97.612067
1233.000000	97.620538
1232.000000	97.631156
1231.000000	97.642554
1230.000000	97.654086
1229.000000	97.667059
1228.000000	97.683811
1227.000000	97.706137
1226.000000	97.735072
1225.000000	97.771071
1224.000000	97.812674
1223.000000	97.855281
1222.000000	97.893467
1221.000000	97.924769
1220.000000	97.950187
1219.000000	97.971718
1218.000000	97.991204
1217.000000	98.010627
1216.000000	98.030769
1215.000000	98.049292
1214.000000	98.061634
1213.000000	98.064923
1212.000000	98.060273
1211.000000	98.051948
1210.000000	98.045074
1209.000000	98.042737
1208.000000	98.043869
1207.000000	98.044410
1206.000000	98.041854
1205.000000	98.038084
1204.000000	98.036583
1203.000000	98.038246
1202.000000	98.041828
1201.000000	98.047321
1200.000000	98.056111
1199.000000	98.068290
1198.000000	98.082306
1197.000000	98.097330
1196.000000	98.113871
1195.000000	98.131946
1194.000000	98.150950
1193.000000	98.171157
1192.000000	98.193243
1191.000000	98.216304
1190.000000	98.238403
1189.000000	98.258854
1188.000000	98.277633
1187.000000	98.292936
1186.000000	98.302397
1185.000000	98.307384
1184.000000	98.313026
1183.000000	98.322776
1182.000000	98.334958
1181.000000	98.345639
1180.000000	98.353267
1179.000000	98.358910
1178.000000	98.363638
1177.000000	98.367662
1176.000000	98.371154
1175.000000	98.374147
1174.000000	98.375447
1173.000000	98.372912
1172.000000	98.365596
1171.000000	98.355424
1170.000000	98.346258
1169.000000	98.340613
1168.000000	98.337400
1167.000000	98.333832
1166.000000	98.329415
1165.000000	98.326443
1164.000000	98.325797
1163.000000	98.324297
1162.000000	98.318209
1161.000000	98.308197
1160.000000	98.298482
1159.000000	98.291804
1158.000000	98.287704
1157.000000	98.285481
1156.000000	98.286077
1155.000000	98.290144
1154.000000	98.296444
1153.000000	98.303577
1152.000000	98.311621
1151.000000	98.321044
1150.000000	98.331296
1149.000000	98.341767
1148.000000	98.353232
1147.000000	98.366972
1146.000000	98.383084
1145.000000	98.400318
1144.000000	98.416993
1143.000000	98.431363
1142.000000	98.441832
1141.000000	98.447929
1140.000000	98.451375
1139.000000	98.455878
1138.000000	98.465116
1137.000000	98.479872
1136.000000	98.496438
1135.000000	98.508404
1134.000000	98.511410
1133.000000	98.506501
1132.000000	98.498806
1131.000000	98.493189
1130.000000	98.490832
1129.000000	98.488980
1128.000000	98.483391
1127.000000	98.472404
1126.000000	98.459466
1125.000000	98.450698
1124.000000	98.448715
1123.000000	98.449330
1122.000000	98.445462
1121.000000	98.433952
1120.000000	98.417837
1119.000000	98.402992
1118.000000	98.394076
1117.000000	98.392666
1116.000000	98.396873
1115.000000	98.401887
1114.000000	98.402478
1113.000000	98.396368
1112.000000	98.385389
1111.000000	98.373629
1110.000000	98.364881
1109.000000	98.360977
1108.000000	98.360938
1107.000000	98.361509
1106.000000	98.359562
1105.000000	98.354539
1104.000000	98.348153
1103.000000	98.341847
1102.000000	98.335350
1101.000000	98.327636
1100.000000	98.318111
1099.000000	98.307193
1098.000000	98.296365
1097.000000	98.288244
1096.000000	98.285235
1095.000000	98.286883
1094.000000	98.288652
1093.000000	98.284306
1092.000000	98.270321
1091.000000	98.248448
1090.000000	98.223976
1089.000000	98.201116
1088.000000	98.179698
1087.000000	98.156353
1086.000000	98.129012
1085.000000	98.099783
1084.000000	98.073423
1083.000000	98.053321
1082.000000	98.039485
1081.000000	98.029887
1080.000000	98.023110
1079.000000	98.019448
1078.000000	98.020182
1077.000000	98.026855
1076.000000	98.040489
1075.000000	98.060722
1074.000000	98.084840
1073.000000	98.107928
1072.000000	98.124597
1071.000000	98.131584
1070.000000	98.129642
1069.000000	98.122988
1068.000000	98.116510
1067.000000	98.113028
1066.000000	98.112692
1065.000000	98.114005
1064.000000	98.115089
1063.000000	98.114504
1062.000000	98.111724
1061.000000	98.107256
1060.000000	98.102255
1059.000000	98.097730
1058.000000	98.093662
1057.000000	98.088627
1056.000000	98.080845
1055.000000	98.070355
1054.000000	98.060073
1053.000000	98.053714
1052.000000	98.052116
1051.000000	98.051924
1050.000000	98.048395
1049.000000	98.039556
1048.000000	98.027546
1047.000000	98.016067
1046.000000	98.006395
1045.000000	97.995867
1044.000000	97.981183
1043.000000	97.963728
1042.000000	97.950544
1041.000000	97.947875
1040.000000	97.953542
1039.000000	97.957096
1038.000000	97.948307
1037.000000	97.925079
1036.000000	97.893550
1035.000000	97.862408
1034.000000	97.837577
1033.000000	97.820039
1032.000000	97.806899
1031.000000	97.795089
1030.000000	97.784988
1029.000000	97.780537
1028.000000	97.785281
1027.000000	97.799116
1026.000000	97.818739
1025.000000	97.839575
1024.000000	97.856761
1023.000000	97.866553
1022.000000	97.869336
1021.000000	97.869994
1020.000000	97.872910
1019.000000	97.877412
1018.000000	97.880648
1017.000000	97.884286
1016.000000	97.894778
1015.000000	97.916315
1014.000000	97.946573
1013.000000	97.980588
1012.000000	98.016006
1011.000000	98.052186
1010.000000	98.086435
1009.000000	98.114789
1008.000000	98.136661
1007.000000	98.156443
1006.000000	98.179604
1005.000000	98.208113
1004.000000	98.239682
1003.000000	98.270398
1002.000000	98.297236
1001.000000	98.318811
1000.000000	98.335448
999.000000	98.349647
998.000000	98.366047
997.000000	98.389297
996.000000	98.420603
995.000000	98.455994
994.000000	98.488250
993.000000	98.511677
992.000000	98.526312
991.000000	98.538773
990.000000	98.558126
989.000000	98.588534
988.000000	98.624598
987.000000	98.655027
986.000000	98.672327
985.000000	98.679763
984.000000	98.688573
983.000000	98.708487
982.000000	98.740531
981.000000	98.777179
980.000000	98.808420
979.000000	98.828173
978.000000	98.836514
977.000000	98.837427
976.000000	98.835415
975.000000	98.834154
974.000000	98.836461
973.000000	98.843379
972.000000	98.853660
971.000000	98.865834
970.000000	98.880787
969.000000	98.900323
968.000000	98.922993
967.000000	98.943482
966.000000	98.957580
965.000000	98.966631
964.000000	98.975628
963.000000	98.988024
962.000000	99.003515
961.000000	99.019830
960.000000	99.034659
959.000000	99.045745
958.000000	99.051155
957.000000	99.051249
956.000000	99.050139
955.000000	99.053544
954.000000	99.063963
953.000000	99.078205
952.000000	99.090768
951.000000	99.099520
950.000000	99.106584
949.000000	99.113927
948.000000	99.120684
947.000000	99.125649
946.000000	99.129882
945.000000	99.134799
944.000000	99.139969
943.000000	99.145308
942.000000	99.153471
941.000000	99.166401
940.000000	99.180416
939.000000	99.188622
938.000000	99.188430
937.000000	99.183890
936.000000	99.180278
935.000000	99.179592
934.000000	99.181552
933.000000	99.185693
932.000000	99.191362
931.000000	99.198221
930.000000	99.207518
929.000000	99.220062
928.000000	99.232150
927.000000	99.237034
926.000000	99.232763
925.000000	99.226141
924.000000	99.226640
923.000000	99.237678
922.000000	99.255457
921.000000	99.274455
920.000000	99.291363
919.000000	99.304886
918.000000	99.314829
917.000000	99.322368
916.000000	99.329746
915.000000	99.338854
914.000000	99.350192
913.000000	99.362802
912.000000	99.374425
911.000000	99.381985
910.000000	99.383346
909.000000	99.380191
908.000000	99.379101
907.000000	99.387718
906.000000	99.407677
905.000000	99.431274
904.000000	99.447375
903.000000	99.451452
902.000000	99.448412
901.000000	99.446081
900.000000	99.448597
899.000000	99.456200
898.000000	99.467382
897.000000	99.478828
896.000000	99.487139
895.000000	99.493786
894.000000	99.505038
893.000000	99.522992
892.000000	99.539904
891.000000	99.546328
890.000000	99.542599
889.000000	99.535893
888.000000	99.526567
887.000000	99.502976
886.000000	99.451023
885.000000	99.364150
884.000000	99.242123
883.000000	99.084045
882.000000	98.882277
881.000000	98.623260
880.000000	98.297438
879.000000	97.915897
878.000000	97.517826
877.000000	97.158612
876.000000	96.889303
875.000000	96.744304
874.000000	96.740030
873.000000	96.873621
872.000000	97.123591
871.000000	97.451952
870.000000	97.809708
869.000000	98.145867
868.000000	98.419899
867.000000	98.617124
866.000000	98.752768
865.000000	98.853982
864.000000	98.934735
863.000000	98.993424
862.000000	99.031311
861.000000	99.062889
860.000000	99.102748
859.000000	99.149866
858.000000	99.191141
857.000000	99.216007
856.000000	99.224440
855.000000	99.225227
854.000000	99.230731
853.000000	99.248608
852.000000	99.273322
851.000000	99.289040
850.000000	99.285512
849.000000	99.269420
848.000000	99.257899
847.000000	99.263432
846.000000	99.286854
845.000000	99.320729
844.000000	99.355114
843.000000	99.382530
842.000000	99.401311
841.000000	99.413723
840.000000	99.420981
839.000000	99.423686
838.000000	99.426646
837.000000	99.436604
836.000000	99.452827
835.000000	99.466641
834.000000	99.474035
833.000000	99.482405
832.000000	99.498631
831.000000	99.516356
830.000000	99.523010
829.000000	99.516353
828.000000	99.506628
827.000000	99.503250
826.000000	99.506407
825.000000	99.511298
824.000000	99.514139
823.000000	99.513687
822.000000	99.511999
821.000000	99.513650
820.000000	99.519989
819.000000	99.525021
818.000000	99.521227
817.000000	99.508505
816.000000	99.493463
815.000000	99.481461
814.000000	99.473950
813.000000	99.472299
812.000000	99.477921
811.000000	99.487548
810.000000	99.494137
809.000000	99.495473
808.000000	99.497794
807.000000	99.507584
806.000000	99.522269
805.000000	99.532209
804.000000	99.530959
803.000000	99.520755
802.000000	99.508657
801.000000	99.500058
800.000000	99.496144
799.000000	99.495061
798.000000	99.493406
797.000000	99.487967
796.000000	99.479299
795.000000	99.474037
794.000000	99.480437
793.000000	99.499020
792.000000	99.519321
791.000000	99.528801
790.000000	99.524711
789.000000	99.515073
788.000000	99.508962
787.000000	99.508899
786.000000	99.512146
785.000000	99.515320
784.000000	99.516575
783.000000	99.515710
782.000000	99.513381
781.000000	99.508637
780.000000	99.497911
779.000000	99.479939
778.000000	99.461871
777.000000	99.455827
776.000000	99.466631
775.000000	99.485369
774.000000	99.497466
773.000000	99.495771
772.000000	99.484553
771.000000	99.473166
770.000000	99.468061
769.000000	99.469437
768.000000	99.472737
767.000000	99.472706
766.000000	99.467064
765.000000	99.457395
764.000000	99.447942
763.000000	99.444401
762.000000	99.451340
761.000000	99.467638
760.000000	99.485079
759.000000	99.494419
758.000000	99.492942
757.000000	99.483741
756.000000	99.469317
755.000000	99.450620
754.000000	99.432303
753.000000	99.423061
752.000000	99.427513
751.000000	99.440790
750.000000	99.453444
749.000000	99.459863
748.000000	99.460469
747.000000	99.458394
746.000000	99.456563
745.000000	99.457132
744.000000	99.461848
743.000000	99.471993
742.000000	99.486298
741.000000	99.498233
740.000000	99.498595
739.000000	99.484656
738.000000	99.465165
737.000000	99.452141
736.000000	99.448497
735.000000	99.446824
734.000000	99.438677
733.000000	99.421379
732.000000	99.398981
731.000000	99.381614
730.000000	99.379853
729.000000	99.391215
728.000000	99.396022
727.000000	99.377159
726.000000	99.342882
725.000000	99.319776
724.000000	99.321542
723.000000	99.335295
722.000000	99.340616
721.000000	99.331964
720.000000	99.317240
719.000000	99.301650
718.000000	99.276778
717.000000	99.217809
716.000000	99.091937
715.000000	98.888221
714.000000	98.652137
713.000000	98.476394
712.000000	98.435821
711.000000	98.527233
710.000000	98.681271
709.000000	98.827329
708.000000	98.937624
707.000000	99.018236
706.000000	99.077851
705.000000	99.116020
704.000000	99.132173
703.000000	99.133066
702.000000	99.129405
701.000000	99.127742
700.000000	99.126287
699.000000	99.120401
698.000000	99.111087
697.000000	99.104944
696.000000	99.104931
695.000000	99.105860
694.000000	99.104142
693.000000	99.105851
692.000000	99.117432
691.000000	99.133628
690.000000	99.141011
689.000000	99.131326
688.000000	99.106573
687.000000	99.073827
686.000000	99.043821
685.000000	99.030246
684.000000	99.038617
683.000000	99.056713
682.000000	99.065328
681.000000	99.059346
680.000000	99.051675
679.000000	99.056809
678.000000	99.075544
677.000000	99.093889
676.000000	99.095742
675.000000	99.078398
674.000000	99.055937
673.000000	99.046545
672.000000	99.055599
671.000000	99.074228
670.000000	99.092163
669.000000	99.105700
668.000000	99.103550
667.000000	99.073322
666.000000	99.041020
665.000000	99.017887
664.000000	99.003004
663.000000	98.998757
662.000000	99.001375
661.000000	99.001849
660.000000	98.995311
659.000000	98.985741
658.000000	98.981446
657.000000	98.986690
656.000000	98.999303
655.000000	99.011518
654.000000	99.011643
653.000000	98.993812
652.000000	98.968557
651.000000	98.955817
650.000000	98.965180
649.000000	98.986612
648.000000	99.003060
647.000000	99.005883
646.000000	98.997644
645.000000	98.987519
644.000000	98.984885
643.000000	98.992257
642.000000	99.003340
641.000000	99.009830
640.000000	99.009641
639.000000	99.006092
638.000000	99.000692
637.000000	98.991457
636.000000	98.978445
635.000000	98.965948
634.000000	98.958944
633.000000	98.960298
632.000000	98.969640
631.000000	98.981344
630.000000	98.984774
629.000000	98.972203
628.000000	98.948101
627.000000	98.927564
626.000000	98.923147
625.000000	98.934747
624.000000	98.952009
623.000000	98.963675
622.000000	98.964707
621.000000	98.957234
620.000000	98.945762
619.000000	98.932157
618.000000	98.915414
617.000000	98.895663
616.000000	98.877073
615.000000	98.866122
614.000000	98.867002
613.000000	98.877326
612.000000	98.887596
611.000000	98.887993
610.000000	98.878924
609.000000	98.870970
608.000000	98.871089
607.000000	98.874334
606.000000	98.875854
605.000000	98.885385
604.000000	98.914799
603.000000	98.952562
602.000000	98.968016
601.000000	98.947216
600.000000	98.910160
599.000000	98.885626
598.000000	98.881515
597.000000	98.888982
596.000000	98.902483
595.000000	98.920956
594.000000	98.937238
593.000000	98.941208
592.000000	98.933000
591.000000	98.922967
590.000000	98.918616
589.000000	98.918896
588.000000	98.919330
587.000000	98.915222
586.000000	98.902806
585.000000	98.883580
584.000000	98.865479
583.000000	98.854424
582.000000	98.848462
581.000000	98.844695
580.000000	98.846153
579.000000	98.854398
578.000000	98.861204
577.000000	98.856738
576.000000	98.842176
575.000000	98.828452
574.000000	98.824931
573.000000	98.835168
572.000000	98.859060
571.000000	98.889162
570.000000	98.909442
569.000000	98.908568
568.000000	98.891705
567.000000	98.871972
566.000000	98.857057
565.000000	98.850909
564.000000	98.859141
563.000000	98.877770
562.000000	98.884473
561.000000	98.859441
560.000000	98.813435
559.000000	98.778383
558.000000	98.768521
557.000000	98.767721
556.000000	98.759346
555.000000	98.751238
554.000000	98.760088
553.000000	98.782789
552.000000	98.799190
551.000000	98.798629
550.000000	98.792112
549.000000	98.796277
548.000000	98.810337
547.000000	98.813334
546.000000	98.787272
545.000000	98.742233
544.000000	98.708963
543.000000	98.705368
542.000000	98.721790
541.000000	98.744559
540.000000	98.780505
539.000000	98.839948
538.000000	98.905129
537.000000	98.939787
536.000000	98.931710
535.000000	98.904873
534.000000	98.885555
533.000000	98.875222
532.000000	98.865283
531.000000	98.856799
530.000000	98.851554
529.000000	98.840271
528.000000	98.816389
527.000000	98.792883
526.000000	98.791070
525.000000	98.812601
524.000000	98.835857
523.000000	98.839224
522.000000	98.817215
521.000000	98.782645
520.000000	98.763809
519.000000	98.789292
518.000000	98.860040
517.000000	98.940819
516.000000	98.992760
515.000000	99.005875
514.000000	98.993441
513.000000	98.972422
512.000000	98.960258
511.000000	98.973588
510.000000	99.011272
509.000000	99.047831
508.000000	99.060688
507.000000	99.057629
506.000000	99.060993
505.000000	99.068920
504.000000	99.056455
503.000000	99.018178
502.000000	98.991005
501.000000	99.016489
500.000000	99.087153
499.000000	99.154795
498.000000	99.180279
497.000000	99.163611
496.000000	99.136753
495.000000	99.132242
494.000000	99.158362
493.000000	99.197887
492.000000	99.222867
491.000000	99.216807
490.000000	99.192485
489.000000	99.186170
488.000000	99.230929
487.000000	99.325842
486.000000	99.426773
485.000000	99.474898
484.000000	99.443934
483.000000	99.360366
482.000000	99.277650
481.000000	99.236216
480.000000	99.246449
479.000000	99.291701
478.000000	99.342383
477.000000	99.377640
476.000000	99.393788
475.000000	99.387099
474.000000	99.337684
473.000000	99.234278
472.000000	99.120378
471.000000	99.070881
470.000000	99.104092
469.000000	99.167885
468.000000	99.211891
467.000000	99.235424
466.000000	99.262586
465.000000	99.291146
464.000000	99.298012
463.000000	99.287743
462.000000	99.300116
461.000000	99.355249
460.000000	99.418664
459.000000	99.440302
458.000000	99.413146
457.000000	99.385871
456.000000	99.393727
455.000000	99.413442
454.000000	99.430656
453.000000	99.417866
452.000000	99.425449
451.000000	99.474601
450.000000	99.554996
