PE IR       SUBTECH     SPECTRUM    ASCII       PEDS        4.00        
   -1
11753-Hull01-F001_1.ASC
23/09/13
11:19:44.00
23/09/13
11:33:37.00
uco
Sample 001 By uco Date Wednesday, September 13 2023
450.000000
#HDR
-1
-1
#GR
cm-1
%T
1.0
0.0
4000.000000
-1.000000
3551
8
99.257493
92.008530
#DATA
4000.000000	99.154825
3999.000000	99.154126
3998.000000	99.160396
3997.000000	99.170596
3996.000000	99.180112
3995.000000	99.186304
3994.000000	99.189758
3993.000000	99.150637
3992.000000	99.153880
3991.000000	99.159741
3990.000000	99.167114
3989.000000	99.172860
3988.000000	99.173825
3987.000000	99.168447
3986.000000	99.157879
3985.000000	99.145435
3984.000000	99.134827
3983.000000	99.128235
3982.000000	99.125471
3981.000000	99.124822
3980.000000	99.124807
3979.000000	99.125193
3978.000000	99.126281
3977.000000	99.127801
3976.000000	99.128825
3975.000000	99.128585
3974.000000	99.127097
3973.000000	99.124945
3972.000000	99.122978
3971.000000	99.122146
3970.000000	99.123269
3969.000000	99.126139
3968.000000	99.128691
3967.000000	99.128346
3966.000000	99.124444
3965.000000	99.119273
3964.000000	99.116337
3963.000000	99.117507
3962.000000	99.121635
3961.000000	99.125590
3960.000000	99.126879
3959.000000	99.124708
3958.000000	99.119756
3957.000000	99.113534
3956.000000	99.107270
3955.000000	99.101667
3954.000000	99.097095
3953.000000	99.094301
3952.000000	99.094699
3951.000000	99.099560
3950.000000	99.109123
3949.000000	99.121084
3948.000000	99.130791
3947.000000	99.133888
3946.000000	99.128445
3945.000000	99.116496
3944.000000	99.103958
3943.000000	99.097043
3942.000000	99.097654
3941.000000	99.101677
3940.000000	99.103208
3939.000000	99.099980
3938.000000	99.095071
3937.000000	99.093788
3936.000000	99.098229
3935.000000	99.106120
3934.000000	99.113520
3933.000000	99.117225
3932.000000	99.116048
3931.000000	99.110646
3930.000000	99.103325
3929.000000	99.096053
3928.000000	99.089120
3927.000000	99.083511
3926.000000	99.081662
3925.000000	99.085120
3924.000000	99.091693
3923.000000	99.097291
3922.000000	99.100186
3921.000000	99.102360
3920.000000	99.106776
3919.000000	99.113991
3918.000000	99.120726
3917.000000	99.122764
3916.000000	99.119133
3915.000000	99.112071
3914.000000	99.104586
3913.000000	99.098427
3912.000000	99.094149
3911.000000	99.090583
3910.000000	99.086373
3909.000000	99.081428
3908.000000	99.076698
3907.000000	99.074851
3906.000000	99.079659
3905.000000	99.094014
3904.000000	99.115082
3903.000000	99.132826
3902.000000	99.138503
3901.000000	99.132449
3900.000000	99.121645
3899.000000	99.113411
3898.000000	99.109264
3897.000000	99.105465
3896.000000	99.099366
3895.000000	99.091615
3894.000000	99.085980
3893.000000	99.086736
3892.000000	99.094615
3891.000000	99.104428
3890.000000	99.110521
3889.000000	99.111286
3888.000000	99.108521
3887.000000	99.105834
3886.000000	99.105415
3885.000000	99.105650
3884.000000	99.102586
3883.000000	99.094133
3882.000000	99.083341
3881.000000	99.076417
3880.000000	99.075812
3879.000000	99.077683
3878.000000	99.076332
3877.000000	99.069580
3876.000000	99.060011
3875.000000	99.054313
3874.000000	99.059191
3873.000000	99.074106
3872.000000	99.091319
3871.000000	99.103202
3870.000000	99.107268
3869.000000	99.106149
3868.000000	99.102895
3867.000000	99.097799
3866.000000	99.091857
3865.000000	99.089648
3864.000000	99.094909
3863.000000	99.105675
3862.000000	99.116616
3861.000000	99.122167
3860.000000	99.117496
3859.000000	99.101643
3858.000000	99.078358
3857.000000	99.055660
3856.000000	99.042194
3855.000000	99.041894
3854.000000	99.058721
3853.000000	99.083734
3852.000000	99.099882
3851.000000	99.105559
3850.000000	99.107310
3849.000000	99.106327
3848.000000	99.101957
3847.000000	99.093138
3846.000000	99.081626
3845.000000	99.071745
3844.000000	99.067056
3843.000000	99.067885
3842.000000	99.071964
3841.000000	99.075188
3840.000000	99.075025
3839.000000	99.071425
3838.000000	99.065537
3837.000000	99.061461
3836.000000	99.062455
3835.000000	99.067602
3834.000000	99.074227
3833.000000	99.080582
3832.000000	99.085231
3831.000000	99.086989
3830.000000	99.085091
3829.000000	99.080798
3828.000000	99.076791
3827.000000	99.075872
3826.000000	99.080403
3825.000000	99.089376
3824.000000	99.097694
3823.000000	99.097732
3822.000000	99.088625
3821.000000	99.079759
3820.000000	99.076311
3819.000000	99.074379
3818.000000	99.070998
3817.000000	99.068779
3816.000000	99.069471
3815.000000	99.071893
3814.000000	99.074511
3813.000000	99.077408
3812.000000	99.082278
3811.000000	99.088582
3810.000000	99.093344
3809.000000	99.093287
3808.000000	99.088312
3807.000000	99.082398
3806.000000	99.079813
3805.000000	99.079186
3804.000000	99.076175
3803.000000	99.067576
3802.000000	99.057344
3801.000000	99.054528
3800.000000	99.064290
3799.000000	99.080121
3798.000000	99.092762
3797.000000	99.097237
3796.000000	99.093722
3795.000000	99.086192
3794.000000	99.078948
3793.000000	99.074675
3792.000000	99.072949
3791.000000	99.070709
3790.000000	99.065872
3789.000000	99.059649
3788.000000	99.054225
3787.000000	99.050706
3786.000000	99.049412
3785.000000	99.050712
3784.000000	99.054277
3783.000000	99.057782
3782.000000	99.058283
3781.000000	99.055556
3780.000000	99.053610
3779.000000	99.055738
3778.000000	99.060403
3777.000000	99.063138
3776.000000	99.061622
3775.000000	99.057536
3774.000000	99.055709
3773.000000	99.060896
3772.000000	99.073747
3771.000000	99.089863
3770.000000	99.102239
3769.000000	99.106091
3768.000000	99.101219
3767.000000	99.091506
3766.000000	99.082303
3765.000000	99.077986
3764.000000	99.079541
3763.000000	99.083907
3762.000000	99.087415
3761.000000	99.089099
3760.000000	99.090772
3759.000000	99.092304
3758.000000	99.092515
3757.000000	99.093232
3756.000000	99.096889
3755.000000	99.103570
3754.000000	99.113523
3753.000000	99.129671
3752.000000	99.153426
3751.000000	99.176361
3750.000000	99.185028
3749.000000	99.179456
3748.000000	99.168337
3747.000000	99.155875
3746.000000	99.141486
3745.000000	99.125301
3744.000000	99.111270
3743.000000	99.106175
3742.000000	99.111607
3741.000000	99.125708
3740.000000	99.144817
3739.000000	99.162771
3738.000000	99.171063
3737.000000	99.167788
3736.000000	99.160354
3735.000000	99.158968
3734.000000	99.167810
3733.000000	99.179585
3732.000000	99.182459
3731.000000	99.172090
3730.000000	99.154139
3729.000000	99.136959
3728.000000	99.125356
3727.000000	99.120096
3726.000000	99.118893
3725.000000	99.118905
3724.000000	99.118634
3723.000000	99.118369
3722.000000	99.119436
3721.000000	99.121060
3720.000000	99.122095
3719.000000	99.122047
3718.000000	99.121869
3717.000000	99.123584
3716.000000	99.127860
3715.000000	99.132878
3714.000000	99.133324
3713.000000	99.122552
3712.000000	99.100286
3711.000000	99.076358
3710.000000	99.063388
3709.000000	99.066421
3708.000000	99.080186
3707.000000	99.096450
3706.000000	99.110178
3705.000000	99.119329
3704.000000	99.124152
3703.000000	99.126304
3702.000000	99.127117
3701.000000	99.125959
3700.000000	99.121454
3699.000000	99.113697
3698.000000	99.104308
3697.000000	99.095671
3696.000000	99.089355
3695.000000	99.084545
3694.000000	99.079092
3693.000000	99.072297
3692.000000	99.067689
3691.000000	99.072013
3690.000000	99.086695
3689.000000	99.099015
3688.000000	99.095683
3687.000000	99.080904
3686.000000	99.066180
3685.000000	99.058015
3684.000000	99.057177
3683.000000	99.059335
3682.000000	99.058541
3681.000000	99.053460
3680.000000	99.048974
3679.000000	99.051066
3678.000000	99.060896
3677.000000	99.072734
3676.000000	99.080745
3675.000000	99.082907
3674.000000	99.084630
3673.000000	99.088924
3672.000000	99.094110
3671.000000	99.094192
3670.000000	99.085005
3669.000000	99.071080
3668.000000	99.061260
3667.000000	99.057036
3666.000000	99.055091
3665.000000	99.052118
3664.000000	99.046316
3663.000000	99.037097
3662.000000	99.026390
3661.000000	99.018532
3660.000000	99.016339
3659.000000	99.019133
3658.000000	99.023418
3657.000000	99.025238
3656.000000	99.021377
3655.000000	99.010955
3654.000000	98.996519
3653.000000	98.981785
3652.000000	98.972226
3651.000000	98.976959
3650.000000	98.999519
3649.000000	99.018348
3648.000000	99.010257
3647.000000	98.985716
3646.000000	98.965464
3645.000000	98.955699
3644.000000	98.953437
3643.000000	98.954028
3642.000000	98.953825
3641.000000	98.950541
3640.000000	98.942057
3639.000000	98.927722
3638.000000	98.910320
3637.000000	98.894321
3636.000000	98.882725
3635.000000	98.877365
3634.000000	98.881465
3633.000000	98.897311
3632.000000	98.921338
3631.000000	98.942781
3630.000000	98.949433
3629.000000	98.936990
3628.000000	98.913646
3627.000000	98.893172
3626.000000	98.879608
3625.000000	98.871114
3624.000000	98.865077
3623.000000	98.859744
3622.000000	98.853461
3621.000000	98.844315
3620.000000	98.830056
3619.000000	98.810237
3618.000000	98.788980
3617.000000	98.773600
3616.000000	98.767339
3615.000000	98.767658
3614.000000	98.770618
3613.000000	98.774163
3612.000000	98.778233
3611.000000	98.780532
3610.000000	98.774869
3609.000000	98.756244
3608.000000	98.728498
3607.000000	98.703038
3606.000000	98.688614
3605.000000	98.684834
3604.000000	98.684183
3603.000000	98.679213
3602.000000	98.667093
3601.000000	98.650544
3600.000000	98.635028
3599.000000	98.623823
3598.000000	98.615193
3597.000000	98.605237
3596.000000	98.591484
3595.000000	98.574934
3594.000000	98.560311
3593.000000	98.551736
3592.000000	98.549156
3591.000000	98.548266
3590.000000	98.544461
3589.000000	98.536205
3588.000000	98.523866
3587.000000	98.505824
3586.000000	98.484709
3585.000000	98.465803
3584.000000	98.449402
3583.000000	98.432631
3582.000000	98.414389
3581.000000	98.396400
3580.000000	98.381275
3579.000000	98.369302
3578.000000	98.358357
3577.000000	98.346538
3576.000000	98.334115
3575.000000	98.322394
3574.000000	98.312140
3573.000000	98.303148
3572.000000	98.293737
3571.000000	98.281602
3570.000000	98.265733
3569.000000	98.249256
3568.000000	98.236601
3567.000000	98.226722
3566.000000	98.216520
3565.000000	98.209093
3564.000000	98.204456
3563.000000	98.196380
3562.000000	98.180481
3561.000000	98.158828
3560.000000	98.137053
3559.000000	98.119239
3558.000000	98.105404
3557.000000	98.093670
3556.000000	98.082648
3555.000000	98.071609
3554.000000	98.059385
3553.000000	98.044500
3552.000000	98.026216
3551.000000	98.005977
3550.000000	97.987102
3549.000000	97.972935
3548.000000	97.965013
3547.000000	97.960853
3546.000000	97.954073
3545.000000	97.940060
3544.000000	97.920903
3543.000000	97.901927
3542.000000	97.886561
3541.000000	97.874261
3540.000000	97.861544
3539.000000	97.845297
3538.000000	97.825567
3537.000000	97.805676
3536.000000	97.788389
3535.000000	97.773696
3534.000000	97.760313
3533.000000	97.747956
3532.000000	97.737575
3531.000000	97.729966
3530.000000	97.725308
3529.000000	97.723218
3528.000000	97.722220
3527.000000	97.719717
3526.000000	97.713617
3525.000000	97.703329
3524.000000	97.689601
3523.000000	97.674617
3522.000000	97.661858
3521.000000	97.653885
3520.000000	97.649710
3519.000000	97.645927
3518.000000	97.639873
3517.000000	97.631265
3516.000000	97.621190
3515.000000	97.610613
3514.000000	97.600678
3513.000000	97.592715
3512.000000	97.587486
3511.000000	97.585133
3510.000000	97.585480
3509.000000	97.586983
3508.000000	97.585815
3507.000000	97.578598
3506.000000	97.566823
3505.000000	97.557399
3504.000000	97.556175
3503.000000	97.561545
3502.000000	97.566959
3501.000000	97.567838
3500.000000	97.563076
3499.000000	97.552669
3498.000000	97.537975
3497.000000	97.522802
3496.000000	97.511848
3495.000000	97.507261
3494.000000	97.507572
3493.000000	97.509475
3492.000000	97.509844
3491.000000	97.507220
3490.000000	97.502358
3489.000000	97.496377
3488.000000	97.488099
3487.000000	97.475068
3486.000000	97.458154
3485.000000	97.443018
3484.000000	97.435077
3483.000000	97.433881
3482.000000	97.434000
3481.000000	97.431423
3480.000000	97.427100
3479.000000	97.423979
3478.000000	97.422613
3477.000000	97.420843
3476.000000	97.416618
3475.000000	97.410568
3474.000000	97.405947
3473.000000	97.405555
3472.000000	97.408381
3471.000000	97.410028
3470.000000	97.407151
3469.000000	97.400409
3468.000000	97.392636
3467.000000	97.385396
3466.000000	97.378369
3465.000000	97.371226
3464.000000	97.364238
3463.000000	97.357216
3462.000000	97.349416
3461.000000	97.340597
3460.000000	97.331208
3459.000000	97.321440
3458.000000	97.311165
3457.000000	97.301444
3456.000000	97.294634
3455.000000	97.292570
3454.000000	97.294629
3453.000000	97.297671
3452.000000	97.298066
3451.000000	97.293971
3450.000000	97.286686
3449.000000	97.279441
3448.000000	97.274145
3447.000000	97.269362
3446.000000	97.262555
3445.000000	97.253204
3444.000000	97.242515
3443.000000	97.231426
3442.000000	97.220350
3441.000000	97.210118
3440.000000	97.201303
3439.000000	97.193079
3438.000000	97.184240
3437.000000	97.175305
3436.000000	97.167800
3435.000000	97.161631
3434.000000	97.154656
3433.000000	97.145230
3432.000000	97.134404
3431.000000	97.124636
3430.000000	97.117484
3429.000000	97.112344
3428.000000	97.106609
3427.000000	97.097051
3426.000000	97.081933
3425.000000	97.062293
3424.000000	97.040877
3423.000000	97.020260
3422.000000	97.002082
3421.000000	96.986833
3420.000000	96.973265
3419.000000	96.959091
3418.000000	96.943803
3417.000000	96.929982
3416.000000	96.920479
3415.000000	96.914472
3414.000000	96.907684
3413.000000	96.896731
3412.000000	96.882302
3411.000000	96.868139
3410.000000	96.857713
3409.000000	96.851472
3408.000000	96.846232
3407.000000	96.837623
3406.000000	96.823888
3405.000000	96.807369
3404.000000	96.791710
3403.000000	96.778394
3402.000000	96.766706
3401.000000	96.755956
3400.000000	96.746553
3399.000000	96.739107
3398.000000	96.733535
3397.000000	96.728817
3396.000000	96.723156
3395.000000	96.714955
3394.000000	96.704497
3393.000000	96.694301
3392.000000	96.687075
3391.000000	96.683458
3390.000000	96.681951
3389.000000	96.680613
3388.000000	96.678481
3387.000000	96.676042
3386.000000	96.674785
3385.000000	96.675724
3384.000000	96.677927
3383.000000	96.679143
3382.000000	96.678000
3381.000000	96.674631
3380.000000	96.669173
3379.000000	96.660829
3378.000000	96.649276
3377.000000	96.635958
3376.000000	96.623265
3375.000000	96.612819
3374.000000	96.604771
3373.000000	96.598108
3372.000000	96.591473
3371.000000	96.584469
3370.000000	96.578356
3369.000000	96.574632
3368.000000	96.572647
3367.000000	96.569755
3366.000000	96.564357
3365.000000	96.557744
3364.000000	96.552198
3363.000000	96.548143
3362.000000	96.543617
3361.000000	96.535660
3360.000000	96.521940
3359.000000	96.502374
3358.000000	96.480149
3357.000000	96.460347
3356.000000	96.446402
3355.000000	96.437904
3354.000000	96.431978
3353.000000	96.425834
3352.000000	96.417461
3351.000000	96.405240
3350.000000	96.388588
3349.000000	96.368949
3348.000000	96.349281
3347.000000	96.332453
3346.000000	96.319885
3345.000000	96.311011
3344.000000	96.303504
3343.000000	96.294474
3342.000000	96.282318
3341.000000	96.267560
3340.000000	96.252187
3339.000000	96.238436
3338.000000	96.227533
3337.000000	96.218535
3336.000000	96.208767
3335.000000	96.196604
3334.000000	96.183570
3333.000000	96.172256
3332.000000	96.162411
3331.000000	96.150923
3330.000000	96.135742
3329.000000	96.118022
3328.000000	96.100115
3327.000000	96.083614
3326.000000	96.070028
3325.000000	96.060966
3324.000000	96.055734
3323.000000	96.050222
3322.000000	96.040450
3321.000000	96.026508
3320.000000	96.011630
3319.000000	95.998340
3318.000000	95.986851
3317.000000	95.976342
3316.000000	95.965983
3315.000000	95.954879
3314.000000	95.942944
3313.000000	95.932232
3312.000000	95.925845
3311.000000	95.924743
3310.000000	95.926314
3309.000000	95.926757
3308.000000	95.924795
3307.000000	95.922422
3306.000000	95.921816
3305.000000	95.922074
3304.000000	95.919545
3303.000000	95.911606
3302.000000	95.899526
3301.000000	95.887174
3300.000000	95.877314
3299.000000	95.869900
3298.000000	95.863271
3297.000000	95.855833
3296.000000	95.847343
3295.000000	95.839763
3294.000000	95.836326
3293.000000	95.838121
3292.000000	95.841805
3291.000000	95.842602
3290.000000	95.839570
3289.000000	95.835875
3288.000000	95.833678
3287.000000	95.831160
3286.000000	95.825757
3285.000000	95.818328
3284.000000	95.812764
3283.000000	95.812417
3282.000000	95.817660
3281.000000	95.825976
3280.000000	95.833644
3279.000000	95.838359
3278.000000	95.841060
3277.000000	95.844648
3276.000000	95.850733
3275.000000	95.858497
3274.000000	95.866444
3273.000000	95.873486
3272.000000	95.878336
3271.000000	95.880054
3270.000000	95.879924
3269.000000	95.880840
3268.000000	95.884079
3267.000000	95.888424
3266.000000	95.893241
3265.000000	95.900290
3264.000000	95.911006
3263.000000	95.923800
3262.000000	95.935837
3261.000000	95.946289
3260.000000	95.956260
3259.000000	95.966309
3258.000000	95.975508
3257.000000	95.982717
3256.000000	95.987784
3255.000000	95.991791
3254.000000	95.996491
3253.000000	96.003172
3252.000000	96.011985
3251.000000	96.022796
3250.000000	96.036294
3249.000000	96.052694
3248.000000	96.069534
3247.000000	96.082612
3246.000000	96.089536
3245.000000	96.091190
3244.000000	96.089950
3243.000000	96.088423
3242.000000	96.089927
3241.000000	96.097119
3240.000000	96.108718
3239.000000	96.119967
3238.000000	96.127921
3237.000000	96.134549
3236.000000	96.143006
3235.000000	96.152792
3234.000000	96.160738
3233.000000	96.165330
3232.000000	96.167986
3231.000000	96.170731
3230.000000	96.174692
3229.000000	96.180460
3228.000000	96.188018
3227.000000	96.196267
3226.000000	96.203724
3225.000000	96.209831
3224.000000	96.215236
3223.000000	96.221029
3222.000000	96.228004
3221.000000	96.235956
3220.000000	96.243397
3219.000000	96.248836
3218.000000	96.252563
3217.000000	96.256146
3216.000000	96.260198
3215.000000	96.263982
3214.000000	96.267531
3213.000000	96.272310
3212.000000	96.278933
3211.000000	96.285862
3210.000000	96.291693
3209.000000	96.297401
3208.000000	96.304776
3207.000000	96.313779
3206.000000	96.322986
3205.000000	96.331918
3204.000000	96.341396
3203.000000	96.352008
3202.000000	96.363487
3201.000000	96.375264
3200.000000	96.386372
3199.000000	96.395092
3198.000000	96.399990
3197.000000	96.401689
3196.000000	96.403057
3195.000000	96.407239
3194.000000	96.415369
3193.000000	96.425876
3192.000000	96.435982
3191.000000	96.444609
3190.000000	96.453799
3189.000000	96.466485
3188.000000	96.482905
3187.000000	96.500323
3186.000000	96.516290
3185.000000	96.530758
3184.000000	96.544399
3183.000000	96.556611
3182.000000	96.566461
3181.000000	96.574736
3180.000000	96.583739
3179.000000	96.595062
3178.000000	96.608100
3177.000000	96.620477
3176.000000	96.629742
3175.000000	96.635528
3174.000000	96.640328
3173.000000	96.647329
3172.000000	96.656963
3171.000000	96.666415
3170.000000	96.673082
3169.000000	96.677284
3168.000000	96.681231
3167.000000	96.686599
3166.000000	96.694310
3165.000000	96.705377
3164.000000	96.720170
3163.000000	96.737012
3162.000000	96.752685
3161.000000	96.764816
3160.000000	96.773582
3159.000000	96.781516
3158.000000	96.791638
3157.000000	96.804818
3156.000000	96.818371
3155.000000	96.828257
3154.000000	96.833421
3153.000000	96.837212
3152.000000	96.843865
3151.000000	96.854610
3150.000000	96.867876
3149.000000	96.881897
3148.000000	96.895713
3147.000000	96.908624
3146.000000	96.920376
3145.000000	96.931368
3144.000000	96.941241
3143.000000	96.947779
3142.000000	96.948786
3141.000000	96.945220
3140.000000	96.941425
3139.000000	96.941958
3138.000000	96.948570
3137.000000	96.959800
3136.000000	96.972763
3135.000000	96.985272
3134.000000	96.996776
3133.000000	97.007374
3132.000000	97.016205
3131.000000	97.021649
3130.000000	97.023554
3129.000000	97.024299
3128.000000	97.026757
3127.000000	97.031555
3126.000000	97.037304
3125.000000	97.043100
3124.000000	97.049433
3123.000000	97.056614
3122.000000	97.063479
3121.000000	97.068153
3120.000000	97.069363
3119.000000	97.066866
3118.000000	97.061418
3117.000000	97.054922
3116.000000	97.050104
3115.000000	97.049386
3114.000000	97.053545
3113.000000	97.061048
3112.000000	97.068538
3111.000000	97.072321
3110.000000	97.070382
3109.000000	97.063475
3108.000000	97.054441
3107.000000	97.046341
3106.000000	97.041093
3105.000000	97.038964
3104.000000	97.038733
3103.000000	97.038499
3102.000000	97.036996
3101.000000	97.034264
3100.000000	97.031124
3099.000000	97.028609
3098.000000	97.027844
3097.000000	97.029187
3096.000000	97.030752
3095.000000	97.028892
3094.000000	97.021463
3093.000000	97.010271
3092.000000	96.999488
3091.000000	96.992050
3090.000000	96.987943
3089.000000	96.985170
3088.000000	96.981615
3087.000000	96.976732
3086.000000	96.972409
3085.000000	96.971583
3084.000000	96.974913
3083.000000	96.979310
3082.000000	96.980779
3081.000000	96.978358
3080.000000	96.974082
3079.000000	96.969514
3078.000000	96.963958
3077.000000	96.956712
3076.000000	96.949734
3075.000000	96.946765
3074.000000	96.949649
3073.000000	96.955969
3072.000000	96.960817
3071.000000	96.961061
3070.000000	96.957812
3069.000000	96.954458
3068.000000	96.952741
3067.000000	96.951762
3066.000000	96.950613
3065.000000	96.950410
3064.000000	96.952888
3063.000000	96.958267
3062.000000	96.965728
3061.000000	96.975111
3060.000000	96.986762
3059.000000	97.000113
3058.000000	97.013461
3057.000000	97.025215
3056.000000	97.034946
3055.000000	97.043459
3054.000000	97.052207
3053.000000	97.061909
3052.000000	97.071350
3051.000000	97.078194
3050.000000	97.081611
3049.000000	97.083659
3048.000000	97.087467
3047.000000	97.094663
3046.000000	97.104945
3045.000000	97.117172
3044.000000	97.130172
3043.000000	97.143107
3042.000000	97.155732
3041.000000	97.167844
3040.000000	97.178220
3039.000000	97.185401
3038.000000	97.190107
3037.000000	97.195831
3036.000000	97.205950
3035.000000	97.220738
3034.000000	97.237654
3033.000000	97.253526
3032.000000	97.265605
3031.000000	97.271973
3030.000000	97.272824
3029.000000	97.271181
3028.000000	97.271181
3027.000000	97.275193
3026.000000	97.282923
3025.000000	97.292656
3024.000000	97.302481
3023.000000	97.310746
3022.000000	97.316550
3021.000000	97.320230
3020.000000	97.322694
3019.000000	97.324131
3018.000000	97.323886
3017.000000	97.321498
3016.000000	97.317273
3015.000000	97.311909
3014.000000	97.306053
3013.000000	97.300345
3012.000000	97.295455
3011.000000	97.291776
3010.000000	97.288848
3009.000000	97.285132
3008.000000	97.279241
3007.000000	97.272218
3006.000000	97.268014
3005.000000	97.270014
3004.000000	97.276798
3003.000000	97.282840
3002.000000	97.284130
3001.000000	97.281939
3000.000000	97.280594
2999.000000	97.283126
2998.000000	97.289757
2997.000000	97.298801
2996.000000	97.307054
2995.000000	97.310443
2994.000000	97.306454
2993.000000	97.296176
2992.000000	97.282990
2991.000000	97.269335
2990.000000	97.255452
2989.000000	97.240352
2988.000000	97.222761
2987.000000	97.201613
2986.000000	97.177038
2985.000000	97.151023
2984.000000	97.126147
2983.000000	97.103455
2982.000000	97.081924
2981.000000	97.059531
2980.000000	97.034426
2979.000000	97.005653
2978.000000	96.973939
2977.000000	96.941554
2976.000000	96.910271
2975.000000	96.879270
2974.000000	96.845491
2973.000000	96.805883
2972.000000	96.758903
2971.000000	96.704180
2970.000000	96.641744
2969.000000	96.571886
2968.000000	96.495730
2967.000000	96.416071
2966.000000	96.337187
2965.000000	96.262663
2964.000000	96.192530
2963.000000	96.123550
2962.000000	96.053133
2961.000000	95.982626
2960.000000	95.916276
2959.000000	95.857836
2958.000000	95.809396
2957.000000	95.772427
2956.000000	95.748379
2955.000000	95.737868
2954.000000	95.740133
2953.000000	95.753133
2952.000000	95.773117
2951.000000	95.794430
2950.000000	95.810467
2949.000000	95.815578
2948.000000	95.805925
2947.000000	95.779504
2946.000000	95.736394
2945.000000	95.678656
2944.000000	95.609089
2943.000000	95.529280
2942.000000	95.439094
2941.000000	95.337505
2940.000000	95.223836
2939.000000	95.098749
2938.000000	94.964337
2937.000000	94.822857
2936.000000	94.674587
2935.000000	94.517770
2934.000000	94.351461
2933.000000	94.177797
2932.000000	94.000682
2931.000000	93.822593
2930.000000	93.643729
2929.000000	93.463652
2928.000000	93.282820
2927.000000	93.103284
2926.000000	92.929317
2925.000000	92.767573
2924.000000	92.625005
2923.000000	92.506347
2922.000000	92.413627
2921.000000	92.347437
2920.000000	92.308795
2919.000000	92.301110
2918.000000	92.333054
2917.000000	92.418498
2916.000000	92.569908
2915.000000	92.788825
2914.000000	93.060981
2913.000000	93.360647
2912.000000	93.660159
2911.000000	93.938829
2910.000000	94.186415
2909.000000	94.401004
2908.000000	94.584865
2907.000000	94.741544
2906.000000	94.875497
2905.000000	94.991611
2904.000000	95.093720
2903.000000	95.184478
2902.000000	95.265507
2901.000000	95.339353
2900.000000	95.408576
2899.000000	95.474821
2898.000000	95.539812
2897.000000	95.605586
2896.000000	95.672973
2895.000000	95.740314
2894.000000	95.805284
2893.000000	95.867491
2892.000000	95.927949
2891.000000	95.986457
2890.000000	96.041349
2889.000000	96.092097
2888.000000	96.140308
2887.000000	96.187107
2886.000000	96.230828
2885.000000	96.268519
2884.000000	96.299161
2883.000000	96.324150
2882.000000	96.344741
2881.000000	96.360136
2880.000000	96.368325
2879.000000	96.368076
2878.000000	96.359480
2877.000000	96.342996
2876.000000	96.319124
2875.000000	96.289773
2874.000000	96.259642
2873.000000	96.234846
2872.000000	96.219359
2871.000000	96.212834
2870.000000	96.211783
2869.000000	96.211878
2868.000000	96.208563
2867.000000	96.196609
2866.000000	96.170824
2865.000000	96.127587
2864.000000	96.064888
2863.000000	95.981459
2862.000000	95.877023
2861.000000	95.753520
2860.000000	95.614707
2859.000000	95.463719
2858.000000	95.301706
2857.000000	95.129706
2856.000000	94.951679
2855.000000	94.775012
2854.000000	94.608965
2853.000000	94.463154
2852.000000	94.348959
2851.000000	94.283205
2850.000000	94.288217
2849.000000	94.384243
2848.000000	94.576420
2847.000000	94.846811
2846.000000	95.159362
2845.000000	95.474787
2844.000000	95.763850
2843.000000	96.012779
2842.000000	96.220953
2841.000000	96.394470
2840.000000	96.540292
2839.000000	96.662963
2838.000000	96.765284
2837.000000	96.850584
2836.000000	96.922998
2835.000000	96.985737
2834.000000	97.040381
2833.000000	97.087880
2832.000000	97.129272
2831.000000	97.165356
2830.000000	97.196855
2829.000000	97.225721
2828.000000	97.254853
2827.000000	97.285397
2826.000000	97.315293
2825.000000	97.341800
2824.000000	97.364970
2823.000000	97.387109
2822.000000	97.409154
2821.000000	97.429333
2820.000000	97.445935
2819.000000	97.459960
2818.000000	97.473902
2817.000000	97.488730
2816.000000	97.503329
2815.000000	97.516625
2814.000000	97.528959
2813.000000	97.540903
2812.000000	97.551750
2811.000000	97.560212
2810.000000	97.566321
2809.000000	97.571778
2808.000000	97.578205
2807.000000	97.585756
2806.000000	97.593719
2805.000000	97.601808
2804.000000	97.610288
2803.000000	97.619408
2802.000000	97.629498
2801.000000	97.641261
2800.000000	97.654779
2799.000000	97.668000
2798.000000	97.677322
2797.000000	97.680604
2796.000000	97.679392
2795.000000	97.677684
2794.000000	97.678785
2793.000000	97.683754
2792.000000	97.692188
2791.000000	97.703207
2790.000000	97.715265
2789.000000	97.725961
2788.000000	97.733276
2787.000000	97.737313
2786.000000	97.740352
2785.000000	97.744880
2784.000000	97.751618
2783.000000	97.759475
2782.000000	97.767096
2781.000000	97.774124
2780.000000	97.781115
2779.000000	97.788638
2778.000000	97.796615
2777.000000	97.804305
2776.000000	97.810799
2775.000000	97.815657
2774.000000	97.819187
2773.000000	97.822003
2772.000000	97.824378
2771.000000	97.826276
2770.000000	97.828054
2769.000000	97.830698
2768.000000	97.835110
2767.000000	97.841333
2766.000000	97.848626
2765.000000	97.856132
2764.000000	97.863384
2763.000000	97.870500
2762.000000	97.878030
2761.000000	97.886209
2760.000000	97.894061
2759.000000	97.899670
2758.000000	97.901798
2757.000000	97.901103
2756.000000	97.899631
2755.000000	97.899518
2754.000000	97.902263
2753.000000	97.908338
2752.000000	97.916549
2751.000000	97.924244
2750.000000	97.929184
2749.000000	97.931285
2748.000000	97.932133
2747.000000	97.933234
2746.000000	97.935431
2745.000000	97.939326
2744.000000	97.944856
2743.000000	97.950587
2742.000000	97.954845
2741.000000	97.957883
2740.000000	97.961709
2739.000000	97.967280
2738.000000	97.973055
2737.000000	97.977044
2736.000000	97.979301
2735.000000	97.981407
2734.000000	97.984250
2733.000000	97.987425
2732.000000	97.990534
2731.000000	97.994024
2730.000000	97.998631
2729.000000	98.004530
2728.000000	98.011034
2727.000000	98.016699
2726.000000	98.019966
2725.000000	98.020404
2724.000000	98.019562
2723.000000	98.020209
2722.000000	98.024339
2721.000000	98.031626
2720.000000	98.039505
2719.000000	98.044763
2718.000000	98.045559
2717.000000	98.042480
2716.000000	98.037810
2715.000000	98.033779
2714.000000	98.031528
2713.000000	98.031419
2712.000000	98.033648
2711.000000	98.038172
2710.000000	98.044386
2709.000000	98.051291
2708.000000	98.057960
2707.000000	98.063827
2706.000000	98.068726
2705.000000	98.072706
2704.000000	98.075665
2703.000000	98.077284
2702.000000	98.077598
2701.000000	98.077504
2700.000000	98.078247
2699.000000	98.080272
2698.000000	98.082813
2697.000000	98.084477
2696.000000	98.084015
2695.000000	98.081117
2694.000000	98.077181
2693.000000	98.074871
2692.000000	98.075773
2691.000000	98.078488
2690.000000	98.080191
2689.000000	98.080201
2688.000000	98.080714
2687.000000	98.083636
2686.000000	98.087989
2685.000000	98.091177
2684.000000	98.091696
2683.000000	98.089688
2682.000000	98.085997
2681.000000	98.082045
2680.000000	98.079915
2679.000000	98.080889
2678.000000	98.083781
2677.000000	98.085757
2676.000000	98.085042
2675.000000	98.082387
2674.000000	98.080084
2673.000000	98.080120
2672.000000	98.082891
2671.000000	98.086853
2670.000000	98.089520
2669.000000	98.089655
2668.000000	98.088597
2667.000000	98.088791
2666.000000	98.090926
2665.000000	98.093050
2664.000000	98.092548
2663.000000	98.088520
2662.000000	98.082378
2661.000000	98.076818
2660.000000	98.074244
2659.000000	98.075359
2658.000000	98.078694
2657.000000	98.081651
2656.000000	98.082356
2655.000000	98.080822
2654.000000	98.078882
2653.000000	98.079276
2652.000000	98.083958
2651.000000	98.092162
2650.000000	98.100270
2649.000000	98.104801
2648.000000	98.106082
2647.000000	98.108165
2646.000000	98.114534
2645.000000	98.124309
2644.000000	98.133118
2643.000000	98.137334
2642.000000	98.137119
2641.000000	98.135965
2640.000000	98.137931
2639.000000	98.144924
2638.000000	98.155580
2637.000000	98.166403
2636.000000	98.174509
2635.000000	98.179707
2634.000000	98.183850
2633.000000	98.188142
2632.000000	98.191647
2631.000000	98.192873
2630.000000	98.192380
2629.000000	98.192912
2628.000000	98.196616
2627.000000	98.202734
2626.000000	98.208501
2625.000000	98.212127
2624.000000	98.214570
2623.000000	98.218643
2622.000000	98.226616
2621.000000	98.238199
2620.000000	98.250315
2619.000000	98.259113
2618.000000	98.262817
2617.000000	98.262745
2616.000000	98.261666
2615.000000	98.261863
2614.000000	98.264900
2613.000000	98.271722
2612.000000	98.281538
2611.000000	98.291470
2610.000000	98.298993
2609.000000	98.304317
2608.000000	98.308823
2607.000000	98.311787
2606.000000	98.310990
2605.000000	98.306462
2604.000000	98.301221
2603.000000	98.297888
2602.000000	98.296868
2601.000000	98.298460
2600.000000	98.303768
2599.000000	98.311961
2598.000000	98.319068
2597.000000	98.321715
2596.000000	98.320687
2595.000000	98.319145
2594.000000	98.318972
2593.000000	98.320575
2592.000000	98.324484
2591.000000	98.330623
2590.000000	98.337071
2589.000000	98.341826
2588.000000	98.345249
2587.000000	98.349045
2586.000000	98.353831
2585.000000	98.359586
2584.000000	98.367227
2583.000000	98.377061
2582.000000	98.386228
2581.000000	98.390542
2580.000000	98.389443
2579.000000	98.387361
2578.000000	98.389463
2577.000000	98.396862
2576.000000	98.405796
2575.000000	98.410725
2574.000000	98.408994
2573.000000	98.403543
2572.000000	98.400174
2571.000000	98.401078
2570.000000	98.402421
2569.000000	98.399896
2568.000000	98.394969
2567.000000	98.393106
2566.000000	98.396975
2565.000000	98.404322
2564.000000	98.412029
2563.000000	98.419071
2562.000000	98.424990
2561.000000	98.428289
2560.000000	98.427765
2559.000000	98.424069
2558.000000	98.419292
2557.000000	98.416217
2556.000000	98.417882
2555.000000	98.425749
2554.000000	98.437219
2553.000000	98.446217
2552.000000	98.447604
2551.000000	98.441358
2550.000000	98.432875
2549.000000	98.429448
2548.000000	98.435307
2547.000000	98.448457
2546.000000	98.462439
2545.000000	98.472217
2544.000000	98.477845
2543.000000	98.481562
2542.000000	98.482804
2541.000000	98.478713
2540.000000	98.469488
2539.000000	98.460394
2538.000000	98.457177
2537.000000	98.460837
2536.000000	98.468007
2535.000000	98.475387
2534.000000	98.482112
2533.000000	98.487899
2532.000000	98.490505
2531.000000	98.486759
2530.000000	98.476710
2529.000000	98.465544
2528.000000	98.459685
2527.000000	98.460558
2526.000000	98.463193
2525.000000	98.461358
2524.000000	98.453243
2523.000000	98.442426
2522.000000	98.434806
2521.000000	98.434702
2520.000000	98.441894
2519.000000	98.451368
2518.000000	98.457117
2517.000000	98.457130
2516.000000	98.454020
2515.000000	98.451071
2514.000000	98.449509
2513.000000	98.449602
2512.000000	98.451723
2511.000000	98.455350
2510.000000	98.459373
2509.000000	98.464391
2508.000000	98.471975
2507.000000	98.480272
2506.000000	98.483597
2505.000000	98.479196
2504.000000	98.472359
2503.000000	98.471632
2502.000000	98.479942
2501.000000	98.492645
2500.000000	98.502920
2499.000000	98.506639
2498.000000	98.503484
2497.000000	98.496444
2496.000000	98.490119
2495.000000	98.487242
2494.000000	98.486533
2493.000000	98.485216
2492.000000	98.483035
2491.000000	98.482575
2490.000000	98.486416
2489.000000	98.495036
2488.000000	98.506439
2487.000000	98.516855
2486.000000	98.523340
2485.000000	98.526872
2484.000000	98.531158
2483.000000	98.537099
2482.000000	98.540820
2481.000000	98.539283
2480.000000	98.535794
2479.000000	98.536985
2478.000000	98.545379
2477.000000	98.557236
2476.000000	98.566526
2475.000000	98.569233
2474.000000	98.565093
2473.000000	98.557428
2472.000000	98.550521
2471.000000	98.545377
2470.000000	98.539237
2469.000000	98.530608
2468.000000	98.522739
2467.000000	98.520159
2466.000000	98.523712
2465.000000	98.530898
2464.000000	98.538805
2463.000000	98.544188
2462.000000	98.543299
2461.000000	98.535340
2460.000000	98.524761
2459.000000	98.516919
2458.000000	98.512630
2457.000000	98.509780
2456.000000	98.508553
2455.000000	98.511315
2454.000000	98.518083
2453.000000	98.525956
2452.000000	98.533091
2451.000000	98.540449
2450.000000	98.549394
2449.000000	98.559651
2448.000000	98.569479
2447.000000	98.576244
2446.000000	98.577803
2445.000000	98.575097
2444.000000	98.572070
2443.000000	98.571070
2442.000000	98.569879
2441.000000	98.565395
2440.000000	98.558442
2439.000000	98.552397
2438.000000	98.548982
2437.000000	98.548216
2436.000000	98.550661
2435.000000	98.556425
2434.000000	98.563179
2433.000000	98.568390
2432.000000	98.572625
2431.000000	98.578014
2430.000000	98.584567
2429.000000	98.590538
2428.000000	98.595278
2427.000000	98.599243
2426.000000	98.602306
2425.000000	98.604219
2424.000000	98.605331
2423.000000	98.605017
2422.000000	98.601585
2421.000000	98.596054
2420.000000	98.593398
2419.000000	98.597016
2418.000000	98.604115
2417.000000	98.609565
2416.000000	98.612090
2415.000000	98.613375
2414.000000	98.613331
2413.000000	98.610078
2412.000000	98.603568
2411.000000	98.596295
2410.000000	98.591500
2409.000000	98.592468
2408.000000	98.600905
2407.000000	98.613388
2406.000000	98.622364
2405.000000	98.623972
2404.000000	98.622417
2403.000000	98.623628
2402.000000	98.627702
2401.000000	98.631045
2400.000000	98.632541
2399.000000	98.633373
2398.000000	98.633707
2397.000000	98.633975
2396.000000	98.636787
2395.000000	98.642923
2394.000000	98.647753
2393.000000	98.646523
2392.000000	98.640926
2391.000000	98.636118
2390.000000	98.633243
2389.000000	98.629810
2388.000000	98.625696
2387.000000	98.622646
2386.000000	98.620413
2385.000000	98.618091
2384.000000	98.618496
2383.000000	98.626629
2382.000000	98.642735
2381.000000	98.662630
2380.000000	98.682326
2379.000000	98.697523
2378.000000	98.701142
2377.000000	98.687812
2376.000000	98.662143
2375.000000	98.636570
2374.000000	98.621518
2373.000000	98.620939
2372.000000	98.634530
2371.000000	98.656514
2370.000000	98.675593
2369.000000	98.684436
2368.000000	98.684679
2367.000000	98.680042
2366.000000	98.669490
2365.000000	98.653006
2364.000000	98.637637
2363.000000	98.628099
2362.000000	98.619899
2361.000000	98.606904
2360.000000	98.587528
2359.000000	98.565380
2358.000000	98.548681
2357.000000	98.548261
2356.000000	98.562793
2355.000000	98.576050
2354.000000	98.586559
2353.000000	98.610157
2352.000000	98.643208
2351.000000	98.655654
2350.000000	98.630290
2349.000000	98.580617
2348.000000	98.534639
2347.000000	98.516786
2346.000000	98.526252
2345.000000	98.533251
2344.000000	98.518814
2343.000000	98.499971
2342.000000	98.502157
2341.000000	98.526628
2340.000000	98.550553
2339.000000	98.553347
2338.000000	98.537557
2337.000000	98.519915
2336.000000	98.511081
2335.000000	98.512279
2334.000000	98.525996
2333.000000	98.555639
2332.000000	98.592513
2331.000000	98.619047
2330.000000	98.622854
2329.000000	98.603502
2328.000000	98.564874
2327.000000	98.514114
2326.000000	98.465332
2325.000000	98.434925
2324.000000	98.431529
2323.000000	98.449234
2322.000000	98.472151
2321.000000	98.484686
2320.000000	98.481654
2319.000000	98.468374
2318.000000	98.452208
2317.000000	98.438510
2316.000000	98.432446
2315.000000	98.439679
2314.000000	98.459119
2313.000000	98.481358
2312.000000	98.497280
2311.000000	98.507337
2310.000000	98.517494
2309.000000	98.529121
2308.000000	98.537875
2307.000000	98.540302
2306.000000	98.537654
2305.000000	98.534084
2304.000000	98.534477
2303.000000	98.541551
2302.000000	98.552829
2301.000000	98.561949
2300.000000	98.565622
2299.000000	98.566880
2298.000000	98.568887
2297.000000	98.570320
2296.000000	98.568126
2295.000000	98.562561
2294.000000	98.555419
2293.000000	98.546486
2292.000000	98.535341
2291.000000	98.524761
2290.000000	98.519619
2289.000000	98.522542
2288.000000	98.532341
2287.000000	98.544054
2286.000000	98.550160
2285.000000	98.545470
2284.000000	98.534552
2283.000000	98.530484
2282.000000	98.543493
2281.000000	98.572456
2280.000000	98.608871
2279.000000	98.644594
2278.000000	98.672858
2277.000000	98.687087
2276.000000	98.683905
2275.000000	98.666539
2274.000000	98.643021
2273.000000	98.622617
2272.000000	98.613251
2271.000000	98.617570
2270.000000	98.629828
2269.000000	98.640420
2268.000000	98.645132
2267.000000	98.647335
2266.000000	98.651501
2265.000000	98.659088
2264.000000	98.670324
2263.000000	98.684310
2262.000000	98.697143
2261.000000	98.705394
2260.000000	98.711294
2259.000000	98.718786
2258.000000	98.725958
2257.000000	98.728610
2256.000000	98.729521
2255.000000	98.734094
2254.000000	98.737364
2253.000000	98.727600
2252.000000	98.705359
2251.000000	98.687676
2250.000000	98.688638
2249.000000	98.705251
2248.000000	98.724995
2247.000000	98.739636
2246.000000	98.748109
2245.000000	98.752507
2244.000000	98.755422
2243.000000	98.756373
2242.000000	98.751357
2241.000000	98.741219
2240.000000	98.736107
2239.000000	98.741804
2238.000000	98.746670
2237.000000	98.735705
2236.000000	98.713779
2235.000000	98.698777
2234.000000	98.694953
2233.000000	98.692476
2232.000000	98.690961
2231.000000	98.699286
2230.000000	98.708786
2229.000000	98.693649
2228.000000	98.649784
2227.000000	98.610826
2226.000000	98.610629
2225.000000	98.646163
2224.000000	98.689391
2223.000000	98.718654
2222.000000	98.725254
2221.000000	98.707911
2220.000000	98.680067
2219.000000	98.669441
2218.000000	98.691579
2217.000000	98.730606
2216.000000	98.758169
2215.000000	98.762533
2214.000000	98.747760
2213.000000	98.718447
2212.000000	98.683279
2211.000000	98.663701
2210.000000	98.678841
2209.000000	98.721635
2208.000000	98.761577
2207.000000	98.771934
2206.000000	98.749208
2205.000000	98.710931
2204.000000	98.680760
2203.000000	98.670186
2202.000000	98.669885
2201.000000	98.664135
2200.000000	98.654383
2199.000000	98.657741
2198.000000	98.679788
2197.000000	98.702840
2196.000000	98.708208
2195.000000	98.697858
2194.000000	98.686544
2193.000000	98.683780
2192.000000	98.690098
2191.000000	98.699843
2190.000000	98.701966
2189.000000	98.690108
2188.000000	98.677592
2187.000000	98.689608
2186.000000	98.734568
2185.000000	98.794439
2184.000000	98.845709
2183.000000	98.875357
2182.000000	98.874467
2181.000000	98.840306
2180.000000	98.793694
2179.000000	98.771232
2178.000000	98.789362
2177.000000	98.831759
2176.000000	98.875505
2175.000000	98.910534
2174.000000	98.929404
2173.000000	98.923281
2172.000000	98.899769
2171.000000	98.880138
2170.000000	98.866559
2169.000000	98.833344
2168.000000	98.765967
2167.000000	98.691082
2166.000000	98.650774
2165.000000	98.658813
2164.000000	98.693193
2163.000000	98.722879
2162.000000	98.734631
2161.000000	98.747879
2160.000000	98.809554
2159.000000	98.945226
2158.000000	99.104517
2157.000000	99.199423
2156.000000	99.203290
2155.000000	99.161764
2154.000000	99.117529
2153.000000	99.075639
2152.000000	99.033615
2151.000000	99.002254
2150.000000	98.989417
2149.000000	98.990220
2148.000000	99.001758
2147.000000	99.024627
2146.000000	99.042837
2145.000000	99.026996
2144.000000	98.970469
2143.000000	98.902961
2142.000000	98.858027
2141.000000	98.842873
2140.000000	98.845397
2139.000000	98.855265
2138.000000	98.869248
2137.000000	98.886915
2136.000000	98.908789
2135.000000	98.931085
2134.000000	98.941298
2133.000000	98.930291
2132.000000	98.908369
2131.000000	98.895898
2130.000000	98.897515
2129.000000	98.898138
2128.000000	98.884781
2127.000000	98.860398
2126.000000	98.834608
2125.000000	98.812541
2124.000000	98.796705
2123.000000	98.789564
2122.000000	98.789137
2121.000000	98.788301
2120.000000	98.781760
2119.000000	98.768934
2118.000000	98.749914
2117.000000	98.725945
2116.000000	98.704652
2115.000000	98.696957
2114.000000	98.706396
2113.000000	98.726048
2112.000000	98.745933
2111.000000	98.758708
2110.000000	98.760697
2109.000000	98.755275
2108.000000	98.753224
2107.000000	98.760681
2106.000000	98.768767
2105.000000	98.764320
2104.000000	98.748098
2103.000000	98.732157
2102.000000	98.722347
2101.000000	98.715937
2100.000000	98.714038
2099.000000	98.722644
2098.000000	98.741035
2097.000000	98.760612
2096.000000	98.775859
2095.000000	98.785949
2094.000000	98.787938
2093.000000	98.781025
2092.000000	98.773984
2091.000000	98.774507
2090.000000	98.774912
2089.000000	98.763083
2088.000000	98.744207
2087.000000	98.734502
2086.000000	98.735712
2085.000000	98.734684
2084.000000	98.727216
2083.000000	98.722624
2082.000000	98.722412
2081.000000	98.715076
2080.000000	98.697740
2079.000000	98.684588
2078.000000	98.687055
2077.000000	98.701800
2076.000000	98.723999
2075.000000	98.754799
2074.000000	98.788939
2073.000000	98.811726
2072.000000	98.815713
2071.000000	98.806498
2070.000000	98.788532
2069.000000	98.763396
2068.000000	98.745166
2067.000000	98.754515
2066.000000	98.789692
2065.000000	98.822671
2064.000000	98.834603
2063.000000	98.835745
2062.000000	98.840283
2061.000000	98.845027
2060.000000	98.843479
2059.000000	98.839677
2058.000000	98.836140
2057.000000	98.825900
2056.000000	98.807323
2055.000000	98.789552
2054.000000	98.773741
2053.000000	98.747390
2052.000000	98.708750
2051.000000	98.679584
2050.000000	98.681808
2049.000000	98.712829
2048.000000	98.753705
2047.000000	98.790703
2046.000000	98.816819
2045.000000	98.828416
2044.000000	98.835279
2043.000000	98.855974
2042.000000	98.891036
2041.000000	98.917971
2040.000000	98.922157
2039.000000	98.911978
2038.000000	98.897566
2037.000000	98.882346
2036.000000	98.879218
2035.000000	98.902272
2034.000000	98.935209
2033.000000	98.943648
2032.000000	98.930036
2031.000000	98.936586
2030.000000	98.983312
2029.000000	99.043824
2028.000000	99.091339
2027.000000	99.127401
2026.000000	99.150975
2025.000000	99.141029
2024.000000	99.089218
2023.000000	99.016787
2022.000000	98.947660
2021.000000	98.895852
2020.000000	98.879150
2019.000000	98.906990
2018.000000	98.950568
2017.000000	98.962376
2016.000000	98.936663
2015.000000	98.910838
2014.000000	98.907900
2013.000000	98.924862
2012.000000	98.966711
2011.000000	99.039596
2010.000000	99.111439
2009.000000	99.132012
2008.000000	99.104209
2007.000000	99.081985
2006.000000	99.086565
2005.000000	99.086999
2004.000000	99.070890
2003.000000	99.068423
2002.000000	99.092487
2001.000000	99.113060
2000.000000	99.109298
1999.000000	99.099713
1998.000000	99.103141
1997.000000	99.108887
1996.000000	99.105320
1995.000000	99.103616
1994.000000	99.113956
1993.000000	99.125354
1992.000000	99.127068
1991.000000	99.124805
1990.000000	99.116696
1989.000000	99.086639
1988.000000	99.040004
1987.000000	99.011502
1986.000000	99.020569
1985.000000	99.046800
1984.000000	99.062370
1983.000000	99.061819
1982.000000	99.047472
1981.000000	99.017594
1980.000000	98.984058
1979.000000	98.970913
1978.000000	98.981583
1977.000000	98.994080
1976.000000	99.000979
1975.000000	99.017803
1974.000000	99.043776
1973.000000	99.061120
1972.000000	99.075935
1971.000000	99.110324
1970.000000	99.151390
1969.000000	99.157059
1968.000000	99.122239
1967.000000	99.093413
1966.000000	99.099301
1965.000000	99.116917
1964.000000	99.124891
1963.000000	99.135860
1962.000000	99.158906
1961.000000	99.175915
1960.000000	99.175809
1959.000000	99.175735
1958.000000	99.186952
1957.000000	99.193104
1956.000000	99.179253
1955.000000	99.151848
1954.000000	99.118665
1953.000000	99.077113
1952.000000	99.034008
1951.000000	99.011150
1950.000000	99.016625
1949.000000	99.034174
1948.000000	99.051084
1947.000000	99.071510
1946.000000	99.094210
1945.000000	99.102712
1944.000000	99.088987
1943.000000	99.065502
1942.000000	99.043638
1941.000000	99.022974
1940.000000	99.007697
1939.000000	99.008101
1938.000000	99.020242
1937.000000	99.023467
1936.000000	99.008557
1935.000000	98.992635
1934.000000	98.995423
1933.000000	99.015951
1932.000000	99.042227
1931.000000	99.067781
1930.000000	99.084864
1929.000000	99.083992
1928.000000	99.070036
1927.000000	99.060996
1926.000000	99.065606
1925.000000	99.073763
1924.000000	99.075850
1923.000000	99.072289
1922.000000	99.060188
1921.000000	99.032985
1920.000000	98.996154
1919.000000	98.968663
1918.000000	98.960478
1917.000000	98.961086
1916.000000	98.961194
1915.000000	98.963307
1914.000000	98.967737
1913.000000	98.969330
1912.000000	98.969830
1911.000000	98.979095
1910.000000	98.995247
1909.000000	99.004180
1908.000000	99.004186
1907.000000	99.008217
1906.000000	99.018289
1905.000000	99.018813
1904.000000	99.004655
1903.000000	98.990737
1902.000000	98.985889
1901.000000	98.982330
1900.000000	98.974912
1899.000000	98.972127
1898.000000	98.980830
1897.000000	98.992731
1896.000000	98.997998
1895.000000	98.999187
1894.000000	99.001659
1893.000000	99.004644
1892.000000	99.007248
1891.000000	99.011459
1890.000000	99.013492
1889.000000	99.006722
1888.000000	98.998941
1887.000000	99.004002
1886.000000	99.019645
1885.000000	99.031731
1884.000000	99.035081
1883.000000	99.037715
1882.000000	99.042986
1881.000000	99.045698
1880.000000	99.045883
1879.000000	99.049382
1878.000000	99.055371
1877.000000	99.054864
1876.000000	99.045907
1875.000000	99.038382
1874.000000	99.037905
1873.000000	99.039547
1872.000000	99.040901
1871.000000	99.046286
1870.000000	99.054345
1869.000000	99.052645
1868.000000	99.041081
1867.000000	99.037028
1866.000000	99.041784
1865.000000	99.042216
1864.000000	99.038534
1863.000000	99.042273
1862.000000	99.054742
1861.000000	99.063384
1860.000000	99.062067
1859.000000	99.057463
1858.000000	99.052042
1857.000000	99.041341
1856.000000	99.029995
1855.000000	99.031244
1854.000000	99.046789
1853.000000	99.064364
1852.000000	99.075436
1851.000000	99.080868
1850.000000	99.085806
1849.000000	99.095229
1848.000000	99.114309
1847.000000	99.142012
1846.000000	99.163865
1845.000000	99.161997
1844.000000	99.140237
1843.000000	99.123434
1842.000000	99.117738
1841.000000	99.110647
1840.000000	99.101155
1839.000000	99.098375
1838.000000	99.101605
1837.000000	99.097890
1836.000000	99.086084
1835.000000	99.081048
1834.000000	99.089363
1833.000000	99.102035
1832.000000	99.108320
1831.000000	99.107917
1830.000000	99.106957
1829.000000	99.107381
1828.000000	99.109524
1827.000000	99.113880
1826.000000	99.118720
1825.000000	99.119539
1824.000000	99.117749
1823.000000	99.122217
1822.000000	99.131396
1821.000000	99.134639
1820.000000	99.129343
1819.000000	99.125912
1818.000000	99.131834
1817.000000	99.139165
1816.000000	99.141834
1815.000000	99.143410
1814.000000	99.143282
1813.000000	99.134444
1812.000000	99.116918
1811.000000	99.106534
1810.000000	99.111209
1809.000000	99.115639
1808.000000	99.109922
1807.000000	99.102744
1806.000000	99.099618
1805.000000	99.093315
1804.000000	99.082788
1803.000000	99.079160
1802.000000	99.086797
1801.000000	99.093252
1800.000000	99.090954
1799.000000	99.093265
1798.000000	99.106220
1797.000000	99.117553
1796.000000	99.122127
1795.000000	99.127224
1794.000000	99.136820
1793.000000	99.141202
1792.000000	99.130466
1791.000000	99.115972
1790.000000	99.108105
1789.000000	99.099591
1788.000000	99.089307
1787.000000	99.087672
1786.000000	99.098765
1785.000000	99.112073
1784.000000	99.120658
1783.000000	99.126156
1782.000000	99.126424
1781.000000	99.117855
1780.000000	99.104580
1779.000000	99.101791
1778.000000	99.115119
1777.000000	99.135778
1776.000000	99.157189
1775.000000	99.175139
1774.000000	99.186094
1773.000000	99.186182
1772.000000	99.177003
1771.000000	99.172061
1770.000000	99.172559
1769.000000	99.161528
1768.000000	99.137971
1767.000000	99.121906
1766.000000	99.122774
1765.000000	99.125944
1764.000000	99.117744
1763.000000	99.101495
1762.000000	99.086432
1761.000000	99.073987
1760.000000	99.059689
1759.000000	99.043050
1758.000000	99.020474
1757.000000	98.987456
1756.000000	98.949154
1755.000000	98.916598
1754.000000	98.891134
1753.000000	98.866215
1752.000000	98.841050
1751.000000	98.818465
1750.000000	98.792026
1749.000000	98.743137
1748.000000	98.669716
1747.000000	98.594384
1746.000000	98.535161
1745.000000	98.486717
1744.000000	98.436283
1743.000000	98.388809
1742.000000	98.355438
1741.000000	98.329802
1740.000000	98.305245
1739.000000	98.298461
1738.000000	98.319470
1737.000000	98.350547
1736.000000	98.380755
1735.000000	98.431723
1734.000000	98.513340
1733.000000	98.587969
1732.000000	98.626906
1731.000000	98.637518
1730.000000	98.634578
1729.000000	98.631162
1728.000000	98.635788
1727.000000	98.648447
1726.000000	98.664746
1725.000000	98.678403
1724.000000	98.683894
1723.000000	98.687749
1722.000000	98.693593
1721.000000	98.690778
1720.000000	98.668962
1719.000000	98.642829
1718.000000	98.640695
1717.000000	98.640691
1716.000000	98.606057
1715.000000	98.547403
1714.000000	98.480367
1713.000000	98.409474
1712.000000	98.343381
1711.000000	98.290642
1710.000000	98.253423
1709.000000	98.228249
1708.000000	98.208229
1707.000000	98.187704
1706.000000	98.164838
1705.000000	98.138654
1704.000000	98.118732
1703.000000	98.105836
1702.000000	98.085610
1701.000000	98.029904
1700.000000	97.948897
1699.000000	97.894834
1698.000000	97.844311
1697.000000	97.730888
1696.000000	97.565260
1695.000000	97.440212
1694.000000	97.384071
1693.000000	97.330677
1692.000000	97.247920
1691.000000	97.154413
1690.000000	97.071036
1689.000000	96.996110
1688.000000	96.922136
1687.000000	96.845341
1686.000000	96.761304
1685.000000	96.637985
1684.000000	96.477715
1683.000000	96.366596
1682.000000	96.307224
1681.000000	96.228026
1680.000000	96.121180
1679.000000	96.018228
1678.000000	95.929667
1677.000000	95.831666
1676.000000	95.702868
1675.000000	95.564219
1674.000000	95.451110
1673.000000	95.355479
1672.000000	95.246647
1671.000000	95.118576
1670.000000	94.973710
1669.000000	94.817548
1668.000000	94.669946
1667.000000	94.545253
1666.000000	94.438002
1665.000000	94.327660
1664.000000	94.196459
1663.000000	94.049896
1662.000000	93.907919
1661.000000	93.778659
1660.000000	93.653835
1659.000000	93.536619
1658.000000	93.435829
1657.000000	93.352314
1656.000000	93.264700
1655.000000	93.162047
1654.000000	93.032241
1653.000000	92.893295
1652.000000	92.826672
1651.000000	92.815472
1650.000000	92.794190
1649.000000	92.748719
1648.000000	92.688886
1647.000000	92.637848
1646.000000	92.611402
1645.000000	92.598133
1644.000000	92.576956
1643.000000	92.548156
1642.000000	92.519705
1641.000000	92.493843
1640.000000	92.471362
1639.000000	92.454764
1638.000000	92.443890
1637.000000	92.431557
1636.000000	92.410348
1635.000000	92.392416
1634.000000	92.386837
1633.000000	92.369500
1632.000000	92.335684
1631.000000	92.305978
1630.000000	92.293352
1629.000000	92.298499
1628.000000	92.317977
1627.000000	92.348904
1626.000000	92.383396
1625.000000	92.417153
1624.000000	92.460432
1623.000000	92.529037
1622.000000	92.614132
1621.000000	92.689510
1620.000000	92.744355
1619.000000	92.794552
1618.000000	92.877689
1617.000000	93.026013
1616.000000	93.219298
1615.000000	93.397131
1614.000000	93.531983
1613.000000	93.642799
1612.000000	93.760444
1611.000000	93.898757
1610.000000	94.046120
1609.000000	94.188022
1608.000000	94.323098
1607.000000	94.450546
1606.000000	94.563456
1605.000000	94.663778
1604.000000	94.761501
1603.000000	94.860050
1602.000000	94.952031
1601.000000	95.030735
1600.000000	95.099176
1599.000000	95.162069
1598.000000	95.220231
1597.000000	95.273598
1596.000000	95.323948
1595.000000	95.370463
1594.000000	95.407322
1593.000000	95.432744
1592.000000	95.451596
1591.000000	95.464863
1590.000000	95.465763
1589.000000	95.451594
1588.000000	95.427231
1587.000000	95.394342
1586.000000	95.347025
1585.000000	95.283359
1584.000000	95.206603
1583.000000	95.111491
1582.000000	94.992872
1581.000000	94.862886
1580.000000	94.741659
1579.000000	94.633857
1578.000000	94.534018
1577.000000	94.446035
1576.000000	94.392891
1575.000000	94.386090
1574.000000	94.397406
1573.000000	94.398878
1572.000000	94.389560
1571.000000	94.383617
1570.000000	94.387366
1569.000000	94.394527
1568.000000	94.394352
1567.000000	94.375475
1566.000000	94.336262
1565.000000	94.288597
1564.000000	94.245261
1563.000000	94.203976
1562.000000	94.154706
1561.000000	94.092093
1560.000000	94.021561
1559.000000	93.934901
1558.000000	93.852183
1557.000000	93.799449
1556.000000	93.723787
1555.000000	93.605968
1554.000000	93.478930
1553.000000	93.363409
1552.000000	93.258085
1551.000000	93.148091
1550.000000	93.038265
1549.000000	92.938083
1548.000000	92.849770
1547.000000	92.760748
1546.000000	92.663590
1545.000000	92.559703
1544.000000	92.450233
1543.000000	92.335346
1542.000000	92.218860
1541.000000	92.099204
1540.000000	92.008530
1539.000000	92.013326
1538.000000	92.094508
1537.000000	92.177497
1536.000000	92.246446
1535.000000	92.333271
1534.000000	92.477194
1533.000000	92.660465
1532.000000	92.815223
1531.000000	92.924612
1530.000000	93.013886
1529.000000	93.101264
1528.000000	93.196392
1527.000000	93.306787
1526.000000	93.427684
1525.000000	93.534158
1524.000000	93.608262
1523.000000	93.669336
1522.000000	93.750776
1521.000000	93.841751
1520.000000	93.912153
1519.000000	93.964780
1518.000000	94.019648
1517.000000	94.085775
1516.000000	94.154334
1515.000000	94.218424
1514.000000	94.281414
1513.000000	94.349727
1512.000000	94.430697
1511.000000	94.527706
1510.000000	94.636968
1509.000000	94.753652
1508.000000	94.881536
1507.000000	94.998525
1506.000000	95.090708
1505.000000	95.172816
1504.000000	95.227659
1503.000000	95.265218
1502.000000	95.314220
1501.000000	95.378814
1500.000000	95.451783
1499.000000	95.523932
1498.000000	95.601310
1497.000000	95.676298
1496.000000	95.736074
1495.000000	95.791186
1494.000000	95.847433
1493.000000	95.893805
1492.000000	95.930674
1491.000000	95.979163
1490.000000	96.043688
1489.000000	96.082187
1488.000000	96.076263
1487.000000	96.061528
1486.000000	96.053115
1485.000000	96.037955
1484.000000	96.010385
1483.000000	95.974672
1482.000000	95.934502
1481.000000	95.881017
1480.000000	95.810175
1479.000000	95.731572
1478.000000	95.652517
1477.000000	95.569549
1476.000000	95.483986
1475.000000	95.405670
1474.000000	95.324844
1473.000000	95.198703
1472.000000	95.019370
1471.000000	94.851331
1470.000000	94.724206
1469.000000	94.613340
1468.000000	94.508723
1467.000000	94.422129
1466.000000	94.362100
1465.000000	94.321224
1464.000000	94.291029
1463.000000	94.275121
1462.000000	94.271327
1461.000000	94.267256
1460.000000	94.255903
1459.000000	94.242928
1458.000000	94.232487
1457.000000	94.193326
1456.000000	94.122018
1455.000000	94.062084
1454.000000	94.021408
1453.000000	93.989125
1452.000000	93.966296
1451.000000	93.956771
1450.000000	93.958722
1449.000000	93.961669
1448.000000	93.964359
1447.000000	93.974802
1446.000000	93.992886
1445.000000	94.008610
1444.000000	94.015389
1443.000000	94.020349
1442.000000	94.032566
1441.000000	94.050554
1440.000000	94.067772
1439.000000	94.084566
1438.000000	94.111420
1437.000000	94.151958
1436.000000	94.194084
1435.000000	94.227641
1434.000000	94.252391
1433.000000	94.269304
1432.000000	94.284635
1431.000000	94.307755
1430.000000	94.341995
1429.000000	94.377836
1428.000000	94.404389
1427.000000	94.420329
1426.000000	94.427713
1425.000000	94.431247
1424.000000	94.431053
1423.000000	94.426585
1422.000000	94.421109
1421.000000	94.415702
1420.000000	94.412076
1419.000000	94.413052
1418.000000	94.418783
1417.000000	94.420929
1416.000000	94.413181
1415.000000	94.405155
1414.000000	94.409875
1413.000000	94.427265
1412.000000	94.446651
1411.000000	94.460556
1410.000000	94.471488
1409.000000	94.481376
1408.000000	94.489345
1407.000000	94.498564
1406.000000	94.512682
1405.000000	94.530827
1404.000000	94.547693
1403.000000	94.562649
1402.000000	94.578144
1401.000000	94.594615
1400.000000	94.616193
1399.000000	94.647565
1398.000000	94.685203
1397.000000	94.717564
1396.000000	94.738107
1395.000000	94.750557
1394.000000	94.764590
1393.000000	94.784424
1392.000000	94.802803
1391.000000	94.817856
1390.000000	94.836156
1389.000000	94.861059
1388.000000	94.888349
1387.000000	94.909209
1386.000000	94.918881
1385.000000	94.920635
1384.000000	94.922115
1383.000000	94.933689
1382.000000	94.959585
1381.000000	94.990287
1380.000000	95.016172
1379.000000	95.038528
1378.000000	95.062657
1377.000000	95.090588
1376.000000	95.126227
1375.000000	95.176412
1374.000000	95.239341
1373.000000	95.302781
1372.000000	95.359322
1371.000000	95.410719
1370.000000	95.459458
1369.000000	95.508566
1368.000000	95.560997
1367.000000	95.618452
1366.000000	95.679052
1365.000000	95.738208
1364.000000	95.796225
1363.000000	95.854583
1362.000000	95.906078
1361.000000	95.944288
1360.000000	95.974570
1359.000000	96.005633
1358.000000	96.038390
1357.000000	96.066285
1356.000000	96.084511
1355.000000	96.094338
1354.000000	96.097135
1353.000000	96.089744
1352.000000	96.073359
1351.000000	96.056676
1350.000000	96.043600
1349.000000	96.031178
1348.000000	96.015927
1347.000000	95.998006
1346.000000	95.977121
1345.000000	95.951640
1344.000000	95.924466
1343.000000	95.902941
1342.000000	95.890343
1341.000000	95.882123
1340.000000	95.870550
1339.000000	95.850971
1338.000000	95.826450
1337.000000	95.804361
1336.000000	95.791640
1335.000000	95.793165
1334.000000	95.807174
1333.000000	95.826457
1332.000000	95.848247
1331.000000	95.875970
1330.000000	95.909947
1329.000000	95.944709
1328.000000	95.977546
1327.000000	96.009919
1326.000000	96.039068
1325.000000	96.059254
1324.000000	96.070388
1323.000000	96.079625
1322.000000	96.092016
1321.000000	96.105291
1320.000000	96.115999
1319.000000	96.124239
1318.000000	96.130191
1317.000000	96.132762
1316.000000	96.135398
1315.000000	96.145724
1314.000000	96.165364
1313.000000	96.186546
1312.000000	96.203973
1311.000000	96.222130
1310.000000	96.245289
1309.000000	96.268479
1308.000000	96.285519
1307.000000	96.298471
1306.000000	96.312105
1305.000000	96.326527
1304.000000	96.339835
1303.000000	96.354011
1302.000000	96.371184
1301.000000	96.388399
1300.000000	96.402343
1299.000000	96.415185
1298.000000	96.429896
1297.000000	96.443759
1296.000000	96.452539
1295.000000	96.456578
1294.000000	96.457997
1293.000000	96.455525
1292.000000	96.446997
1291.000000	96.433336
1290.000000	96.415501
1289.000000	96.392291
1288.000000	96.365373
1287.000000	96.341007
1286.000000	96.322083
1285.000000	96.303779
1284.000000	96.281845
1283.000000	96.259522
1282.000000	96.241577
1281.000000	96.227849
1280.000000	96.217932
1279.000000	96.214991
1278.000000	96.219759
1277.000000	96.226836
1276.000000	96.232313
1275.000000	96.238883
1274.000000	96.248917
1273.000000	96.259140
1272.000000	96.266314
1271.000000	96.271300
1270.000000	96.272785
1269.000000	96.264975
1268.000000	96.246758
1267.000000	96.225656
1266.000000	96.207603
1265.000000	96.189248
1264.000000	96.166116
1263.000000	96.141253
1262.000000	96.119038
1261.000000	96.097978
1260.000000	96.076194
1259.000000	96.056192
1258.000000	96.038313
1257.000000	96.016778
1256.000000	95.988701
1255.000000	95.959398
1254.000000	95.933088
1253.000000	95.906103
1252.000000	95.874779
1251.000000	95.841568
1250.000000	95.807376
1249.000000	95.766927
1248.000000	95.718673
1247.000000	95.671009
1246.000000	95.631456
1245.000000	95.596641
1244.000000	95.559871
1243.000000	95.521430
1242.000000	95.484563
1241.000000	95.449120
1240.000000	95.416504
1239.000000	95.392921
1238.000000	95.379776
1237.000000	95.368807
1236.000000	95.354108
1235.000000	95.341871
1234.000000	95.341804
1233.000000	95.355866
1232.000000	95.382201
1231.000000	95.421278
1230.000000	95.471027
1229.000000	95.524356
1228.000000	95.578318
1227.000000	95.638601
1226.000000	95.708192
1225.000000	95.779788
1224.000000	95.846528
1223.000000	95.911677
1222.000000	95.980386
1221.000000	96.049802
1220.000000	96.114551
1219.000000	96.174371
1218.000000	96.229510
1217.000000	96.275553
1216.000000	96.310190
1215.000000	96.338584
1214.000000	96.364607
1213.000000	96.383636
1212.000000	96.390275
1211.000000	96.386639
1210.000000	96.376577
1209.000000	96.358624
1208.000000	96.332696
1207.000000	96.306338
1206.000000	96.286369
1205.000000	96.270873
1204.000000	96.256612
1203.000000	96.247091
1202.000000	96.246202
1201.000000	96.251667
1200.000000	96.261660
1199.000000	96.280255
1198.000000	96.308839
1197.000000	96.340131
1196.000000	96.368636
1195.000000	96.398922
1194.000000	96.435667
1193.000000	96.473248
1192.000000	96.503475
1191.000000	96.526935
1190.000000	96.549051
1189.000000	96.571290
1188.000000	96.593314
1187.000000	96.616810
1186.000000	96.639843
1185.000000	96.654756
1184.000000	96.658796
1183.000000	96.659955
1182.000000	96.665421
1181.000000	96.671326
1180.000000	96.671427
1179.000000	96.667658
1178.000000	96.663799
1177.000000	96.656856
1176.000000	96.643033
1175.000000	96.625037
1174.000000	96.605846
1173.000000	96.582792
1172.000000	96.554716
1171.000000	96.526842
1170.000000	96.501964
1169.000000	96.475046
1168.000000	96.443241
1167.000000	96.412226
1166.000000	96.385803
1165.000000	96.359276
1164.000000	96.330661
1163.000000	96.307637
1162.000000	96.294251
1161.000000	96.281387
1160.000000	96.260140
1159.000000	96.234816
1158.000000	96.213458
1157.000000	96.195298
1156.000000	96.177479
1155.000000	96.164365
1154.000000	96.159806
1153.000000	96.158792
1152.000000	96.155752
1151.000000	96.152651
1150.000000	96.150859
1149.000000	96.145266
1148.000000	96.135207
1147.000000	96.130379
1146.000000	96.136787
1145.000000	96.147149
1144.000000	96.153891
1143.000000	96.160385
1142.000000	96.170439
1141.000000	96.178769
1140.000000	96.182147
1139.000000	96.188493
1138.000000	96.204098
1137.000000	96.222055
1136.000000	96.233552
1135.000000	96.240376
1134.000000	96.246389
1133.000000	96.247176
1132.000000	96.238808
1131.000000	96.227000
1130.000000	96.217368
1129.000000	96.206280
1128.000000	96.190240
1127.000000	96.174077
1126.000000	96.160388
1125.000000	96.142130
1124.000000	96.115817
1123.000000	96.090791
1122.000000	96.075079
1121.000000	96.062637
1120.000000	96.044670
1119.000000	96.022876
1118.000000	96.001942
1117.000000	95.979992
1116.000000	95.956103
1115.000000	95.935951
1114.000000	95.920665
1113.000000	95.901897
1112.000000	95.877252
1111.000000	95.857943
1110.000000	95.852231
1109.000000	95.853956
1108.000000	95.856006
1107.000000	95.861603
1106.000000	95.872358
1105.000000	95.880489
1104.000000	95.883777
1103.000000	95.892759
1102.000000	95.911789
1101.000000	95.926632
1100.000000	95.924050
1099.000000	95.911636
1098.000000	95.902858
1097.000000	95.898804
1096.000000	95.895227
1095.000000	95.894951
1094.000000	95.899698
1093.000000	95.901401
1092.000000	95.893773
1091.000000	95.881562
1090.000000	95.868441
1089.000000	95.848297
1088.000000	95.818432
1087.000000	95.787938
1086.000000	95.763081
1085.000000	95.737992
1084.000000	95.709771
1083.000000	95.688190
1082.000000	95.680011
1081.000000	95.678470
1080.000000	95.679585
1079.000000	95.693723
1078.000000	95.729197
1077.000000	95.779216
1076.000000	95.834621
1075.000000	95.894928
1074.000000	95.957275
1073.000000	96.011172
1072.000000	96.054783
1071.000000	96.100149
1070.000000	96.151897
1069.000000	96.196547
1068.000000	96.223644
1067.000000	96.241119
1066.000000	96.259822
1065.000000	96.278625
1064.000000	96.295280
1063.000000	96.315199
1062.000000	96.338363
1061.000000	96.354267
1060.000000	96.360851
1059.000000	96.372077
1058.000000	96.396389
1057.000000	96.424429
1056.000000	96.447722
1055.000000	96.471304
1054.000000	96.497003
1053.000000	96.513761
1052.000000	96.517603
1051.000000	96.523083
1050.000000	96.540678
1049.000000	96.561345
1048.000000	96.576692
1047.000000	96.594031
1046.000000	96.617906
1045.000000	96.637131
1044.000000	96.643878
1043.000000	96.646883
1042.000000	96.653338
1041.000000	96.655557
1040.000000	96.647644
1039.000000	96.636235
1038.000000	96.623181
1037.000000	96.597316
1036.000000	96.557478
1035.000000	96.523354
1034.000000	96.508575
1033.000000	96.502280
1032.000000	96.492284
1031.000000	96.486629
1030.000000	96.495306
1029.000000	96.510725
1028.000000	96.523747
1027.000000	96.541870
1026.000000	96.573258
1025.000000	96.608882
1024.000000	96.637353
1023.000000	96.662281
1022.000000	96.689727
1021.000000	96.714143
1020.000000	96.731891
1019.000000	96.753028
1018.000000	96.785048
1017.000000	96.820299
1016.000000	96.853159
1015.000000	96.892488
1014.000000	96.943617
1013.000000	96.995002
1012.000000	97.037438
1011.000000	97.079382
1010.000000	97.129065
1009.000000	97.177963
1008.000000	97.216157
1007.000000	97.248463
1006.000000	97.282117
1005.000000	97.314608
1004.000000	97.346161
1003.000000	97.387775
1002.000000	97.443593
1001.000000	97.501694
1000.000000	97.554026
999.000000	97.608528
998.000000	97.669306
997.000000	97.723663
996.000000	97.762517
995.000000	97.795857
994.000000	97.833737
993.000000	97.869279
992.000000	97.895334
991.000000	97.920190
990.000000	97.952132
989.000000	97.984556
988.000000	98.011074
987.000000	98.038340
986.000000	98.069492
985.000000	98.092223
984.000000	98.098989
983.000000	98.102421
982.000000	98.115212
981.000000	98.130729
980.000000	98.138629
979.000000	98.143497
978.000000	98.151956
977.000000	98.157571
976.000000	98.153902
975.000000	98.147994
974.000000	98.146477
973.000000	98.144342
972.000000	98.141045
971.000000	98.150338
970.000000	98.178693
969.000000	98.211385
968.000000	98.235637
967.000000	98.259739
966.000000	98.293557
965.000000	98.327471
964.000000	98.348902
963.000000	98.363194
962.000000	98.380793
961.000000	98.398612
960.000000	98.411587
959.000000	98.427797
958.000000	98.454671
957.000000	98.483665
956.000000	98.504505
955.000000	98.521598
954.000000	98.541781
953.000000	98.560588
952.000000	98.574392
951.000000	98.590795
950.000000	98.612284
949.000000	98.626006
948.000000	98.624516
947.000000	98.620979
946.000000	98.628327
945.000000	98.639617
944.000000	98.644313
943.000000	98.647320
942.000000	98.656488
941.000000	98.667045
940.000000	98.674024
939.000000	98.683653
938.000000	98.697706
937.000000	98.703538
936.000000	98.695767
935.000000	98.690462
934.000000	98.701919
933.000000	98.722087
932.000000	98.739020
931.000000	98.757428
930.000000	98.783255
929.000000	98.806183
928.000000	98.816360
927.000000	98.822959
926.000000	98.837453
925.000000	98.853849
924.000000	98.862752
923.000000	98.870075
922.000000	98.883760
921.000000	98.896692
920.000000	98.900111
919.000000	98.900163
918.000000	98.905191
917.000000	98.910986
916.000000	98.914275
915.000000	98.924851
914.000000	98.948436
913.000000	98.972986
912.000000	98.988321
911.000000	99.002823
910.000000	99.024853
909.000000	99.044105
908.000000	99.049090
907.000000	99.046946
906.000000	99.048735
905.000000	99.051226
904.000000	99.050017
903.000000	99.054381
902.000000	99.071225
901.000000	99.090109
900.000000	99.100567
899.000000	99.109020
898.000000	99.122425
897.000000	99.132735
896.000000	99.133361
895.000000	99.134357
894.000000	99.145020
893.000000	99.158376
892.000000	99.167893
891.000000	99.180764
890.000000	99.199066
889.000000	99.207057
888.000000	99.194192
887.000000	99.170887
886.000000	99.145921
885.000000	99.108683
884.000000	99.051588
883.000000	98.987355
882.000000	98.923472
881.000000	98.841398
880.000000	98.722991
879.000000	98.578393
878.000000	98.427148
877.000000	98.274109
876.000000	98.126442
875.000000	98.012731
874.000000	97.959627
873.000000	97.966484
872.000000	98.022062
871.000000	98.123194
870.000000	98.257049
869.000000	98.389817
868.000000	98.496038
867.000000	98.580802
866.000000	98.654848
865.000000	98.710656
864.000000	98.743199
863.000000	98.769806
862.000000	98.805892
861.000000	98.841209
860.000000	98.862436
859.000000	98.877594
858.000000	98.896814
857.000000	98.910558
856.000000	98.910673
855.000000	98.912461
854.000000	98.931343
853.000000	98.956197
852.000000	98.968304
851.000000	98.969911
850.000000	98.973190
849.000000	98.979717
848.000000	98.990207
847.000000	99.014525
846.000000	99.051795
845.000000	99.080805
844.000000	99.089087
843.000000	99.091300
842.000000	99.101572
841.000000	99.111339
840.000000	99.113343
839.000000	99.121441
838.000000	99.144857
837.000000	99.166493
836.000000	99.169649
835.000000	99.163163
834.000000	99.159736
833.000000	99.153762
832.000000	99.142333
831.000000	99.142163
830.000000	99.161128
829.000000	99.177538
828.000000	99.173096
827.000000	99.162358
826.000000	99.163901
825.000000	99.169184
824.000000	99.166752
823.000000	99.168161
822.000000	99.180382
821.000000	99.183786
820.000000	99.167199
819.000000	99.153951
818.000000	99.163579
817.000000	99.177014
816.000000	99.169855
815.000000	99.153908
814.000000	99.154511
813.000000	99.167641
812.000000	99.170461
811.000000	99.156700
810.000000	99.135568
809.000000	99.113104
808.000000	99.097066
807.000000	99.101025
806.000000	99.121989
805.000000	99.134613
804.000000	99.127292
803.000000	99.120577
802.000000	99.131976
801.000000	99.150102
800.000000	99.162683
799.000000	99.178919
798.000000	99.200710
797.000000	99.204425
796.000000	99.178660
795.000000	99.150262
794.000000	99.145030
793.000000	99.151034
792.000000	99.147302
791.000000	99.139809
790.000000	99.141528
789.000000	99.144276
788.000000	99.138692
787.000000	99.136891
786.000000	99.148471
785.000000	99.158306
784.000000	99.152982
783.000000	99.144651
782.000000	99.145146
781.000000	99.142548
780.000000	99.127732
779.000000	99.117475
778.000000	99.125804
777.000000	99.138110
776.000000	99.138960
775.000000	99.139005
774.000000	99.148625
773.000000	99.152466
772.000000	99.138349
771.000000	99.125334
770.000000	99.133620
769.000000	99.150411
768.000000	99.154711
767.000000	99.152975
766.000000	99.161231
765.000000	99.173610
764.000000	99.176859
763.000000	99.176290
762.000000	99.180540
761.000000	99.180933
760.000000	99.170647
759.000000	99.163070
758.000000	99.166973
757.000000	99.166450
756.000000	99.149946
755.000000	99.135796
754.000000	99.143531
753.000000	99.162416
752.000000	99.173031
751.000000	99.176725
750.000000	99.179756
749.000000	99.173127
748.000000	99.154083
747.000000	99.142497
746.000000	99.150046
745.000000	99.156888
744.000000	99.144622
743.000000	99.127073
742.000000	99.121754
741.000000	99.117424
740.000000	99.098549
739.000000	99.077115
738.000000	99.070157
737.000000	99.069572
736.000000	99.062246
735.000000	99.057168
734.000000	99.063462
733.000000	99.064353
732.000000	99.042756
731.000000	99.012668
730.000000	98.995114
729.000000	98.980370
728.000000	98.946290
727.000000	98.895528
726.000000	98.844899
725.000000	98.799246
724.000000	98.761936
723.000000	98.746836
722.000000	98.753563
721.000000	98.755138
720.000000	98.738294
719.000000	98.728854
718.000000	98.748489
717.000000	98.773927
716.000000	98.767932
715.000000	98.728798
714.000000	98.682187
713.000000	98.645282
712.000000	98.625942
711.000000	98.635255
710.000000	98.671428
709.000000	98.709424
708.000000	98.731674
707.000000	98.751325
706.000000	98.779474
705.000000	98.799359
704.000000	98.800900
703.000000	98.804843
702.000000	98.825681
701.000000	98.841179
700.000000	98.828113
699.000000	98.803816
698.000000	98.796253
697.000000	98.800260
696.000000	98.800311
695.000000	98.804527
694.000000	98.826905
693.000000	98.855148
692.000000	98.865947
691.000000	98.862023
690.000000	98.857488
689.000000	98.849027
688.000000	98.831379
687.000000	98.816668
686.000000	98.814097
685.000000	98.808842
684.000000	98.785233
683.000000	98.754559
682.000000	98.731360
681.000000	98.703868
680.000000	98.654322
679.000000	98.592470
678.000000	98.540402
677.000000	98.489976
676.000000	98.420646
675.000000	98.340297
674.000000	98.268243
673.000000	98.206527
672.000000	98.163793
671.000000	98.181838
670.000000	98.290030
669.000000	98.448666
668.000000	98.503018
667.000000	98.356367
666.000000	98.193017
665.000000	98.098041
664.000000	98.039148
663.000000	98.031558
662.000000	98.085692
661.000000	98.171374
660.000000	98.248259
659.000000	98.314600
658.000000	98.378912
657.000000	98.421501
656.000000	98.437069
655.000000	98.463995
654.000000	98.516586
653.000000	98.549084
652.000000	98.536705
651.000000	98.520848
650.000000	98.535093
649.000000	98.550621
648.000000	98.545031
647.000000	98.549486
646.000000	98.577944
645.000000	98.587459
644.000000	98.554911
643.000000	98.522256
642.000000	98.525750
641.000000	98.540063
640.000000	98.538042
639.000000	98.544386
638.000000	98.574377
637.000000	98.586806
636.000000	98.553696
635.000000	98.514218
634.000000	98.508272
633.000000	98.515081
632.000000	98.504684
631.000000	98.493901
630.000000	98.500683
629.000000	98.499985
628.000000	98.476516
627.000000	98.463264
626.000000	98.476299
625.000000	98.473624
624.000000	98.430307
623.000000	98.390172
622.000000	98.394641
621.000000	98.417759
620.000000	98.421509
619.000000	98.418496
618.000000	98.429944
617.000000	98.435789
616.000000	98.419476
615.000000	98.409636
614.000000	98.420781
613.000000	98.409524
612.000000	98.343135
611.000000	98.258897
610.000000	98.201097
609.000000	98.154815
608.000000	98.093859
607.000000	98.037203
606.000000	98.000629
605.000000	97.952405
604.000000	97.871264
603.000000	97.791668
602.000000	97.742392
601.000000	97.698698
600.000000	97.645466
599.000000	97.620951
598.000000	97.648785
597.000000	97.688923
596.000000	97.709024
595.000000	97.737916
594.000000	97.800048
593.000000	97.859980
592.000000	97.885871
591.000000	97.907413
590.000000	97.951453
589.000000	97.986038
588.000000	97.984319
587.000000	97.978072
586.000000	97.997241
585.000000	98.018753
584.000000	98.026084
583.000000	98.052195
582.000000	98.107429
581.000000	98.134847
580.000000	98.098918
579.000000	98.051776
578.000000	98.052272
577.000000	98.088111
576.000000	98.130400
575.000000	98.190143
574.000000	98.262830
573.000000	98.295196
572.000000	98.268692
571.000000	98.241944
570.000000	98.255657
569.000000	98.264382
568.000000	98.226767
567.000000	98.182945
566.000000	98.170456
565.000000	98.149400
564.000000	98.087822
563.000000	98.035533
562.000000	98.038398
561.000000	98.057473
560.000000	98.051283
559.000000	98.060392
558.000000	98.123865
557.000000	98.189597
556.000000	98.193838
555.000000	98.160506
554.000000	98.141374
553.000000	98.128898
552.000000	98.107238
551.000000	98.112793
550.000000	98.161350
549.000000	98.192653
548.000000	98.174140
547.000000	98.176482
546.000000	98.260397
545.000000	98.366824
544.000000	98.413567
543.000000	98.415274
542.000000	98.419425
541.000000	98.409587
540.000000	98.362845
539.000000	98.325842
538.000000	98.342796
537.000000	98.376645
536.000000	98.382887
535.000000	98.387306
534.000000	98.411641
533.000000	98.403669
532.000000	98.330793
531.000000	98.257341
530.000000	98.241662
529.000000	98.247594
528.000000	98.243215
527.000000	98.286849
526.000000	98.412932
525.000000	98.521149
524.000000	98.516067
523.000000	98.451877
522.000000	98.422029
521.000000	98.421137
520.000000	98.402958
519.000000	98.386780
518.000000	98.405729
517.000000	98.421938
516.000000	98.410618
515.000000	98.433722
514.000000	98.521879
513.000000	98.594016
512.000000	98.584482
511.000000	98.556061
510.000000	98.593531
509.000000	98.668251
508.000000	98.713738
507.000000	98.742247
506.000000	98.784966
505.000000	98.812798
504.000000	98.816193
503.000000	98.863619
502.000000	98.970652
501.000000	99.017095
500.000000	98.931716
499.000000	98.813150
498.000000	98.765614
497.000000	98.755671
496.000000	98.719618
495.000000	98.700996
494.000000	98.758338
493.000000	98.826852
492.000000	98.808111
491.000000	98.726544
490.000000	98.676036
489.000000	98.686895
488.000000	98.756654
487.000000	98.904035
486.000000	99.085662
485.000000	99.163328
484.000000	99.078669
483.000000	98.956625
482.000000	98.912343
481.000000	98.906058
480.000000	98.890847
479.000000	98.932347
478.000000	99.060119
477.000000	99.145539
476.000000	99.080531
475.000000	98.954226
474.000000	98.910139
473.000000	98.935557
472.000000	98.942037
471.000000	98.957834
470.000000	99.036717
469.000000	99.101233
468.000000	99.067651
467.000000	99.004821
466.000000	99.024441
465.000000	99.101202
464.000000	99.159676
463.000000	99.210714
462.000000	99.257493
461.000000	99.214105
460.000000	99.062293
459.000000	98.965570
458.000000	99.063013
457.000000	99.208502
456.000000	99.207863
455.000000	99.149243
454.000000	99.168583
453.000000	99.210999
452.000000	99.175544
451.000000	99.148909
450.000000	99.254241
