PE IR       SUBTECH     SPECTRUM    ASCII       PEDS        4.00        
   -1
msmeh_8_side2_001_1.ASC
23/09/08
14:19:45.00
23/09/08
14:52:56.00
uco
Sample 001 By uco Date Friday, September 08 2023
450.000000
#HDR
-1
-1
#GR
cm-1
%T
1.0
0.0
4000.000000
-1.000000
3551
8
100.045772
97.844718
#DATA
4000.000000	99.879742
3999.000000	99.877879
3998.000000	99.874970
3997.000000	99.876435
3996.000000	99.879211
3995.000000	99.881084
3994.000000	99.880327
3993.000000	99.876609
3992.000000	99.870727
3991.000000	99.863737
3990.000000	99.856619
3989.000000	99.850559
3988.000000	99.846895
3987.000000	99.846206
3986.000000	99.847575
3985.000000	99.849249
3984.000000	99.850154
3983.000000	99.850569
3982.000000	99.851037
3981.000000	99.851080
3980.000000	99.849593
3979.000000	99.846425
3978.000000	99.843046
3977.000000	99.841651
3976.000000	99.843918
3975.000000	99.850210
3974.000000	99.859209
3973.000000	99.867962
3972.000000	99.873147
3971.000000	99.873247
3970.000000	99.869591
3969.000000	99.865001
3968.000000	99.861107
3967.000000	99.857502
3966.000000	99.853442
3965.000000	99.849641
3964.000000	99.847891
3963.000000	99.849058
3962.000000	99.851945
3961.000000	99.854281
3960.000000	99.854944
3959.000000	99.854713
3958.000000	99.854992
3957.000000	99.856289
3956.000000	99.857725
3955.000000	99.858016
3954.000000	99.856718
3953.000000	99.854461
3952.000000	99.852223
3951.000000	99.850366
3950.000000	99.848465
3949.000000	99.845800
3948.000000	99.841901
3947.000000	99.836758
3946.000000	99.830838
3945.000000	99.825531
3944.000000	99.823152
3943.000000	99.825631
3942.000000	99.832893
3941.000000	99.842353
3940.000000	99.850699
3939.000000	99.855852
3938.000000	99.857102
3937.000000	99.854723
3936.000000	99.849833
3935.000000	99.844564
3934.000000	99.841453
3933.000000	99.841699
3932.000000	99.844178
3931.000000	99.846269
3930.000000	99.846185
3929.000000	99.843872
3928.000000	99.839881
3927.000000	99.834917
3926.000000	99.829724
3925.000000	99.825197
3924.000000	99.822187
3923.000000	99.821081
3922.000000	99.821951
3921.000000	99.824977
3920.000000	99.829829
3919.000000	99.835002
3918.000000	99.838578
3917.000000	99.840312
3916.000000	99.841946
3915.000000	99.844476
3914.000000	99.846430
3913.000000	99.845454
3912.000000	99.841230
3911.000000	99.836180
3910.000000	99.833293
3909.000000	99.833520
3908.000000	99.835364
3907.000000	99.837541
3906.000000	99.841085
3905.000000	99.848249
3904.000000	99.858438
3903.000000	99.865728
3902.000000	99.863459
3901.000000	99.851763
3900.000000	99.837833
3899.000000	99.829436
3898.000000	99.828310
3897.000000	99.830463
3896.000000	99.831904
3895.000000	99.831375
3894.000000	99.829131
3893.000000	99.825986
3892.000000	99.823819
3891.000000	99.825360
3890.000000	99.830595
3889.000000	99.835993
3888.000000	99.839034
3887.000000	99.840211
3886.000000	99.840800
3885.000000	99.841324
3884.000000	99.840876
3883.000000	99.838241
3882.000000	99.833838
3881.000000	99.829967
3880.000000	99.829379
3879.000000	99.832262
3878.000000	99.835111
3877.000000	99.835186
3876.000000	99.833108
3875.000000	99.831330
3874.000000	99.831911
3873.000000	99.834058
3872.000000	99.833861
3871.000000	99.828139
3870.000000	99.819361
3869.000000	99.814369
3868.000000	99.815383
3867.000000	99.818646
3866.000000	99.820901
3865.000000	99.821777
3864.000000	99.822882
3863.000000	99.826118
3862.000000	99.831463
3861.000000	99.836694
3860.000000	99.838594
3859.000000	99.835206
3858.000000	99.826174
3857.000000	99.813033
3856.000000	99.799152
3855.000000	99.789555
3854.000000	99.790013
3853.000000	99.803000
3852.000000	99.820686
3851.000000	99.832496
3850.000000	99.837540
3849.000000	99.840530
3848.000000	99.844174
3847.000000	99.847299
3846.000000	99.847022
3845.000000	99.841910
3844.000000	99.833418
3843.000000	99.824902
3842.000000	99.819347
3841.000000	99.817852
3840.000000	99.820758
3839.000000	99.828892
3838.000000	99.841471
3837.000000	99.854546
3836.000000	99.863321
3835.000000	99.865678
3834.000000	99.862990
3833.000000	99.858021
3832.000000	99.852824
3831.000000	99.847946
3830.000000	99.842196
3829.000000	99.834166
3828.000000	99.824183
3827.000000	99.814935
3826.000000	99.809861
3825.000000	99.810186
3824.000000	99.814957
3823.000000	99.823427
3822.000000	99.835334
3821.000000	99.849277
3820.000000	99.861268
3819.000000	99.865581
3818.000000	99.859829
3817.000000	99.847640
3816.000000	99.835170
3815.000000	99.827450
3814.000000	99.824427
3813.000000	99.823239
3812.000000	99.823253
3811.000000	99.824996
3810.000000	99.827888
3809.000000	99.830659
3808.000000	99.833011
3807.000000	99.835863
3806.000000	99.839528
3805.000000	99.841930
3804.000000	99.842041
3803.000000	99.842050
3802.000000	99.843868
3801.000000	99.846129
3800.000000	99.844605
3799.000000	99.834843
3798.000000	99.817983
3797.000000	99.800895
3796.000000	99.790828
3795.000000	99.789494
3794.000000	99.792687
3793.000000	99.795843
3792.000000	99.797784
3791.000000	99.799465
3790.000000	99.801865
3789.000000	99.805065
3788.000000	99.807977
3787.000000	99.808941
3786.000000	99.806941
3785.000000	99.802719
3784.000000	99.798714
3783.000000	99.797379
3782.000000	99.799657
3781.000000	99.805125
3780.000000	99.812189
3779.000000	99.818584
3778.000000	99.822580
3777.000000	99.823555
3776.000000	99.822210
3775.000000	99.820044
3774.000000	99.818185
3773.000000	99.816782
3772.000000	99.815711
3771.000000	99.815497
3770.000000	99.817151
3769.000000	99.820676
3768.000000	99.823551
3767.000000	99.822736
3766.000000	99.817361
3765.000000	99.809343
3764.000000	99.802048
3763.000000	99.798307
3762.000000	99.799603
3761.000000	99.805712
3760.000000	99.814004
3759.000000	99.820921
3758.000000	99.824935
3757.000000	99.826772
3756.000000	99.827227
3755.000000	99.827264
3754.000000	99.830015
3753.000000	99.840055
3752.000000	99.858301
3751.000000	99.877859
3750.000000	99.890376
3749.000000	99.894652
3748.000000	99.893587
3747.000000	99.889497
3746.000000	99.883116
3745.000000	99.873508
3744.000000	99.862032
3743.000000	99.850901
3742.000000	99.839614
3741.000000	99.829769
3740.000000	99.824823
3739.000000	99.826127
3738.000000	99.830789
3737.000000	99.833538
3736.000000	99.830315
3735.000000	99.822133
3734.000000	99.814398
3733.000000	99.809823
3732.000000	99.807675
3731.000000	99.807278
3730.000000	99.808713
3729.000000	99.811936
3728.000000	99.815198
3727.000000	99.814556
3726.000000	99.806721
3725.000000	99.793270
3724.000000	99.780594
3723.000000	99.774814
3722.000000	99.777260
3721.000000	99.783406
3720.000000	99.787565
3719.000000	99.788723
3718.000000	99.790561
3717.000000	99.796756
3716.000000	99.806880
3715.000000	99.817142
3714.000000	99.823623
3713.000000	99.823745
3712.000000	99.817219
3711.000000	99.808132
3710.000000	99.802579
3709.000000	99.802702
3708.000000	99.805687
3707.000000	99.808288
3706.000000	99.809651
3705.000000	99.810267
3704.000000	99.810306
3703.000000	99.808901
3702.000000	99.805100
3701.000000	99.799763
3700.000000	99.794566
3699.000000	99.790089
3698.000000	99.786229
3697.000000	99.783152
3696.000000	99.781256
3695.000000	99.780685
3694.000000	99.781357
3693.000000	99.782982
3692.000000	99.784745
3691.000000	99.785201
3690.000000	99.783417
3689.000000	99.780919
3688.000000	99.780341
3687.000000	99.780620
3686.000000	99.778299
3685.000000	99.772986
3684.000000	99.767843
3683.000000	99.766507
3682.000000	99.770011
3681.000000	99.776676
3680.000000	99.783722
3679.000000	99.789065
3678.000000	99.792515
3677.000000	99.794945
3676.000000	99.796769
3675.000000	99.798431
3674.000000	99.798128
3673.000000	99.791032
3672.000000	99.778949
3671.000000	99.770601
3670.000000	99.773131
3669.000000	99.785441
3668.000000	99.798173
3667.000000	99.803425
3666.000000	99.801503
3665.000000	99.796596
3664.000000	99.791518
3663.000000	99.786143
3662.000000	99.778781
3661.000000	99.768834
3660.000000	99.758217
3659.000000	99.751106
3658.000000	99.752066
3657.000000	99.762780
3656.000000	99.779529
3655.000000	99.794466
3654.000000	99.801589
3653.000000	99.800357
3652.000000	99.794573
3651.000000	99.789945
3650.000000	99.791269
3649.000000	99.798429
3648.000000	99.807119
3647.000000	99.814638
3646.000000	99.819601
3645.000000	99.820259
3644.000000	99.815785
3643.000000	99.807719
3642.000000	99.799560
3641.000000	99.794916
3640.000000	99.794634
3639.000000	99.796453
3638.000000	99.797851
3637.000000	99.798236
3636.000000	99.798894
3635.000000	99.801579
3634.000000	99.807480
3633.000000	99.816719
3632.000000	99.828830
3631.000000	99.842719
3630.000000	99.854352
3629.000000	99.857022
3628.000000	99.850980
3627.000000	99.843264
3626.000000	99.837533
3625.000000	99.835100
3624.000000	99.835179
3623.000000	99.834830
3622.000000	99.831754
3621.000000	99.826780
3620.000000	99.823227
3619.000000	99.823780
3618.000000	99.827405
3617.000000	99.830376
3616.000000	99.830594
3615.000000	99.828831
3614.000000	99.826630
3613.000000	99.825056
3612.000000	99.825056
3611.000000	99.827126
3610.000000	99.831033
3609.000000	99.835070
3608.000000	99.836542
3607.000000	99.834047
3606.000000	99.827991
3605.000000	99.819631
3604.000000	99.810725
3603.000000	99.804093
3602.000000	99.803016
3601.000000	99.808832
3600.000000	99.818960
3599.000000	99.828113
3598.000000	99.831905
3597.000000	99.829258
3596.000000	99.822434
3595.000000	99.815581
3594.000000	99.813279
3593.000000	99.817398
3592.000000	99.825666
3591.000000	99.833487
3590.000000	99.836920
3589.000000	99.834297
3588.000000	99.827443
3587.000000	99.821338
3586.000000	99.819934
3585.000000	99.822055
3584.000000	99.824261
3583.000000	99.824462
3582.000000	99.821875
3581.000000	99.816756
3580.000000	99.811472
3579.000000	99.809421
3578.000000	99.811600
3577.000000	99.814703
3576.000000	99.814008
3575.000000	99.808156
3574.000000	99.800434
3573.000000	99.795450
3572.000000	99.794902
3571.000000	99.797291
3570.000000	99.800215
3569.000000	99.802176
3568.000000	99.802140
3567.000000	99.799373
3566.000000	99.794967
3565.000000	99.791513
3564.000000	99.790245
3563.000000	99.791066
3562.000000	99.793087
3561.000000	99.794395
3560.000000	99.792847
3559.000000	99.788169
3558.000000	99.782225
3557.000000	99.777027
3556.000000	99.772767
3555.000000	99.768372
3554.000000	99.763692
3553.000000	99.760990
3552.000000	99.763308
3551.000000	99.770958
3550.000000	99.780222
3549.000000	99.785892
3548.000000	99.784730
3547.000000	99.777524
3546.000000	99.768871
3545.000000	99.763998
3544.000000	99.764538
3543.000000	99.767886
3542.000000	99.770437
3541.000000	99.770441
3540.000000	99.768026
3539.000000	99.764176
3538.000000	99.760218
3537.000000	99.757863
3536.000000	99.758639
3535.000000	99.762633
3534.000000	99.768321
3533.000000	99.773705
3532.000000	99.777855
3531.000000	99.781241
3530.000000	99.784937
3529.000000	99.789163
3528.000000	99.792587
3527.000000	99.793522
3526.000000	99.792150
3525.000000	99.790793
3524.000000	99.791643
3523.000000	99.794641
3522.000000	99.798162
3521.000000	99.801335
3520.000000	99.804800
3519.000000	99.809255
3518.000000	99.814030
3517.000000	99.817408
3516.000000	99.818492
3515.000000	99.818215
3514.000000	99.818781
3513.000000	99.821750
3512.000000	99.826471
3511.000000	99.830315
3510.000000	99.831091
3509.000000	99.829477
3508.000000	99.828415
3507.000000	99.830090
3506.000000	99.834348
3505.000000	99.839947
3504.000000	99.845685
3503.000000	99.849931
3502.000000	99.850304
3501.000000	99.845260
3500.000000	99.836183
3499.000000	99.827048
3498.000000	99.821551
3497.000000	99.820302
3496.000000	99.821213
3495.000000	99.822538
3494.000000	99.824767
3493.000000	99.829198
3492.000000	99.835411
3491.000000	99.841017
3490.000000	99.843765
3489.000000	99.843516
3488.000000	99.842248
3487.000000	99.842461
3486.000000	99.845387
3485.000000	99.850269
3484.000000	99.855086
3483.000000	99.858035
3482.000000	99.858788
3481.000000	99.858386
3480.000000	99.857944
3479.000000	99.857912
3478.000000	99.858477
3477.000000	99.859802
3476.000000	99.861365
3475.000000	99.861912
3474.000000	99.860912
3473.000000	99.859463
3472.000000	99.858904
3471.000000	99.858958
3470.000000	99.858436
3469.000000	99.857612
3468.000000	99.858526
3467.000000	99.862376
3466.000000	99.867503
3465.000000	99.870885
3464.000000	99.871086
3463.000000	99.869104
3462.000000	99.866852
3461.000000	99.865523
3460.000000	99.865184
3459.000000	99.865219
3458.000000	99.865279
3457.000000	99.866286
3456.000000	99.870119
3455.000000	99.877380
3454.000000	99.885809
3453.000000	99.891606
3452.000000	99.892434
3451.000000	99.888272
3450.000000	99.879834
3449.000000	99.867742
3448.000000	99.853912
3447.000000	99.842508
3446.000000	99.837887
3445.000000	99.841442
3444.000000	99.851140
3443.000000	99.863392
3442.000000	99.874622
3441.000000	99.882203
3440.000000	99.885196
3439.000000	99.884489
3438.000000	99.882023
3437.000000	99.879593
3436.000000	99.877869
3435.000000	99.875961
3434.000000	99.872177
3433.000000	99.865686
3432.000000	99.857771
3431.000000	99.851017
3430.000000	99.847363
3429.000000	99.847166
3428.000000	99.849652
3427.000000	99.853388
3426.000000	99.856313
3425.000000	99.856545
3424.000000	99.853708
3423.000000	99.848955
3422.000000	99.843411
3421.000000	99.837313
3420.000000	99.830976
3419.000000	99.825548
3418.000000	99.821836
3417.000000	99.819058
3416.000000	99.815907
3415.000000	99.812614
3414.000000	99.811010
3413.000000	99.812225
3412.000000	99.814955
3411.000000	99.816391
3410.000000	99.814588
3409.000000	99.809804
3408.000000	99.803871
3407.000000	99.798675
3406.000000	99.795067
3405.000000	99.792834
3404.000000	99.791310
3403.000000	99.789785
3402.000000	99.787492
3401.000000	99.783740
3400.000000	99.778722
3399.000000	99.774015
3398.000000	99.771664
3397.000000	99.772312
3396.000000	99.774438
3395.000000	99.775612
3394.000000	99.774571
3393.000000	99.772329
3392.000000	99.771559
3391.000000	99.774437
3390.000000	99.780318
3389.000000	99.785649
3388.000000	99.786968
3387.000000	99.784345
3386.000000	99.781246
3385.000000	99.780358
3384.000000	99.780232
3383.000000	99.777007
3382.000000	99.769044
3381.000000	99.758757
3380.000000	99.750142
3379.000000	99.745553
3378.000000	99.744977
3377.000000	99.747050
3376.000000	99.749731
3375.000000	99.750566
3374.000000	99.747826
3373.000000	99.742229
3372.000000	99.737191
3371.000000	99.736380
3370.000000	99.740164
3369.000000	99.744454
3368.000000	99.743609
3367.000000	99.735210
3366.000000	99.722168
3365.000000	99.710135
3364.000000	99.702943
3363.000000	99.700374
3362.000000	99.699435
3361.000000	99.697152
3360.000000	99.692548
3359.000000	99.686859
3358.000000	99.682185
3357.000000	99.679747
3356.000000	99.679322
3355.000000	99.680247
3354.000000	99.682459
3353.000000	99.686040
3352.000000	99.690088
3351.000000	99.692980
3350.000000	99.693819
3349.000000	99.692839
3348.000000	99.690188
3347.000000	99.685086
3346.000000	99.676722
3345.000000	99.665555
3344.000000	99.653413
3343.000000	99.642619
3342.000000	99.635264
3341.000000	99.632409
3340.000000	99.633036
3339.000000	99.634123
3338.000000	99.632598
3337.000000	99.627437
3336.000000	99.619593
3335.000000	99.610298
3334.000000	99.600221
3333.000000	99.590094
3332.000000	99.581050
3331.000000	99.573998
3330.000000	99.569404
3329.000000	99.567938
3328.000000	99.570383
3327.000000	99.576096
3326.000000	99.582081
3325.000000	99.584505
3324.000000	99.581454
3323.000000	99.574002
3322.000000	99.564848
3321.000000	99.556353
3320.000000	99.549645
3319.000000	99.544836
3318.000000	99.541659
3317.000000	99.539797
3316.000000	99.538589
3315.000000	99.536458
3314.000000	99.531148
3313.000000	99.521238
3312.000000	99.507716
3311.000000	99.493891
3310.000000	99.483424
3309.000000	99.478031
3308.000000	99.476702
3307.000000	99.476970
3306.000000	99.477199
3305.000000	99.477827
3304.000000	99.480237
3303.000000	99.484161
3302.000000	99.486448
3301.000000	99.483084
3300.000000	99.472903
3299.000000	99.459019
3298.000000	99.446316
3297.000000	99.437639
3296.000000	99.432624
3295.000000	99.429837
3294.000000	99.429037
3293.000000	99.430776
3292.000000	99.434420
3291.000000	99.437512
3290.000000	99.437267
3289.000000	99.432455
3288.000000	99.424118
3287.000000	99.415134
3286.000000	99.408839
3285.000000	99.406905
3284.000000	99.408101
3283.000000	99.409797
3282.000000	99.410982
3281.000000	99.412904
3280.000000	99.416453
3279.000000	99.420552
3278.000000	99.424233
3277.000000	99.428693
3276.000000	99.435090
3275.000000	99.440855
3274.000000	99.441137
3273.000000	99.434409
3272.000000	99.424577
3271.000000	99.416673
3270.000000	99.412251
3269.000000	99.410294
3268.000000	99.410427
3267.000000	99.413054
3266.000000	99.417264
3265.000000	99.420753
3264.000000	99.422023
3263.000000	99.421195
3262.000000	99.418638
3261.000000	99.414275
3260.000000	99.408614
3259.000000	99.403525
3258.000000	99.401320
3257.000000	99.403359
3256.000000	99.409272
3255.000000	99.416874
3254.000000	99.423228
3253.000000	99.426964
3252.000000	99.429577
3251.000000	99.433358
3250.000000	99.437951
3249.000000	99.440059
3248.000000	99.437079
3247.000000	99.430234
3246.000000	99.423861
3245.000000	99.422051
3244.000000	99.425949
3243.000000	99.433176
3242.000000	99.439107
3241.000000	99.439707
3240.000000	99.434511
3239.000000	99.427039
3238.000000	99.421606
3237.000000	99.419659
3236.000000	99.419432
3235.000000	99.418892
3234.000000	99.418135
3233.000000	99.418653
3232.000000	99.420886
3231.000000	99.423174
3230.000000	99.423399
3229.000000	99.421162
3228.000000	99.417841
3227.000000	99.414721
3226.000000	99.411977
3225.000000	99.409790
3224.000000	99.409387
3223.000000	99.411918
3222.000000	99.416671
3221.000000	99.421345
3220.000000	99.423747
3219.000000	99.422607
3218.000000	99.417529
3217.000000	99.409974
3216.000000	99.404097
3215.000000	99.404329
3214.000000	99.410850
3213.000000	99.418900
3212.000000	99.423496
3211.000000	99.423782
3210.000000	99.421995
3209.000000	99.419969
3208.000000	99.418294
3207.000000	99.417586
3206.000000	99.418312
3205.000000	99.419444
3204.000000	99.418863
3203.000000	99.415403
3202.000000	99.409576
3201.000000	99.402698
3200.000000	99.396536
3199.000000	99.393436
3198.000000	99.394918
3197.000000	99.399606
3196.000000	99.403772
3195.000000	99.404670
3194.000000	99.402459
3193.000000	99.398712
3192.000000	99.394267
3191.000000	99.389234
3190.000000	99.384233
3189.000000	99.380474
3188.000000	99.378716
3187.000000	99.378698
3186.000000	99.379622
3185.000000	99.381109
3184.000000	99.383811
3183.000000	99.388894
3182.000000	99.396407
3181.000000	99.404033
3180.000000	99.408063
3179.000000	99.405790
3178.000000	99.397096
3177.000000	99.384156
3176.000000	99.370566
3175.000000	99.360729
3174.000000	99.358342
3173.000000	99.363902
3172.000000	99.373441
3171.000000	99.380781
3170.000000	99.381778
3169.000000	99.376848
3168.000000	99.370061
3167.000000	99.365920
3166.000000	99.366557
3165.000000	99.370965
3164.000000	99.376515
3163.000000	99.381113
3162.000000	99.384035
3161.000000	99.385124
3160.000000	99.384049
3159.000000	99.380870
3158.000000	99.376864
3157.000000	99.373954
3156.000000	99.372992
3155.000000	99.372968
3154.000000	99.372272
3153.000000	99.370603
3152.000000	99.369309
3151.000000	99.369862
3150.000000	99.372360
3149.000000	99.375705
3148.000000	99.378912
3147.000000	99.381780
3146.000000	99.384356
3145.000000	99.386190
3144.000000	99.386403
3143.000000	99.384506
3142.000000	99.381166
3141.000000	99.378081
3140.000000	99.376783
3139.000000	99.377172
3138.000000	99.377328
3137.000000	99.375335
3136.000000	99.371388
3135.000000	99.367830
3134.000000	99.366903
3133.000000	99.368681
3132.000000	99.371185
3131.000000	99.372101
3130.000000	99.370375
3129.000000	99.367006
3128.000000	99.364657
3127.000000	99.365647
3126.000000	99.369528
3125.000000	99.373213
3124.000000	99.374094
3123.000000	99.372486
3122.000000	99.370292
3121.000000	99.368125
3120.000000	99.365206
3119.000000	99.361901
3118.000000	99.360573
3117.000000	99.363077
3116.000000	99.368290
3115.000000	99.373168
3114.000000	99.375775
3113.000000	99.376322
3112.000000	99.375466
3111.000000	99.372832
3110.000000	99.367928
3109.000000	99.361935
3108.000000	99.357445
3107.000000	99.355905
3106.000000	99.355997
3105.000000	99.355304
3104.000000	99.353262
3103.000000	99.351733
3102.000000	99.352546
3101.000000	99.355280
3100.000000	99.357742
3099.000000	99.358186
3098.000000	99.356773
3097.000000	99.355249
3096.000000	99.355499
3095.000000	99.357894
3094.000000	99.360788
3093.000000	99.361877
3092.000000	99.360191
3091.000000	99.356344
3090.000000	99.351147
3089.000000	99.345061
3088.000000	99.339242
3087.000000	99.335718
3086.000000	99.335370
3085.000000	99.336634
3084.000000	99.337425
3083.000000	99.337931
3082.000000	99.340111
3081.000000	99.344602
3080.000000	99.349395
3079.000000	99.351705
3078.000000	99.350078
3077.000000	99.344653
3076.000000	99.336978
3075.000000	99.330120
3074.000000	99.327493
3073.000000	99.330011
3072.000000	99.334645
3071.000000	99.336786
3070.000000	99.334187
3069.000000	99.328437
3068.000000	99.322933
3067.000000	99.319889
3066.000000	99.318793
3065.000000	99.317117
3064.000000	99.312773
3063.000000	99.306556
3062.000000	99.302197
3061.000000	99.303260
3060.000000	99.309599
3059.000000	99.317167
3058.000000	99.321641
3057.000000	99.322138
3056.000000	99.321211
3055.000000	99.321480
3054.000000	99.322968
3053.000000	99.323837
3052.000000	99.322994
3051.000000	99.321204
3050.000000	99.319743
3049.000000	99.318862
3048.000000	99.317981
3047.000000	99.316766
3046.000000	99.315177
3045.000000	99.312775
3044.000000	99.309178
3043.000000	99.305511
3042.000000	99.304374
3041.000000	99.307416
3040.000000	99.313177
3039.000000	99.317966
3038.000000	99.318823
3037.000000	99.315395
3036.000000	99.309417
3035.000000	99.303169
3034.000000	99.298309
3033.000000	99.295442
3032.000000	99.294264
3031.000000	99.294082
3030.000000	99.294128
3029.000000	99.293384
3028.000000	99.290734
3027.000000	99.286099
3026.000000	99.281483
3025.000000	99.280143
3024.000000	99.283993
3023.000000	99.291725
3022.000000	99.299563
3021.000000	99.303743
3020.000000	99.302452
3019.000000	99.296239
3018.000000	99.287460
3017.000000	99.279320
3016.000000	99.274338
3015.000000	99.272738
3014.000000	99.272112
3013.000000	99.269367
3012.000000	99.263410
3011.000000	99.256018
3010.000000	99.249821
3009.000000	99.245704
3008.000000	99.242551
3007.000000	99.239315
3006.000000	99.236551
3005.000000	99.235464
3004.000000	99.235879
3003.000000	99.235990
3002.000000	99.234242
3001.000000	99.230973
3000.000000	99.227950
2999.000000	99.226788
2998.000000	99.227981
2997.000000	99.230959
2996.000000	99.234328
2995.000000	99.236208
2994.000000	99.235040
2993.000000	99.230480
2992.000000	99.223480
2991.000000	99.215450
2990.000000	99.207557
2989.000000	99.200558
2988.000000	99.194810
2987.000000	99.190221
2986.000000	99.186492
2985.000000	99.183563
2984.000000	99.181496
2983.000000	99.179772
2982.000000	99.177135
2981.000000	99.172550
2980.000000	99.166220
2979.000000	99.159342
2978.000000	99.152953
2977.000000	99.147252
2976.000000	99.141798
2975.000000	99.135954
2974.000000	99.129063
2973.000000	99.120408
2972.000000	99.109090
2971.000000	99.094022
2970.000000	99.074581
2969.000000	99.051673
2968.000000	99.027849
2967.000000	99.005735
2966.000000	98.986224
2965.000000	98.968574
2964.000000	98.951959
2963.000000	98.936372
2962.000000	98.922059
2961.000000	98.908940
2960.000000	98.896836
2959.000000	98.885631
2958.000000	98.874995
2957.000000	98.864580
2956.000000	98.855014
2955.000000	98.848131
2954.000000	98.845567
2953.000000	98.847344
2952.000000	98.852024
2951.000000	98.857790
2950.000000	98.862708
2949.000000	98.864593
2948.000000	98.861799
2947.000000	98.854484
2946.000000	98.844388
2945.000000	98.832676
2944.000000	98.818178
2943.000000	98.798055
2942.000000	98.770514
2941.000000	98.737078
2940.000000	98.702129
2939.000000	98.669720
2938.000000	98.639857
2937.000000	98.607783
2936.000000	98.567380
2935.000000	98.516271
2934.000000	98.458034
2933.000000	98.399593
2932.000000	98.346104
2931.000000	98.297993
2930.000000	98.252143
2929.000000	98.205402
2928.000000	98.156780
2927.000000	98.107158
2926.000000	98.057875
2925.000000	98.010207
2924.000000	97.965545
2923.000000	97.925426
2922.000000	97.891328
2921.000000	97.864839
2920.000000	97.848274
2919.000000	97.844718
2918.000000	97.857509
2917.000000	97.889498
2916.000000	97.941981
2915.000000	98.013364
2914.000000	98.098271
2913.000000	98.188649
2912.000000	98.276396
2911.000000	98.355854
2910.000000	98.424497
2909.000000	98.482275
2908.000000	98.530791
2907.000000	98.572246
2906.000000	98.608383
2905.000000	98.639788
2904.000000	98.666313
2903.000000	98.687991
2902.000000	98.705786
2901.000000	98.721510
2900.000000	98.737665
2899.000000	98.755949
2898.000000	98.775965
2897.000000	98.795459
2896.000000	98.812370
2895.000000	98.826671
2894.000000	98.840157
2893.000000	98.854684
2892.000000	98.870927
2891.000000	98.888489
2890.000000	98.906663
2889.000000	98.924830
2888.000000	98.942168
2887.000000	98.957220
2886.000000	98.968472
2885.000000	98.975981
2884.000000	98.982122
2883.000000	98.989527
2882.000000	98.997973
2881.000000	99.004233
2880.000000	99.005582
2879.000000	99.002741
2878.000000	98.998716
2877.000000	98.995501
2876.000000	98.992687
2875.000000	98.988880
2874.000000	98.983553
2873.000000	98.977587
2872.000000	98.972440
2871.000000	98.968629
2870.000000	98.964814
2869.000000	98.959108
2868.000000	98.951631
2867.000000	98.944530
2866.000000	98.938296
2865.000000	98.928950
2864.000000	98.910792
2863.000000	98.881963
2862.000000	98.845923
2861.000000	98.807320
2860.000000	98.767927
2859.000000	98.726991
2858.000000	98.683947
2857.000000	98.639601
2856.000000	98.595132
2855.000000	98.550871
2854.000000	98.506499
2853.000000	98.462703
2852.000000	98.423596
2851.000000	98.397829
2850.000000	98.395996
2849.000000	98.425479
2848.000000	98.486162
2847.000000	98.570002
2846.000000	98.664190
2845.000000	98.756205
2844.000000	98.838128
2843.000000	98.908024
2842.000000	98.967457
2841.000000	99.017682
2840.000000	99.058622
2839.000000	99.090246
2838.000000	99.113539
2837.000000	99.130051
2836.000000	99.141854
2835.000000	99.152071
2834.000000	99.163811
2833.000000	99.177567
2832.000000	99.190677
2831.000000	99.200511
2830.000000	99.207504
2829.000000	99.214298
2828.000000	99.222503
2827.000000	99.231367
2826.000000	99.239349
2825.000000	99.245984
2824.000000	99.252124
2823.000000	99.259013
2822.000000	99.267199
2821.000000	99.275827
2820.000000	99.282920
2819.000000	99.286742
2818.000000	99.287107
2817.000000	99.285540
2816.000000	99.284511
2815.000000	99.286379
2814.000000	99.292068
2813.000000	99.299952
2812.000000	99.306496
2811.000000	99.309127
2810.000000	99.308678
2809.000000	99.308535
2808.000000	99.311171
2807.000000	99.315943
2806.000000	99.320207
2805.000000	99.321965
2804.000000	99.321192
2803.000000	99.319151
2802.000000	99.317113
2801.000000	99.315873
2800.000000	99.315934
2799.000000	99.317614
2798.000000	99.320735
2797.000000	99.324419
2796.000000	99.327595
2795.000000	99.329880
2794.000000	99.331778
2793.000000	99.333804
2792.000000	99.335555
2791.000000	99.336037
2790.000000	99.335122
2789.000000	99.334437
2788.000000	99.336222
2787.000000	99.340995
2786.000000	99.346644
2785.000000	99.350309
2784.000000	99.351134
2783.000000	99.350713
2782.000000	99.350889
2781.000000	99.351763
2780.000000	99.352194
2779.000000	99.351669
2778.000000	99.351204
2777.000000	99.352630
2776.000000	99.357231
2775.000000	99.364510
2774.000000	99.371907
2773.000000	99.376208
2772.000000	99.375972
2771.000000	99.372475
2770.000000	99.368075
2769.000000	99.364239
2768.000000	99.361483
2767.000000	99.360202
2766.000000	99.360492
2765.000000	99.361719
2764.000000	99.363373
2763.000000	99.365910
2762.000000	99.369560
2761.000000	99.372720
2760.000000	99.373120
2759.000000	99.370665
2758.000000	99.367785
2757.000000	99.366809
2756.000000	99.368258
2755.000000	99.371713
2754.000000	99.376576
2753.000000	99.381240
2752.000000	99.383234
2751.000000	99.381589
2750.000000	99.378180
2749.000000	99.375592
2748.000000	99.374311
2747.000000	99.373054
2746.000000	99.371328
2745.000000	99.370479
2744.000000	99.372272
2743.000000	99.377056
2742.000000	99.383175
2741.000000	99.387852
2740.000000	99.389170
2739.000000	99.387685
2738.000000	99.385694
2737.000000	99.384701
2736.000000	99.384404
2735.000000	99.384526
2734.000000	99.386336
2733.000000	99.391155
2732.000000	99.398042
2731.000000	99.404196
2730.000000	99.407159
2729.000000	99.405719
2728.000000	99.399569
2727.000000	99.389910
2726.000000	99.380279
2725.000000	99.374953
2724.000000	99.375574
2723.000000	99.380072
2722.000000	99.385176
2721.000000	99.389141
2720.000000	99.391806
2719.000000	99.393120
2718.000000	99.392617
2717.000000	99.390200
2716.000000	99.386950
2715.000000	99.384995
2714.000000	99.386231
2713.000000	99.390536
2712.000000	99.395144
2711.000000	99.396475
2710.000000	99.393136
2709.000000	99.387053
2708.000000	99.381755
2707.000000	99.379896
2706.000000	99.382193
2705.000000	99.387673
2704.000000	99.394249
2703.000000	99.399501
2702.000000	99.401873
2701.000000	99.401632
2700.000000	99.400624
2699.000000	99.400785
2698.000000	99.402540
2697.000000	99.404452
2696.000000	99.404622
2695.000000	99.402741
2694.000000	99.400576
2693.000000	99.400122
2692.000000	99.401401
2691.000000	99.402451
2690.000000	99.401534
2689.000000	99.399039
2688.000000	99.397138
2687.000000	99.397837
2686.000000	99.401327
2685.000000	99.405798
2684.000000	99.408651
2683.000000	99.408214
2682.000000	99.404813
2681.000000	99.400499
2680.000000	99.397653
2679.000000	99.397400
2678.000000	99.398875
2677.000000	99.399971
2676.000000	99.399357
2675.000000	99.398069
2674.000000	99.398801
2673.000000	99.403231
2672.000000	99.410171
2671.000000	99.416654
2670.000000	99.420541
2669.000000	99.421725
2668.000000	99.421175
2667.000000	99.419636
2666.000000	99.417308
2665.000000	99.414137
2664.000000	99.409996
2663.000000	99.404892
2662.000000	99.399458
2661.000000	99.395078
2660.000000	99.393063
2659.000000	99.393286
2658.000000	99.393710
2657.000000	99.391841
2656.000000	99.387290
2655.000000	99.382838
2654.000000	99.382158
2653.000000	99.386063
2652.000000	99.391376
2651.000000	99.394133
2650.000000	99.393711
2649.000000	99.393314
2648.000000	99.396503
2647.000000	99.403664
2646.000000	99.411862
2645.000000	99.417662
2644.000000	99.419825
2643.000000	99.419488
2642.000000	99.418196
2641.000000	99.416349
2640.000000	99.413879
2639.000000	99.411896
2638.000000	99.412478
2637.000000	99.416438
2636.000000	99.422126
2635.000000	99.427092
2634.000000	99.430394
2633.000000	99.432717
2632.000000	99.434861
2631.000000	99.436989
2630.000000	99.438968
2629.000000	99.440467
2628.000000	99.440765
2627.000000	99.439301
2626.000000	99.436593
2625.000000	99.434151
2624.000000	99.433408
2623.000000	99.434803
2622.000000	99.437628
2621.000000	99.440702
2620.000000	99.443846
2619.000000	99.448702
2618.000000	99.456722
2617.000000	99.465680
2616.000000	99.469889
2615.000000	99.465766
2614.000000	99.456220
2613.000000	99.447664
2612.000000	99.443284
2611.000000	99.441602
2610.000000	99.441273
2609.000000	99.443990
2608.000000	99.451277
2607.000000	99.460532
2606.000000	99.466574
2605.000000	99.466627
2604.000000	99.462507
2603.000000	99.458306
2602.000000	99.456753
2601.000000	99.457689
2600.000000	99.459562
2599.000000	99.462239
2598.000000	99.467810
2597.000000	99.477759
2596.000000	99.489722
2595.000000	99.498625
2594.000000	99.501200
2593.000000	99.498134
2592.000000	99.491593
2591.000000	99.482661
2590.000000	99.472141
2589.000000	99.462213
2588.000000	99.455636
2587.000000	99.453715
2586.000000	99.455874
2585.000000	99.460341
2584.000000	99.464662
2583.000000	99.466856
2582.000000	99.467329
2581.000000	99.468607
2580.000000	99.472170
2579.000000	99.476320
2578.000000	99.478336
2577.000000	99.477741
2576.000000	99.476265
2575.000000	99.475653
2574.000000	99.477019
2573.000000	99.481406
2572.000000	99.488739
2571.000000	99.496253
2570.000000	99.499714
2569.000000	99.496830
2568.000000	99.488957
2567.000000	99.479866
2566.000000	99.473886
2565.000000	99.474427
2564.000000	99.481997
2563.000000	99.492822
2562.000000	99.500531
2561.000000	99.500336
2560.000000	99.492230
2559.000000	99.481029
2558.000000	99.473884
2557.000000	99.476247
2556.000000	99.487734
2555.000000	99.501698
2554.000000	99.510498
2553.000000	99.511949
2552.000000	99.510015
2551.000000	99.509766
2550.000000	99.512991
2549.000000	99.518247
2548.000000	99.522649
2547.000000	99.522990
2546.000000	99.517478
2545.000000	99.507884
2544.000000	99.498634
2543.000000	99.492639
2542.000000	99.489373
2541.000000	99.487775
2540.000000	99.488821
2539.000000	99.493053
2538.000000	99.497582
2537.000000	99.498790
2536.000000	99.497663
2535.000000	99.499060
2534.000000	99.504889
2533.000000	99.510790
2532.000000	99.511169
2531.000000	99.505845
2530.000000	99.499692
2529.000000	99.497100
2528.000000	99.498703
2527.000000	99.502887
2526.000000	99.507949
2525.000000	99.512217
2524.000000	99.514068
2523.000000	99.513411
2522.000000	99.512519
2521.000000	99.514119
2520.000000	99.518615
2519.000000	99.523644
2518.000000	99.526064
2517.000000	99.523977
2516.000000	99.517626
2515.000000	99.509751
2514.000000	99.504996
2513.000000	99.507041
2512.000000	99.514792
2511.000000	99.522102
2510.000000	99.522856
2509.000000	99.516671
2508.000000	99.508844
2507.000000	99.504685
2506.000000	99.504875
2505.000000	99.506594
2504.000000	99.507626
2503.000000	99.508176
2502.000000	99.509223
2501.000000	99.510822
2500.000000	99.512594
2499.000000	99.515003
2498.000000	99.519002
2497.000000	99.524217
2496.000000	99.528280
2495.000000	99.529008
2494.000000	99.527516
2493.000000	99.527912
2492.000000	99.532467
2491.000000	99.537629
2490.000000	99.537098
2489.000000	99.529763
2488.000000	99.522418
2487.000000	99.522491
2486.000000	99.529478
2485.000000	99.536066
2484.000000	99.537091
2483.000000	99.534117
2482.000000	99.530952
2481.000000	99.528880
2480.000000	99.528523
2479.000000	99.532933
2478.000000	99.544019
2477.000000	99.556776
2476.000000	99.561780
2475.000000	99.555453
2474.000000	99.544985
2473.000000	99.540753
2472.000000	99.545584
2471.000000	99.553455
2470.000000	99.557494
2469.000000	99.556454
2468.000000	99.553091
2467.000000	99.549119
2466.000000	99.543727
2465.000000	99.536310
2464.000000	99.528671
2463.000000	99.523618
2462.000000	99.522005
2461.000000	99.521956
2460.000000	99.521121
2459.000000	99.519034
2458.000000	99.516670
2457.000000	99.514193
2456.000000	99.510378
2455.000000	99.504867
2454.000000	99.500042
2453.000000	99.499460
2452.000000	99.504351
2451.000000	99.512558
2450.000000	99.521034
2449.000000	99.528245
2448.000000	99.533706
2447.000000	99.536549
2446.000000	99.536272
2445.000000	99.534633
2444.000000	99.534729
2443.000000	99.537134
2442.000000	99.538465
2441.000000	99.535626
2440.000000	99.530947
2439.000000	99.530537
2438.000000	99.536716
2437.000000	99.543971
2436.000000	99.544516
2435.000000	99.537288
2434.000000	99.529336
2433.000000	99.527879
2432.000000	99.532435
2431.000000	99.535774
2430.000000	99.531959
2429.000000	99.522404
2428.000000	99.514056
2427.000000	99.512225
2426.000000	99.515684
2425.000000	99.519028
2424.000000	99.519398
2423.000000	99.519936
2422.000000	99.525844
2421.000000	99.537508
2420.000000	99.548828
2419.000000	99.552798
2418.000000	99.548227
2417.000000	99.540732
2416.000000	99.537429
2415.000000	99.540753
2414.000000	99.546944
2413.000000	99.550195
2412.000000	99.548255
2411.000000	99.543782
2410.000000	99.540496
2409.000000	99.539500
2408.000000	99.540407
2407.000000	99.544418
2406.000000	99.553143
2405.000000	99.564080
2404.000000	99.570514
2403.000000	99.568316
2402.000000	99.561365
2401.000000	99.557777
2400.000000	99.561132
2399.000000	99.567165
2398.000000	99.569256
2397.000000	99.565551
2396.000000	99.560130
2395.000000	99.558096
2394.000000	99.560112
2393.000000	99.561711
2392.000000	99.558211
2391.000000	99.550537
2390.000000	99.545381
2389.000000	99.548541
2388.000000	99.558716
2387.000000	99.569265
2386.000000	99.575696
2385.000000	99.579532
2384.000000	99.584434
2383.000000	99.590463
2382.000000	99.593877
2381.000000	99.591937
2380.000000	99.586659
2379.000000	99.583700
2378.000000	99.587862
2377.000000	99.599063
2376.000000	99.611484
2375.000000	99.617030
2374.000000	99.611456
2373.000000	99.598168
2372.000000	99.585766
2371.000000	99.580987
2370.000000	99.584045
2369.000000	99.590699
2368.000000	99.597596
2367.000000	99.603875
2366.000000	99.608472
2365.000000	99.608996
2364.000000	99.604860
2363.000000	99.599262
2362.000000	99.596013
2361.000000	99.595333
2360.000000	99.594889
2359.000000	99.595111
2358.000000	99.598673
2357.000000	99.604854
2356.000000	99.608941
2355.000000	99.606984
2354.000000	99.600607
2353.000000	99.594545
2352.000000	99.592292
2351.000000	99.593690
2350.000000	99.596011
2349.000000	99.596456
2348.000000	99.593306
2347.000000	99.588639
2346.000000	99.588863
2345.000000	99.598825
2344.000000	99.614055
2343.000000	99.623308
2342.000000	99.621433
2341.000000	99.612537
2340.000000	99.602801
2339.000000	99.593624
2338.000000	99.583912
2337.000000	99.575253
2336.000000	99.570914
2335.000000	99.571663
2334.000000	99.575614
2333.000000	99.582084
2332.000000	99.591537
2331.000000	99.602819
2330.000000	99.611684
2329.000000	99.614758
2328.000000	99.609212
2327.000000	99.593618
2326.000000	99.569038
2325.000000	99.542740
2324.000000	99.525685
2323.000000	99.524797
2322.000000	99.537753
2321.000000	99.555494
2320.000000	99.569024
2319.000000	99.573598
2318.000000	99.569010
2317.000000	99.559837
2316.000000	99.552594
2315.000000	99.551931
2314.000000	99.556554
2313.000000	99.561611
2312.000000	99.562847
2311.000000	99.560603
2310.000000	99.558192
2309.000000	99.558912
2308.000000	99.562633
2307.000000	99.566988
2306.000000	99.570671
2305.000000	99.575554
2304.000000	99.583581
2303.000000	99.593131
2302.000000	99.599849
2301.000000	99.601036
2300.000000	99.596188
2299.000000	99.584448
2298.000000	99.564605
2297.000000	99.540422
2296.000000	99.521382
2295.000000	99.515474
2294.000000	99.521103
2293.000000	99.529516
2292.000000	99.533819
2291.000000	99.534115
2290.000000	99.534058
2289.000000	99.535540
2288.000000	99.537346
2287.000000	99.537116
2286.000000	99.533586
2285.000000	99.527344
2284.000000	99.520142
2283.000000	99.513406
2282.000000	99.508396
2281.000000	99.507654
2280.000000	99.514581
2279.000000	99.529901
2278.000000	99.549880
2277.000000	99.569176
2276.000000	99.584493
2275.000000	99.594566
2274.000000	99.598964
2273.000000	99.599067
2272.000000	99.597440
2271.000000	99.593390
2270.000000	99.582578
2269.000000	99.565890
2268.000000	99.555350
2267.000000	99.563353
2266.000000	99.585985
2265.000000	99.605177
2264.000000	99.609582
2263.000000	99.606110
2262.000000	99.606376
2261.000000	99.609445
2260.000000	99.605240
2259.000000	99.591055
2258.000000	99.576888
2257.000000	99.574389
2256.000000	99.585940
2255.000000	99.604155
2254.000000	99.617819
2253.000000	99.618756
2252.000000	99.608600
2251.000000	99.600065
2250.000000	99.606478
2249.000000	99.627208
2248.000000	99.646018
2247.000000	99.646097
2246.000000	99.624986
2245.000000	99.593880
2244.000000	99.566040
2243.000000	99.548761
2242.000000	99.543385
2241.000000	99.547283
2240.000000	99.554833
2239.000000	99.560784
2238.000000	99.565279
2237.000000	99.574041
2236.000000	99.591883
2235.000000	99.616949
2234.000000	99.642167
2233.000000	99.660961
2232.000000	99.670309
2231.000000	99.669978
2230.000000	99.662009
2229.000000	99.651752
2228.000000	99.646247
2227.000000	99.648429
2226.000000	99.653579
2225.000000	99.653044
2224.000000	99.641769
2223.000000	99.622032
2222.000000	99.601930
2221.000000	99.591654
2220.000000	99.599181
2219.000000	99.625349
2218.000000	99.661982
2217.000000	99.696407
2216.000000	99.719440
2215.000000	99.728852
2214.000000	99.726101
2213.000000	99.713173
2212.000000	99.693209
2211.000000	99.670783
2210.000000	99.648896
2209.000000	99.627185
2208.000000	99.604899
2207.000000	99.584898
2206.000000	99.572771
2205.000000	99.571751
2204.000000	99.579631
2203.000000	99.591037
2202.000000	99.602009
2201.000000	99.611713
2200.000000	99.619965
2199.000000	99.624413
2198.000000	99.622306
2197.000000	99.615866
2196.000000	99.613024
2195.000000	99.619042
2194.000000	99.628551
2193.000000	99.630409
2192.000000	99.621574
2191.000000	99.611599
2190.000000	99.610756
2189.000000	99.618737
2188.000000	99.628994
2187.000000	99.640797
2186.000000	99.660475
2185.000000	99.691860
2184.000000	99.732133
2183.000000	99.777107
2182.000000	99.822348
2181.000000	99.855713
2180.000000	99.858236
2179.000000	99.821633
2178.000000	99.763172
2177.000000	99.717140
2176.000000	99.707153
2175.000000	99.726435
2174.000000	99.746189
2173.000000	99.742473
2172.000000	99.713918
2171.000000	99.676352
2170.000000	99.645865
2169.000000	99.628723
2168.000000	99.623274
2167.000000	99.626843
2166.000000	99.637688
2165.000000	99.650684
2164.000000	99.655116
2163.000000	99.641995
2162.000000	99.617107
2161.000000	99.607561
2160.000000	99.650001
2159.000000	99.759440
2158.000000	99.902369
2157.000000	100.012715
2156.000000	100.045772
2155.000000	100.007572
2154.000000	99.934172
2153.000000	99.859540
2152.000000	99.802143
2151.000000	99.768088
2150.000000	99.756828
2149.000000	99.760375
2148.000000	99.764099
2147.000000	99.757145
2146.000000	99.742745
2145.000000	99.733614
2144.000000	99.737337
2143.000000	99.750306
2142.000000	99.764919
2141.000000	99.776108
2140.000000	99.779746
2139.000000	99.770697
2138.000000	99.747715
2137.000000	99.718475
2136.000000	99.695983
2135.000000	99.689547
2134.000000	99.699504
2133.000000	99.716991
2132.000000	99.727036
2131.000000	99.717166
2130.000000	99.688428
2129.000000	99.657316
2128.000000	99.642756
2127.000000	99.650252
2126.000000	99.669622
2125.000000	99.685686
2124.000000	99.688625
2123.000000	99.677969
2122.000000	99.662825
2121.000000	99.656983
2120.000000	99.665959
2119.000000	99.677050
2118.000000	99.669094
2117.000000	99.635975
2116.000000	99.596797
2115.000000	99.577485
2114.000000	99.585493
2113.000000	99.605939
2112.000000	99.619873
2111.000000	99.621379
2110.000000	99.617409
2109.000000	99.616793
2108.000000	99.622731
2107.000000	99.633552
2106.000000	99.647277
2105.000000	99.662383
2104.000000	99.673232
2103.000000	99.667994
2102.000000	99.637738
2101.000000	99.590795
2100.000000	99.553144
2099.000000	99.548376
2098.000000	99.578325
2097.000000	99.624963
2096.000000	99.667729
2095.000000	99.694407
2094.000000	99.699910
2093.000000	99.686012
2092.000000	99.665060
2091.000000	99.654668
2090.000000	99.661385
2089.000000	99.672535
2088.000000	99.669851
2087.000000	99.650609
2086.000000	99.629519
2085.000000	99.620340
2084.000000	99.620787
2083.000000	99.618288
2082.000000	99.607625
2081.000000	99.597460
2080.000000	99.599176
2079.000000	99.613547
2078.000000	99.631372
2077.000000	99.645121
2076.000000	99.656085
2075.000000	99.669973
2074.000000	99.688790
2073.000000	99.708345
2072.000000	99.721336
2071.000000	99.722038
2070.000000	99.711430
2069.000000	99.700112
2068.000000	99.702363
2067.000000	99.721883
2066.000000	99.744297
2065.000000	99.748040
2064.000000	99.725421
2063.000000	99.690707
2062.000000	99.666756
2061.000000	99.666901
2060.000000	99.686749
2059.000000	99.709420
2058.000000	99.719989
2057.000000	99.717800
2056.000000	99.714326
2055.000000	99.716143
2054.000000	99.712806
2053.000000	99.688455
2052.000000	99.645329
2051.000000	99.608812
2050.000000	99.606635
2049.000000	99.643104
2048.000000	99.693969
2047.000000	99.729397
2046.000000	99.739481
2045.000000	99.735427
2044.000000	99.733109
2043.000000	99.740339
2042.000000	99.757402
2041.000000	99.783860
2040.000000	99.819957
2039.000000	99.860445
2038.000000	99.891542
2037.000000	99.899827
2036.000000	99.886248
2035.000000	99.867670
2034.000000	99.861332
2033.000000	99.870455
2032.000000	99.885253
2031.000000	99.894460
2030.000000	99.893853
2029.000000	99.886443
2028.000000	99.877869
2027.000000	99.871194
2026.000000	99.865248
2025.000000	99.856938
2024.000000	99.842653
2023.000000	99.818323
2022.000000	99.783018
2021.000000	99.744076
2020.000000	99.713539
2019.000000	99.697996
2018.000000	99.696653
2017.000000	99.708087
2016.000000	99.731302
2015.000000	99.758372
2014.000000	99.775631
2013.000000	99.778546
2012.000000	99.779980
2011.000000	99.795792
2010.000000	99.824041
2009.000000	99.844686
2008.000000	99.839880
2007.000000	99.811166
2006.000000	99.776720
2005.000000	99.756606
2004.000000	99.759344
2003.000000	99.778610
2002.000000	99.801654
2001.000000	99.819012
2000.000000	99.825389
1999.000000	99.815073
1998.000000	99.786093
1997.000000	99.751240
1996.000000	99.732516
1995.000000	99.736870
1994.000000	99.747081
1993.000000	99.743360
1992.000000	99.729010
1991.000000	99.725642
1990.000000	99.746918
1989.000000	99.791691
1988.000000	99.853730
1987.000000	99.919097
1986.000000	99.959429
1985.000000	99.949423
1984.000000	99.897596
1983.000000	99.844913
1982.000000	99.825104
1981.000000	99.834362
1980.000000	99.842532
1979.000000	99.824783
1978.000000	99.779347
1977.000000	99.726655
1976.000000	99.698100
1975.000000	99.714885
1974.000000	99.769128
1973.000000	99.828125
1972.000000	99.863334
1971.000000	99.874185
1970.000000	99.877395
1969.000000	99.879285
1968.000000	99.869352
1967.000000	99.842108
1966.000000	99.814417
1965.000000	99.810162
1964.000000	99.832268
1963.000000	99.860118
1962.000000	99.872928
1961.000000	99.869769
1960.000000	99.864488
1959.000000	99.864258
1958.000000	99.862359
1957.000000	99.852436
1956.000000	99.840439
1955.000000	99.838187
1954.000000	99.849878
1953.000000	99.867909
1952.000000	99.878197
1951.000000	99.867983
1950.000000	99.833043
1949.000000	99.782851
1948.000000	99.736236
1947.000000	99.707208
1946.000000	99.696210
1945.000000	99.695880
1944.000000	99.700533
1943.000000	99.707346
1942.000000	99.714382
1941.000000	99.723693
1940.000000	99.740678
1939.000000	99.764653
1938.000000	99.784908
1937.000000	99.790566
1936.000000	99.783393
1935.000000	99.775202
1934.000000	99.773456
1933.000000	99.774970
1932.000000	99.772275
1931.000000	99.761272
1930.000000	99.743655
1929.000000	99.729144
1928.000000	99.733368
1927.000000	99.763803
1926.000000	99.807389
1925.000000	99.837684
1924.000000	99.837502
1923.000000	99.813566
1922.000000	99.787419
1921.000000	99.773516
1920.000000	99.771201
1919.000000	99.772307
1918.000000	99.768365
1917.000000	99.756120
1916.000000	99.741307
1915.000000	99.731836
1914.000000	99.729549
1913.000000	99.730657
1912.000000	99.732186
1911.000000	99.735206
1910.000000	99.739757
1909.000000	99.741913
1908.000000	99.740886
1907.000000	99.743513
1906.000000	99.756286
1905.000000	99.775462
1904.000000	99.789921
1903.000000	99.792659
1902.000000	99.785609
1901.000000	99.774985
1900.000000	99.765442
1899.000000	99.759217
1898.000000	99.758512
1897.000000	99.764432
1896.000000	99.773829
1895.000000	99.780163
1894.000000	99.779609
1893.000000	99.774900
1892.000000	99.770588
1891.000000	99.766682
1890.000000	99.760343
1889.000000	99.753385
1888.000000	99.752579
1887.000000	99.758676
1886.000000	99.763898
1885.000000	99.762920
1884.000000	99.760704
1883.000000	99.765793
1882.000000	99.778080
1881.000000	99.789486
1880.000000	99.795038
1879.000000	99.797578
1878.000000	99.801666
1877.000000	99.806757
1876.000000	99.808242
1875.000000	99.803839
1874.000000	99.797708
1873.000000	99.798203
1872.000000	99.809955
1871.000000	99.826498
1870.000000	99.832038
1869.000000	99.815962
1868.000000	99.789857
1867.000000	99.774790
1866.000000	99.772994
1865.000000	99.773730
1864.000000	99.772609
1863.000000	99.773198
1862.000000	99.776986
1861.000000	99.780040
1860.000000	99.780001
1859.000000	99.779746
1858.000000	99.781848
1857.000000	99.785056
1856.000000	99.787718
1855.000000	99.789221
1854.000000	99.788336
1853.000000	99.785094
1852.000000	99.784113
1851.000000	99.790091
1850.000000	99.801505
1849.000000	99.812559
1848.000000	99.820969
1847.000000	99.828609
1846.000000	99.833221
1845.000000	99.827363
1844.000000	99.811299
1843.000000	99.797605
1842.000000	99.792074
1841.000000	99.788630
1840.000000	99.782327
1839.000000	99.774336
1838.000000	99.768512
1837.000000	99.766581
1836.000000	99.768802
1835.000000	99.775483
1834.000000	99.785069
1833.000000	99.794407
1832.000000	99.802386
1831.000000	99.810978
1830.000000	99.819865
1829.000000	99.822930
1828.000000	99.818296
1827.000000	99.812065
1826.000000	99.810542
1825.000000	99.813517
1824.000000	99.815317
1823.000000	99.812882
1822.000000	99.807388
1821.000000	99.801023
1820.000000	99.796529
1819.000000	99.797325
1818.000000	99.803687
1817.000000	99.809888
1816.000000	99.810816
1815.000000	99.808697
1814.000000	99.808280
1813.000000	99.809740
1812.000000	99.809680
1811.000000	99.808770
1810.000000	99.811524
1809.000000	99.817333
1808.000000	99.820506
1807.000000	99.817694
1806.000000	99.810135
1805.000000	99.801445
1804.000000	99.796011
1803.000000	99.797046
1802.000000	99.803149
1801.000000	99.807955
1800.000000	99.807183
1799.000000	99.805256
1798.000000	99.807047
1797.000000	99.810848
1796.000000	99.813239
1795.000000	99.814193
1794.000000	99.815132
1793.000000	99.815433
1792.000000	99.813116
1791.000000	99.810263
1790.000000	99.810321
1789.000000	99.812508
1788.000000	99.815158
1787.000000	99.817843
1786.000000	99.820339
1785.000000	99.822140
1784.000000	99.823721
1783.000000	99.826118
1782.000000	99.829076
1781.000000	99.831516
1780.000000	99.832397
1779.000000	99.832699
1778.000000	99.834220
1777.000000	99.839561
1776.000000	99.852473
1775.000000	99.873105
1774.000000	99.894133
1773.000000	99.903926
1772.000000	99.897123
1771.000000	99.884140
1770.000000	99.876741
1769.000000	99.872689
1768.000000	99.866217
1767.000000	99.858937
1766.000000	99.856119
1765.000000	99.857904
1764.000000	99.859015
1763.000000	99.853230
1762.000000	99.839608
1761.000000	99.825446
1760.000000	99.817259
1759.000000	99.814641
1758.000000	99.812331
1757.000000	99.805781
1756.000000	99.796434
1755.000000	99.789721
1754.000000	99.787515
1753.000000	99.785483
1752.000000	99.776685
1751.000000	99.758279
1750.000000	99.734755
1749.000000	99.711051
1748.000000	99.689043
1747.000000	99.670496
1746.000000	99.656542
1745.000000	99.646481
1744.000000	99.640055
1743.000000	99.639988
1742.000000	99.648551
1741.000000	99.662521
1740.000000	99.674299
1739.000000	99.679662
1738.000000	99.682336
1737.000000	99.689072
1736.000000	99.704775
1735.000000	99.733827
1734.000000	99.773757
1733.000000	99.803369
1732.000000	99.810931
1731.000000	99.808025
1730.000000	99.808896
1729.000000	99.817890
1728.000000	99.831189
1727.000000	99.843399
1726.000000	99.852719
1725.000000	99.859181
1724.000000	99.860710
1723.000000	99.854857
1722.000000	99.842474
1721.000000	99.827630
1720.000000	99.814704
1719.000000	99.807350
1718.000000	99.806074
1717.000000	99.794991
1716.000000	99.761254
1715.000000	99.717685
1714.000000	99.679098
1713.000000	99.649733
1712.000000	99.627392
1711.000000	99.610475
1710.000000	99.600594
1709.000000	99.598599
1708.000000	99.600704
1707.000000	99.602438
1706.000000	99.602580
1705.000000	99.600884
1704.000000	99.599033
1703.000000	99.599304
1702.000000	99.598937
1701.000000	99.592525
1700.000000	99.586849
1699.000000	99.588842
1698.000000	99.589045
1697.000000	99.577687
1696.000000	99.553390
1695.000000	99.530700
1694.000000	99.516238
1693.000000	99.501362
1692.000000	99.484567
1691.000000	99.467524
1690.000000	99.450841
1689.000000	99.436846
1688.000000	99.429384
1687.000000	99.428342
1686.000000	99.424501
1685.000000	99.402154
1684.000000	99.360502
1683.000000	99.326979
1682.000000	99.311850
1681.000000	99.301947
1680.000000	99.293725
1679.000000	99.287101
1678.000000	99.278736
1677.000000	99.263055
1676.000000	99.238489
1675.000000	99.212676
1674.000000	99.192497
1673.000000	99.174199
1672.000000	99.154200
1671.000000	99.135019
1670.000000	99.117098
1669.000000	99.096518
1668.000000	99.072933
1667.000000	99.049008
1666.000000	99.026564
1665.000000	99.004772
1664.000000	98.980027
1663.000000	98.949926
1662.000000	98.915283
1661.000000	98.879510
1660.000000	98.845957
1659.000000	98.816985
1658.000000	98.793290
1657.000000	98.774311
1656.000000	98.759748
1655.000000	98.748741
1654.000000	98.742000
1653.000000	98.741164
1652.000000	98.736051
1651.000000	98.711395
1650.000000	98.672863
1649.000000	98.642470
1648.000000	98.630515
1647.000000	98.634698
1646.000000	98.642886
1645.000000	98.646637
1644.000000	98.642393
1643.000000	98.635571
1642.000000	98.634218
1641.000000	98.639633
1640.000000	98.647526
1639.000000	98.654785
1638.000000	98.663360
1637.000000	98.679207
1636.000000	98.707773
1635.000000	98.741276
1634.000000	98.764911
1633.000000	98.772772
1632.000000	98.772815
1631.000000	98.773967
1630.000000	98.778695
1629.000000	98.787521
1628.000000	98.801502
1627.000000	98.818943
1626.000000	98.836186
1625.000000	98.854090
1624.000000	98.878902
1623.000000	98.913345
1622.000000	98.948282
1621.000000	98.975713
1620.000000	98.998457
1619.000000	99.023380
1618.000000	99.054019
1617.000000	99.088780
1616.000000	99.122331
1615.000000	99.148542
1614.000000	99.166731
1613.000000	99.183299
1612.000000	99.204741
1611.000000	99.232734
1610.000000	99.264614
1609.000000	99.297952
1608.000000	99.331834
1607.000000	99.363515
1606.000000	99.389264
1605.000000	99.409945
1604.000000	99.430124
1603.000000	99.452560
1602.000000	99.476225
1601.000000	99.498975
1600.000000	99.518787
1599.000000	99.533169
1598.000000	99.542380
1597.000000	99.551886
1596.000000	99.567546
1595.000000	99.588603
1594.000000	99.608430
1593.000000	99.622997
1592.000000	99.633021
1591.000000	99.638339
1590.000000	99.637171
1589.000000	99.631727
1588.000000	99.627195
1587.000000	99.623751
1586.000000	99.615565
1585.000000	99.598773
1584.000000	99.575864
1583.000000	99.550847
1582.000000	99.525974
1581.000000	99.503393
1580.000000	99.485524
1579.000000	99.471648
1578.000000	99.457980
1577.000000	99.443688
1576.000000	99.436150
1575.000000	99.437744
1574.000000	99.438979
1573.000000	99.437138
1572.000000	99.436010
1571.000000	99.435486
1570.000000	99.431683
1569.000000	99.424226
1568.000000	99.417031
1567.000000	99.408476
1566.000000	99.396133
1565.000000	99.383480
1564.000000	99.375304
1563.000000	99.370743
1562.000000	99.364342
1561.000000	99.349078
1560.000000	99.329459
1559.000000	99.322664
1558.000000	99.303793
1557.000000	99.276184
1556.000000	99.240681
1555.000000	99.201421
1554.000000	99.164689
1553.000000	99.132229
1552.000000	99.098886
1551.000000	99.060072
1550.000000	99.017607
1549.000000	98.979236
1548.000000	98.948181
1547.000000	98.916824
1546.000000	98.876223
1545.000000	98.825797
1544.000000	98.775600
1543.000000	98.737834
1542.000000	98.718092
1541.000000	98.711292
1540.000000	98.703037
1539.000000	98.694253
1538.000000	98.694330
1537.000000	98.694699
1536.000000	98.697206
1535.000000	98.710155
1534.000000	98.739875
1533.000000	98.781984
1532.000000	98.820326
1531.000000	98.848129
1530.000000	98.868378
1529.000000	98.886800
1528.000000	98.908307
1527.000000	98.933215
1526.000000	98.955494
1525.000000	98.968739
1524.000000	98.975218
1523.000000	98.984914
1522.000000	99.003285
1521.000000	99.019105
1520.000000	99.018873
1519.000000	99.004390
1518.000000	98.986606
1517.000000	98.977597
1516.000000	98.982918
1515.000000	98.998177
1514.000000	99.014937
1513.000000	99.030647
1512.000000	99.047410
1511.000000	99.067010
1510.000000	99.089106
1509.000000	99.113502
1508.000000	99.143248
1507.000000	99.177888
1506.000000	99.211567
1505.000000	99.240537
1504.000000	99.250212
1503.000000	99.249361
1502.000000	99.252057
1501.000000	99.260272
1500.000000	99.269751
1499.000000	99.279490
1498.000000	99.293824
1497.000000	99.312658
1496.000000	99.329697
1495.000000	99.342447
1494.000000	99.351553
1493.000000	99.357130
1492.000000	99.360117
1491.000000	99.365249
1490.000000	99.377900
1489.000000	99.391033
1488.000000	99.395847
1487.000000	99.397138
1486.000000	99.400051
1485.000000	99.402975
1484.000000	99.402798
1483.000000	99.398112
1482.000000	99.390000
1481.000000	99.379253
1480.000000	99.366310
1479.000000	99.351872
1478.000000	99.335629
1477.000000	99.316887
1476.000000	99.297347
1475.000000	99.281591
1474.000000	99.269153
1473.000000	99.249711
1472.000000	99.214593
1471.000000	99.174075
1470.000000	99.138229
1469.000000	99.107288
1468.000000	99.081463
1467.000000	99.063283
1466.000000	99.055780
1465.000000	99.059026
1464.000000	99.067682
1463.000000	99.074365
1462.000000	99.074842
1461.000000	99.069312
1460.000000	99.061747
1459.000000	99.057835
1458.000000	99.062103
1457.000000	99.069077
1456.000000	99.065634
1455.000000	99.048254
1454.000000	99.023941
1453.000000	99.004330
1452.000000	98.993559
1451.000000	98.988980
1450.000000	98.987744
1449.000000	98.989657
1448.000000	98.993978
1447.000000	98.997119
1446.000000	98.995511
1445.000000	98.989028
1444.000000	98.980566
1443.000000	98.973528
1442.000000	98.969115
1441.000000	98.967157
1440.000000	98.968097
1439.000000	98.972141
1438.000000	98.978834
1437.000000	98.987485
1436.000000	98.996262
1435.000000	99.001113
1434.000000	99.002918
1433.000000	99.006205
1432.000000	99.012698
1431.000000	99.019691
1430.000000	99.025714
1429.000000	99.032831
1428.000000	99.041570
1427.000000	99.048989
1426.000000	99.053757
1425.000000	99.060117
1424.000000	99.071637
1423.000000	99.084263
1422.000000	99.092335
1421.000000	99.093885
1420.000000	99.089888
1419.000000	99.083708
1418.000000	99.078940
1417.000000	99.076722
1416.000000	99.077739
1415.000000	99.084071
1414.000000	99.096589
1413.000000	99.113920
1412.000000	99.132463
1411.000000	99.147395
1410.000000	99.157385
1409.000000	99.165521
1408.000000	99.174243
1407.000000	99.183547
1406.000000	99.193984
1405.000000	99.208678
1404.000000	99.227729
1403.000000	99.244832
1402.000000	99.254945
1401.000000	99.260120
1400.000000	99.266414
1399.000000	99.275239
1398.000000	99.281712
1397.000000	99.283630
1396.000000	99.285092
1395.000000	99.290421
1394.000000	99.299558
1393.000000	99.310088
1392.000000	99.319748
1391.000000	99.329027
1390.000000	99.339358
1389.000000	99.351437
1388.000000	99.365804
1387.000000	99.381128
1386.000000	99.392908
1385.000000	99.398207
1384.000000	99.398537
1383.000000	99.397428
1382.000000	99.397060
1381.000000	99.397473
1380.000000	99.399451
1379.000000	99.405600
1378.000000	99.417273
1377.000000	99.432528
1376.000000	99.448350
1375.000000	99.463045
1374.000000	99.476011
1373.000000	99.487275
1372.000000	99.496591
1371.000000	99.503895
1370.000000	99.511272
1369.000000	99.522764
1368.000000	99.538904
1367.000000	99.554402
1366.000000	99.563796
1365.000000	99.566885
1364.000000	99.568813
1363.000000	99.576070
1362.000000	99.590843
1361.000000	99.610317
1360.000000	99.629476
1359.000000	99.643854
1358.000000	99.652058
1357.000000	99.656836
1356.000000	99.662401
1355.000000	99.670061
1354.000000	99.677404
1353.000000	99.681687
1352.000000	99.682741
1351.000000	99.682223
1350.000000	99.680740
1349.000000	99.678660
1348.000000	99.676404
1347.000000	99.673658
1346.000000	99.669890
1345.000000	99.666279
1344.000000	99.664586
1343.000000	99.663650
1342.000000	99.659110
1341.000000	99.648069
1340.000000	99.632982
1339.000000	99.619737
1338.000000	99.612384
1337.000000	99.610761
1336.000000	99.613041
1335.000000	99.618464
1334.000000	99.626485
1333.000000	99.635044
1332.000000	99.640830
1331.000000	99.641253
1330.000000	99.636493
1329.000000	99.629699
1328.000000	99.623966
1327.000000	99.619378
1326.000000	99.614230
1325.000000	99.609312
1324.000000	99.607644
1323.000000	99.610139
1322.000000	99.614217
1321.000000	99.617379
1320.000000	99.619731
1319.000000	99.622105
1318.000000	99.624328
1317.000000	99.626682
1316.000000	99.630717
1315.000000	99.636990
1314.000000	99.643709
1313.000000	99.649093
1312.000000	99.653750
1311.000000	99.658979
1310.000000	99.664354
1309.000000	99.669173
1308.000000	99.674863
1307.000000	99.683423
1306.000000	99.693848
1305.000000	99.703185
1304.000000	99.709956
1303.000000	99.714574
1302.000000	99.717060
1301.000000	99.717152
1300.000000	99.716566
1299.000000	99.718256
1298.000000	99.722402
1297.000000	99.725643
1296.000000	99.725857
1295.000000	99.725407
1294.000000	99.727709
1293.000000	99.732357
1292.000000	99.736154
1291.000000	99.738052
1290.000000	99.740536
1289.000000	99.745776
1288.000000	99.752449
1287.000000	99.757168
1286.000000	99.757924
1285.000000	99.755232
1284.000000	99.750778
1283.000000	99.746176
1282.000000	99.742493
1281.000000	99.740006
1280.000000	99.738235
1279.000000	99.736285
1278.000000	99.733589
1277.000000	99.730479
1276.000000	99.727936
1275.000000	99.726264
1274.000000	99.724231
1273.000000	99.720164
1272.000000	99.713953
1271.000000	99.707225
1270.000000	99.701249
1269.000000	99.695743
1268.000000	99.690257
1267.000000	99.685328
1266.000000	99.681252
1265.000000	99.676674
1264.000000	99.670132
1263.000000	99.662696
1262.000000	99.657436
1261.000000	99.655994
1260.000000	99.657083
1259.000000	99.658226
1258.000000	99.657991
1257.000000	99.656244
1256.000000	99.653588
1255.000000	99.650892
1254.000000	99.648097
1253.000000	99.643201
1252.000000	99.633959
1251.000000	99.621410
1250.000000	99.610466
1249.000000	99.605674
1248.000000	99.606637
1247.000000	99.608167
1246.000000	99.604870
1245.000000	99.595084
1244.000000	99.581306
1243.000000	99.568051
1242.000000	99.559160
1241.000000	99.555865
1240.000000	99.556432
1239.000000	99.557210
1238.000000	99.554592
1237.000000	99.547132
1236.000000	99.536590
1235.000000	99.526735
1234.000000	99.520501
1233.000000	99.518189
1232.000000	99.518717
1231.000000	99.521523
1230.000000	99.526034
1229.000000	99.530070
1228.000000	99.530940
1227.000000	99.528760
1226.000000	99.526944
1225.000000	99.528394
1224.000000	99.532508
1223.000000	99.537181
1222.000000	99.542714
1221.000000	99.551749
1220.000000	99.565275
1219.000000	99.580113
1218.000000	99.591272
1217.000000	99.596372
1216.000000	99.597165
1215.000000	99.597118
1214.000000	99.598076
1213.000000	99.599455
1212.000000	99.600032
1211.000000	99.599670
1210.000000	99.598980
1209.000000	99.597982
1208.000000	99.596169
1207.000000	99.593430
1206.000000	99.589578
1205.000000	99.583164
1204.000000	99.572465
1203.000000	99.558430
1202.000000	99.545193
1201.000000	99.536361
1200.000000	99.531425
1199.000000	99.526807
1198.000000	99.520032
1197.000000	99.511811
1196.000000	99.504242
1195.000000	99.498011
1194.000000	99.491931
1193.000000	99.484839
1192.000000	99.477318
1191.000000	99.471301
1190.000000	99.468109
1189.000000	99.467460
1188.000000	99.468340
1187.000000	99.469901
1186.000000	99.471116
1185.000000	99.470560
1184.000000	99.467562
1183.000000	99.462860
1182.000000	99.457075
1181.000000	99.449245
1180.000000	99.438481
1179.000000	99.426279
1178.000000	99.414999
1177.000000	99.404410
1176.000000	99.392001
1175.000000	99.376823
1174.000000	99.360383
1173.000000	99.343285
1172.000000	99.323805
1171.000000	99.301428
1170.000000	99.279483
1169.000000	99.261903
1168.000000	99.248453
1167.000000	99.235235
1166.000000	99.219486
1165.000000	99.202187
1164.000000	99.185879
1163.000000	99.171274
1162.000000	99.156428
1161.000000	99.139024
1160.000000	99.119438
1159.000000	99.101295
1158.000000	99.088049
1157.000000	99.078821
1156.000000	99.068549
1155.000000	99.052682
1154.000000	99.031038
1153.000000	99.007098
1152.000000	98.984851
1151.000000	98.967005
1150.000000	98.954589
1149.000000	98.946711
1148.000000	98.940780
1147.000000	98.933545
1146.000000	98.922208
1145.000000	98.905723
1144.000000	98.886530
1143.000000	98.870711
1142.000000	98.863599
1141.000000	98.864001
1140.000000	98.864576
1139.000000	98.859348
1138.000000	98.849645
1137.000000	98.841416
1136.000000	98.838655
1135.000000	98.841601
1134.000000	98.849461
1133.000000	98.861176
1132.000000	98.873154
1131.000000	98.879707
1130.000000	98.877951
1129.000000	98.870642
1128.000000	98.862596
1127.000000	98.855754
1126.000000	98.849325
1125.000000	98.843043
1124.000000	98.837776
1123.000000	98.832874
1122.000000	98.825424
1121.000000	98.813122
1120.000000	98.796621
1119.000000	98.778231
1118.000000	98.759159
1117.000000	98.739226
1116.000000	98.718802
1115.000000	98.699595
1114.000000	98.683268
1113.000000	98.670463
1112.000000	98.661684
1111.000000	98.657657
1110.000000	98.657394
1109.000000	98.656610
1108.000000	98.649969
1107.000000	98.636202
1106.000000	98.619883
1105.000000	98.607233
1104.000000	98.600641
1103.000000	98.598037
1102.000000	98.596515
1101.000000	98.594917
1100.000000	98.592643
1099.000000	98.589279
1098.000000	98.585006
1097.000000	98.580632
1096.000000	98.575422
1095.000000	98.566699
1094.000000	98.553871
1093.000000	98.541863
1092.000000	98.537263
1091.000000	98.540479
1090.000000	98.544053
1089.000000	98.540245
1088.000000	98.528644
1087.000000	98.514927
1086.000000	98.503834
1085.000000	98.495327
1084.000000	98.486808
1083.000000	98.476932
1082.000000	98.467213
1081.000000	98.461224
1080.000000	98.462237
1079.000000	98.470132
1078.000000	98.480490
1077.000000	98.487880
1076.000000	98.490170
1075.000000	98.489314
1074.000000	98.488491
1073.000000	98.489418
1072.000000	98.491991
1071.000000	98.495157
1070.000000	98.497722
1069.000000	98.498953
1068.000000	98.498567
1067.000000	98.496478
1066.000000	98.493565
1065.000000	98.492940
1064.000000	98.498498
1063.000000	98.510316
1062.000000	98.522113
1061.000000	98.525591
1060.000000	98.517749
1059.000000	98.502934
1058.000000	98.487948
1057.000000	98.476402
1056.000000	98.467824
1055.000000	98.460467
1054.000000	98.453566
1053.000000	98.447283
1052.000000	98.441223
1051.000000	98.433825
1050.000000	98.424381
1049.000000	98.416043
1048.000000	98.414612
1047.000000	98.421962
1046.000000	98.431256
1045.000000	98.431760
1044.000000	98.419338
1043.000000	98.400695
1042.000000	98.386555
1041.000000	98.381540
1040.000000	98.382057
1039.000000	98.382544
1038.000000	98.381359
1037.000000	98.380377
1036.000000	98.380975
1035.000000	98.382114
1034.000000	98.381672
1033.000000	98.378036
1032.000000	98.370663
1031.000000	98.360928
1030.000000	98.352910
1029.000000	98.351367
1028.000000	98.357085
1027.000000	98.365269
1026.000000	98.370519
1025.000000	98.372540
1024.000000	98.374700
1023.000000	98.377727
1022.000000	98.378450
1021.000000	98.375562
1020.000000	98.372976
1019.000000	98.375264
1018.000000	98.381747
1017.000000	98.387319
1016.000000	98.387874
1015.000000	98.383415
1014.000000	98.377566
1013.000000	98.375479
1012.000000	98.380151
1011.000000	98.388036
1010.000000	98.389627
1009.000000	98.377128
1008.000000	98.352148
1007.000000	98.324830
1006.000000	98.306486
1005.000000	98.303310
1004.000000	98.313979
1003.000000	98.330055
1002.000000	98.340692
1001.000000	98.341750
1000.000000	98.340443
999.000000	98.348315
998.000000	98.369219
997.000000	98.397069
996.000000	98.424522
995.000000	98.449709
994.000000	98.474092
993.000000	98.498105
992.000000	98.521487
991.000000	98.545243
990.000000	98.570416
989.000000	98.596187
988.000000	98.621097
987.000000	98.645092
986.000000	98.668853
985.000000	98.691900
984.000000	98.712823
983.000000	98.731041
982.000000	98.747441
981.000000	98.763977
980.000000	98.783455
979.000000	98.808822
978.000000	98.841333
977.000000	98.879443
976.000000	98.920051
975.000000	98.960122
974.000000	98.996684
973.000000	99.027274
972.000000	99.052497
971.000000	99.077427
970.000000	99.107280
969.000000	99.140901
968.000000	99.171220
967.000000	99.193815
966.000000	99.212888
965.000000	99.235910
964.000000	99.263814
963.000000	99.290154
962.000000	99.309722
961.000000	99.324498
960.000000	99.339831
959.000000	99.358365
958.000000	99.380108
957.000000	99.405399
956.000000	99.433966
955.000000	99.461786
954.000000	99.482784
953.000000	99.494612
952.000000	99.501149
951.000000	99.508753
950.000000	99.521157
949.000000	99.537971
948.000000	99.556149
947.000000	99.572257
946.000000	99.584389
945.000000	99.592973
944.000000	99.599900
943.000000	99.607202
942.000000	99.616365
941.000000	99.627660
940.000000	99.639206
939.000000	99.647770
938.000000	99.651926
937.000000	99.654191
936.000000	99.658761
935.000000	99.667726
934.000000	99.680510
933.000000	99.696245
932.000000	99.714800
931.000000	99.735168
930.000000	99.754126
929.000000	99.767273
928.000000	99.771818
927.000000	99.769359
926.000000	99.766062
925.000000	99.768208
924.000000	99.776272
923.000000	99.784473
922.000000	99.787397
921.000000	99.785207
920.000000	99.780744
919.000000	99.774217
918.000000	99.764243
917.000000	99.752925
916.000000	99.745682
915.000000	99.745821
914.000000	99.752004
913.000000	99.761307
912.000000	99.771634
911.000000	99.780564
910.000000	99.785876
909.000000	99.789268
908.000000	99.796802
907.000000	99.812746
906.000000	99.834040
905.000000	99.852328
904.000000	99.860952
903.000000	99.859265
902.000000	99.851666
901.000000	99.843865
900.000000	99.839309
899.000000	99.838308
898.000000	99.840369
897.000000	99.846472
896.000000	99.857286
895.000000	99.869723
894.000000	99.878158
893.000000	99.880163
892.000000	99.879019
891.000000	99.879761
890.000000	99.884196
889.000000	99.890205
888.000000	99.894180
887.000000	99.893083
886.000000	99.885672
885.000000	99.872167
884.000000	99.851637
883.000000	99.820610
882.000000	99.776492
881.000000	99.722167
880.000000	99.663854
879.000000	99.604707
878.000000	99.544984
877.000000	99.489421
876.000000	99.449187
875.000000	99.432635
874.000000	99.438078
873.000000	99.459363
872.000000	99.494773
871.000000	99.544038
870.000000	99.598740
869.000000	99.643288
868.000000	99.667187
867.000000	99.673604
866.000000	99.675376
865.000000	99.684236
864.000000	99.702822
863.000000	99.723928
862.000000	99.736956
861.000000	99.737845
860.000000	99.732670
859.000000	99.730264
858.000000	99.732686
857.000000	99.735265
856.000000	99.735179
855.000000	99.736036
854.000000	99.743248
853.000000	99.757693
852.000000	99.775098
851.000000	99.790029
850.000000	99.799631
849.000000	99.805289
848.000000	99.811598
847.000000	99.822635
846.000000	99.838171
845.000000	99.853685
844.000000	99.863923
843.000000	99.866475
842.000000	99.863053
841.000000	99.858369
840.000000	99.857276
839.000000	99.861649
838.000000	99.869467
837.000000	99.876631
836.000000	99.879220
835.000000	99.875056
834.000000	99.865696
833.000000	99.856912
832.000000	99.853979
831.000000	99.855474
830.000000	99.854849
829.000000	99.850000
828.000000	99.847904
827.000000	99.856390
826.000000	99.874189
825.000000	99.892338
824.000000	99.902696
823.000000	99.902076
822.000000	99.891783
821.000000	99.877897
820.000000	99.868475
819.000000	99.864912
818.000000	99.859093
817.000000	99.845283
816.000000	99.832202
815.000000	99.835597
814.000000	99.858377
813.000000	99.885037
812.000000	99.897446
811.000000	99.890303
810.000000	99.870868
809.000000	99.850714
808.000000	99.840409
807.000000	99.845476
806.000000	99.861755
805.000000	99.877906
804.000000	99.886181
803.000000	99.887885
802.000000	99.886225
801.000000	99.879183
800.000000	99.864420
799.000000	99.847711
798.000000	99.840100
797.000000	99.846790
796.000000	99.862325
795.000000	99.876051
794.000000	99.879781
793.000000	99.871441
792.000000	99.855109
791.000000	99.838736
790.000000	99.829733
789.000000	99.831101
788.000000	99.840802
787.000000	99.853353
786.000000	99.861936
785.000000	99.861836
784.000000	99.853358
783.000000	99.840672
782.000000	99.828151
781.000000	99.819644
780.000000	99.820063
779.000000	99.832885
778.000000	99.853984
777.000000	99.871957
776.000000	99.878314
775.000000	99.875382
774.000000	99.871426
773.000000	99.870377
772.000000	99.870013
771.000000	99.868508
770.000000	99.868007
769.000000	99.870864
768.000000	99.875674
767.000000	99.879164
766.000000	99.880464
765.000000	99.881895
764.000000	99.885689
763.000000	99.890577
762.000000	99.892000
761.000000	99.886021
760.000000	99.873275
759.000000	99.858678
758.000000	99.847243
757.000000	99.840573
756.000000	99.837021
755.000000	99.834348
754.000000	99.831985
753.000000	99.831462
752.000000	99.834287
751.000000	99.838926
750.000000	99.841052
749.000000	99.838338
748.000000	99.834300
747.000000	99.834979
746.000000	99.841708
745.000000	99.849293
744.000000	99.851935
743.000000	99.849092
742.000000	99.845254
741.000000	99.845903
740.000000	99.854199
739.000000	99.869312
738.000000	99.886359
737.000000	99.898724
736.000000	99.901645
735.000000	99.894628
734.000000	99.881814
733.000000	99.870286
732.000000	99.865386
731.000000	99.865379
730.000000	99.862590
729.000000	99.852349
728.000000	99.838727
727.000000	99.828922
726.000000	99.824541
725.000000	99.822719
724.000000	99.823547
723.000000	99.830478
722.000000	99.844139
721.000000	99.860577
720.000000	99.875204
719.000000	99.883735
718.000000	99.880574
717.000000	99.863490
716.000000	99.841043
715.000000	99.828278
714.000000	99.831879
713.000000	99.844663
712.000000	99.856330
711.000000	99.863530
710.000000	99.866712
709.000000	99.864482
708.000000	99.856008
707.000000	99.844597
706.000000	99.834393
705.000000	99.826578
704.000000	99.821862
703.000000	99.822711
702.000000	99.830170
701.000000	99.841968
700.000000	99.855655
699.000000	99.869082
698.000000	99.877306
697.000000	99.875625
696.000000	99.868142
695.000000	99.865648
694.000000	99.871705
693.000000	99.878244
692.000000	99.879283
691.000000	99.880385
690.000000	99.887690
689.000000	99.895657
688.000000	99.894530
687.000000	99.885358
686.000000	99.877149
685.000000	99.873649
684.000000	99.872435
683.000000	99.873426
682.000000	99.879404
681.000000	99.889016
680.000000	99.895323
679.000000	99.889745
678.000000	99.864957
677.000000	99.820638
676.000000	99.770655
675.000000	99.735210
674.000000	99.720680
673.000000	99.713298
672.000000	99.698177
671.000000	99.677002
670.000000	99.663250
669.000000	99.666199
668.000000	99.681626
667.000000	99.706126
666.000000	99.735380
665.000000	99.757319
664.000000	99.766151
663.000000	99.766250
662.000000	99.766918
661.000000	99.770802
660.000000	99.773031
659.000000	99.772946
658.000000	99.777531
657.000000	99.791430
656.000000	99.811565
655.000000	99.831604
654.000000	99.846212
653.000000	99.850932
652.000000	99.845239
651.000000	99.838191
650.000000	99.843723
649.000000	99.864739
648.000000	99.887034
647.000000	99.892317
646.000000	99.874659
645.000000	99.843910
644.000000	99.817528
643.000000	99.810346
642.000000	99.825082
641.000000	99.849269
640.000000	99.865521
639.000000	99.867334
638.000000	99.862176
637.000000	99.859862
636.000000	99.863122
635.000000	99.870162
634.000000	99.879843
633.000000	99.890123
632.000000	99.895500
631.000000	99.891148
630.000000	99.879085
629.000000	99.867894
628.000000	99.865749
627.000000	99.873054
626.000000	99.881119
625.000000	99.881223
624.000000	99.876754
623.000000	99.880101
622.000000	99.894864
621.000000	99.907749
620.000000	99.905064
619.000000	99.891367
618.000000	99.880819
617.000000	99.872300
616.000000	99.847628
615.000000	99.799116
614.000000	99.744804
613.000000	99.710300
612.000000	99.704194
611.000000	99.714813
610.000000	99.721732
609.000000	99.707208
608.000000	99.666894
607.000000	99.616692
606.000000	99.581993
605.000000	99.571749
604.000000	99.569475
603.000000	99.555419
602.000000	99.532280
601.000000	99.521362
600.000000	99.538619
599.000000	99.580479
598.000000	99.629659
597.000000	99.668259
596.000000	99.686143
595.000000	99.685081
594.000000	99.677875
593.000000	99.678517
592.000000	99.690719
591.000000	99.707550
590.000000	99.719888
589.000000	99.721349
588.000000	99.707822
587.000000	99.680970
586.000000	99.653064
585.000000	99.638642
584.000000	99.636944
583.000000	99.629699
582.000000	99.604299
581.000000	99.575094
580.000000	99.572845
579.000000	99.608976
578.000000	99.658818
577.000000	99.685986
576.000000	99.677299
575.000000	99.652211
574.000000	99.637562
573.000000	99.640433
572.000000	99.653125
571.000000	99.671689
570.000000	99.697529
569.000000	99.724109
568.000000	99.734354
567.000000	99.719136
566.000000	99.693024
565.000000	99.682039
564.000000	99.699014
563.000000	99.736604
562.000000	99.780495
561.000000	99.821426
560.000000	99.851944
559.000000	99.860723
558.000000	99.842600
557.000000	99.810550
556.000000	99.787148
555.000000	99.784251
554.000000	99.796732
553.000000	99.816953
552.000000	99.846396
551.000000	99.887229
550.000000	99.930064
549.000000	99.960808
548.000000	99.973296
547.000000	99.966459
546.000000	99.937850
545.000000	99.891368
544.000000	99.844886
543.000000	99.815828
542.000000	99.801125
541.000000	99.781723
540.000000	99.747299
539.000000	99.704201
538.000000	99.657792
537.000000	99.602113
536.000000	99.535618
535.000000	99.473846
534.000000	99.435436
533.000000	99.421113
532.000000	99.417592
531.000000	99.413614
530.000000	99.402255
529.000000	99.377452
528.000000	99.339804
527.000000	99.299341
526.000000	99.266035
525.000000	99.240658
524.000000	99.219114
523.000000	99.199013
522.000000	99.175836
521.000000	99.145053
520.000000	99.116127
519.000000	99.111048
518.000000	99.136565
517.000000	99.169638
516.000000	99.188806
515.000000	99.201227
514.000000	99.218999
513.000000	99.233976
512.000000	99.233921
511.000000	99.228477
510.000000	99.241052
509.000000	99.281819
508.000000	99.344914
507.000000	99.419075
506.000000	99.487058
505.000000	99.530059
504.000000	99.545702
503.000000	99.554017
502.000000	99.574693
501.000000	99.602826
500.000000	99.623590
499.000000	99.638018
498.000000	99.654172
497.000000	99.669159
496.000000	99.677845
495.000000	99.688840
494.000000	99.712139
493.000000	99.737343
492.000000	99.743265
491.000000	99.723727
490.000000	99.687416
489.000000	99.640988
488.000000	99.594530
487.000000	99.572891
486.000000	99.598957
485.000000	99.666999
484.000000	99.747690
483.000000	99.814389
482.000000	99.846922
481.000000	99.825774
480.000000	99.752891
479.000000	99.673035
478.000000	99.643272
477.000000	99.669078
476.000000	99.697043
475.000000	99.679452
474.000000	99.625044
473.000000	99.579765
472.000000	99.570643
471.000000	99.578581
470.000000	99.571963
469.000000	99.540956
468.000000	99.499687
467.000000	99.471251
466.000000	99.466190
465.000000	99.473460
464.000000	99.479962
463.000000	99.490930
462.000000	99.518810
461.000000	99.561433
460.000000	99.604054
459.000000	99.632703
458.000000	99.632425
457.000000	99.595783
456.000000	99.551342
455.000000	99.592225
454.000000	99.652582
453.000000	99.766785
452.000000	99.863082
451.000000	99.902334
450.000000	99.904016
