PE IR       SUBTECH     SPECTRUM    ASCII       PEDS        4.00        
   -1
msfkat_side1_002_1.ASC
23/09/08
13:34:22.00
23/09/08
13:43:10.00
uco
Sample 002 By uco Date Friday, September 08 2023
450.000000
#HDR
-1
-1
#GR
cm-1
%T
1.0
0.0
4000.000000
-1.000000
3551
8
99.905284
97.824768
#DATA
4000.000000	99.794863
3999.000000	99.792921
3998.000000	99.791094
3997.000000	99.789542
3996.000000	99.788375
3995.000000	99.787471
3994.000000	99.786482
3993.000000	99.785041
3992.000000	99.783176
3991.000000	99.781638
3990.000000	99.781736
3989.000000	99.784450
3988.000000	99.789472
3987.000000	99.795128
3986.000000	99.799315
3985.000000	99.800763
3984.000000	99.799536
3983.000000	99.796389
3982.000000	99.791760
3981.000000	99.785626
3980.000000	99.778645
3979.000000	99.773108
3978.000000	99.771861
3977.000000	99.775640
3976.000000	99.781643
3975.000000	99.785384
3974.000000	99.784584
3973.000000	99.780965
3972.000000	99.777982
3971.000000	99.777429
3970.000000	99.778472
3969.000000	99.779460
3968.000000	99.779899
3967.000000	99.780608
3966.000000	99.782541
3965.000000	99.785655
3964.000000	99.788624
3963.000000	99.789596
3962.000000	99.787667
3961.000000	99.783843
3960.000000	99.780086
3959.000000	99.777524
3958.000000	99.775858
3957.000000	99.774484
3956.000000	99.773506
3955.000000	99.773370
3954.000000	99.774023
3953.000000	99.774728
3952.000000	99.774846
3951.000000	99.774551
3950.000000	99.774667
3949.000000	99.775674
3948.000000	99.776944
3947.000000	99.777321
3946.000000	99.776439
3945.000000	99.774919
3944.000000	99.773614
3943.000000	99.773058
3942.000000	99.772950
3941.000000	99.772131
3940.000000	99.769360
3939.000000	99.764413
3938.000000	99.758686
3937.000000	99.754997
3936.000000	99.755657
3935.000000	99.760189
3934.000000	99.765344
3933.000000	99.767757
3932.000000	99.767027
3931.000000	99.765491
3930.000000	99.764976
3929.000000	99.765224
3928.000000	99.765229
3927.000000	99.764360
3926.000000	99.762217
3925.000000	99.759148
3924.000000	99.756737
3923.000000	99.756262
3922.000000	99.757011
3921.000000	99.757103
3920.000000	99.755846
3919.000000	99.754753
3918.000000	99.756069
3917.000000	99.760765
3916.000000	99.767688
3915.000000	99.774425
3914.000000	99.778383
3913.000000	99.778520
3912.000000	99.775896
3911.000000	99.772665
3910.000000	99.769501
3909.000000	99.765096
3908.000000	99.758405
3907.000000	99.751044
3906.000000	99.746778
3905.000000	99.748143
3904.000000	99.753396
3903.000000	99.757346
3902.000000	99.756364
3901.000000	99.751400
3900.000000	99.745825
3899.000000	99.742608
3898.000000	99.742765
3897.000000	99.745717
3896.000000	99.750358
3895.000000	99.756462
3894.000000	99.764229
3893.000000	99.772661
3892.000000	99.778116
3891.000000	99.777658
3890.000000	99.772993
3889.000000	99.769163
3888.000000	99.769158
3887.000000	99.770959
3886.000000	99.771092
3885.000000	99.769936
3884.000000	99.770621
3883.000000	99.774594
3882.000000	99.779346
3881.000000	99.780382
3880.000000	99.775698
3879.000000	99.767563
3878.000000	99.759611
3877.000000	99.753647
3876.000000	99.748675
3875.000000	99.743379
3874.000000	99.740380
3873.000000	99.745602
3872.000000	99.760744
3871.000000	99.777932
3870.000000	99.785735
3869.000000	99.782088
3868.000000	99.775126
3867.000000	99.771223
3866.000000	99.769110
3865.000000	99.766541
3864.000000	99.765806
3863.000000	99.770195
3862.000000	99.778271
3861.000000	99.785443
3860.000000	99.787619
3859.000000	99.783727
3858.000000	99.775861
3857.000000	99.767826
3856.000000	99.763104
3855.000000	99.762513
3854.000000	99.763173
3853.000000	99.762913
3852.000000	99.762349
3851.000000	99.762761
3850.000000	99.763613
3849.000000	99.763357
3848.000000	99.761420
3847.000000	99.758266
3846.000000	99.753938
3845.000000	99.748098
3844.000000	99.740430
3843.000000	99.732650
3842.000000	99.728689
3841.000000	99.731307
3840.000000	99.738002
3839.000000	99.742886
3838.000000	99.742611
3837.000000	99.739773
3836.000000	99.739864
3835.000000	99.745908
3834.000000	99.756213
3833.000000	99.765687
3832.000000	99.769772
3831.000000	99.768291
3830.000000	99.764745
3829.000000	99.762420
3828.000000	99.760401
3827.000000	99.754230
3826.000000	99.741494
3825.000000	99.726361
3824.000000	99.716556
3823.000000	99.717061
3822.000000	99.725432
3821.000000	99.733983
3820.000000	99.739258
3819.000000	99.745159
3818.000000	99.754678
3817.000000	99.763472
3816.000000	99.766236
3815.000000	99.764773
3814.000000	99.764022
3813.000000	99.764253
3812.000000	99.761781
3811.000000	99.755440
3810.000000	99.749409
3809.000000	99.749118
3808.000000	99.755009
3807.000000	99.762256
3806.000000	99.766516
3805.000000	99.768592
3804.000000	99.771245
3803.000000	99.773372
3802.000000	99.770648
3801.000000	99.763026
3800.000000	99.754940
3799.000000	99.749944
3798.000000	99.748858
3797.000000	99.751101
3796.000000	99.756441
3795.000000	99.763663
3794.000000	99.769982
3793.000000	99.773060
3792.000000	99.773319
3791.000000	99.772955
3790.000000	99.773176
3789.000000	99.773439
3788.000000	99.773710
3787.000000	99.775591
3786.000000	99.780244
3785.000000	99.786500
3784.000000	99.792306
3783.000000	99.797236
3782.000000	99.801691
3781.000000	99.804445
3780.000000	99.802400
3779.000000	99.794554
3778.000000	99.784403
3777.000000	99.776500
3776.000000	99.771956
3775.000000	99.769417
3774.000000	99.768778
3773.000000	99.771811
3772.000000	99.778674
3771.000000	99.785947
3770.000000	99.789728
3769.000000	99.789627
3768.000000	99.787794
3767.000000	99.784993
3766.000000	99.780004
3765.000000	99.773223
3764.000000	99.767885
3763.000000	99.766269
3762.000000	99.766340
3761.000000	99.764454
3760.000000	99.760121
3759.000000	99.756120
3758.000000	99.753549
3757.000000	99.750864
3756.000000	99.747451
3755.000000	99.744324
3754.000000	99.742322
3753.000000	99.742535
3752.000000	99.747582
3751.000000	99.757682
3750.000000	99.767144
3749.000000	99.771735
3748.000000	99.775420
3747.000000	99.783474
3746.000000	99.793227
3745.000000	99.796715
3744.000000	99.794196
3743.000000	99.792458
3742.000000	99.792420
3741.000000	99.789928
3740.000000	99.783186
3739.000000	99.775866
3738.000000	99.771857
3737.000000	99.769272
3736.000000	99.764649
3735.000000	99.760433
3734.000000	99.761787
3733.000000	99.768147
3732.000000	99.774953
3731.000000	99.780296
3730.000000	99.786001
3729.000000	99.793269
3728.000000	99.799450
3727.000000	99.799740
3726.000000	99.792235
3725.000000	99.779672
3724.000000	99.767340
3723.000000	99.760889
3722.000000	99.763281
3721.000000	99.772021
3720.000000	99.780407
3719.000000	99.783058
3718.000000	99.779627
3717.000000	99.774471
3716.000000	99.772317
3715.000000	99.773574
3714.000000	99.774632
3713.000000	99.772395
3712.000000	99.768258
3711.000000	99.766142
3710.000000	99.767096
3709.000000	99.769139
3708.000000	99.770613
3707.000000	99.771411
3706.000000	99.772026
3705.000000	99.772800
3704.000000	99.773072
3703.000000	99.771390
3702.000000	99.766234
3701.000000	99.758093
3700.000000	99.750043
3699.000000	99.745559
3698.000000	99.745480
3697.000000	99.748127
3696.000000	99.751663
3695.000000	99.754448
3694.000000	99.754697
3693.000000	99.751827
3692.000000	99.748613
3691.000000	99.749975
3690.000000	99.758243
3689.000000	99.769007
3688.000000	99.774981
3687.000000	99.775173
3686.000000	99.774846
3685.000000	99.777446
3684.000000	99.781488
3683.000000	99.784041
3682.000000	99.783153
3681.000000	99.777144
3680.000000	99.765583
3679.000000	99.752121
3678.000000	99.742866
3677.000000	99.740068
3676.000000	99.739342
3675.000000	99.735927
3674.000000	99.730766
3673.000000	99.728952
3672.000000	99.732451
3671.000000	99.738225
3670.000000	99.743165
3669.000000	99.747020
3668.000000	99.751383
3667.000000	99.758005
3666.000000	99.766530
3665.000000	99.774583
3664.000000	99.779829
3663.000000	99.781390
3662.000000	99.780249
3661.000000	99.778309
3660.000000	99.777097
3659.000000	99.775995
3658.000000	99.771943
3657.000000	99.761621
3656.000000	99.746497
3655.000000	99.732436
3654.000000	99.723208
3653.000000	99.717683
3652.000000	99.711693
3651.000000	99.701821
3650.000000	99.689783
3649.000000	99.683253
3648.000000	99.687987
3647.000000	99.701775
3646.000000	99.718964
3645.000000	99.735705
3644.000000	99.750012
3643.000000	99.760537
3642.000000	99.766257
3641.000000	99.766792
3640.000000	99.762390
3639.000000	99.753965
3638.000000	99.744088
3637.000000	99.736593
3636.000000	99.733797
3635.000000	99.734240
3634.000000	99.734637
3633.000000	99.733925
3632.000000	99.733739
3631.000000	99.735141
3630.000000	99.735741
3629.000000	99.732723
3628.000000	99.726693
3627.000000	99.719141
3626.000000	99.710946
3625.000000	99.702696
3624.000000	99.695981
3623.000000	99.693417
3622.000000	99.696150
3621.000000	99.701865
3620.000000	99.706032
3619.000000	99.705510
3618.000000	99.701225
3617.000000	99.697187
3616.000000	99.696421
3615.000000	99.697376
3614.000000	99.695038
3613.000000	99.686572
3612.000000	99.675329
3611.000000	99.667419
3610.000000	99.665847
3609.000000	99.669521
3608.000000	99.676067
3607.000000	99.683271
3606.000000	99.688857
3605.000000	99.691297
3604.000000	99.691057
3603.000000	99.690153
3602.000000	99.689751
3601.000000	99.688826
3600.000000	99.686308
3599.000000	99.682618
3598.000000	99.678848
3597.000000	99.675469
3596.000000	99.672871
3595.000000	99.671614
3594.000000	99.671886
3593.000000	99.671939
3592.000000	99.668802
3591.000000	99.660289
3590.000000	99.645895
3589.000000	99.627671
3588.000000	99.612441
3587.000000	99.609121
3586.000000	99.618863
3585.000000	99.633851
3584.000000	99.645822
3583.000000	99.650762
3582.000000	99.648361
3581.000000	99.640773
3580.000000	99.631986
3579.000000	99.626595
3578.000000	99.627359
3577.000000	99.633163
3576.000000	99.639542
3575.000000	99.641343
3574.000000	99.635758
3573.000000	99.623762
3572.000000	99.609626
3571.000000	99.598835
3570.000000	99.595043
3569.000000	99.597357
3568.000000	99.600818
3567.000000	99.601263
3566.000000	99.599246
3565.000000	99.597639
3564.000000	99.597776
3563.000000	99.598949
3562.000000	99.600182
3561.000000	99.601575
3560.000000	99.603791
3559.000000	99.606353
3558.000000	99.607026
3557.000000	99.603627
3556.000000	99.596543
3555.000000	99.588738
3554.000000	99.582855
3553.000000	99.578415
3552.000000	99.572600
3551.000000	99.563755
3550.000000	99.553260
3549.000000	99.544039
3548.000000	99.538673
3547.000000	99.538741
3546.000000	99.544204
3545.000000	99.552601
3544.000000	99.559934
3543.000000	99.562970
3542.000000	99.560715
3541.000000	99.554544
3540.000000	99.547279
3539.000000	99.541235
3538.000000	99.536445
3537.000000	99.531121
3536.000000	99.524516
3535.000000	99.518437
3534.000000	99.515224
3533.000000	99.514781
3532.000000	99.514805
3531.000000	99.513581
3530.000000	99.512038
3529.000000	99.513025
3528.000000	99.518763
3527.000000	99.528719
3526.000000	99.539407
3525.000000	99.546457
3524.000000	99.547576
3523.000000	99.544121
3522.000000	99.539457
3521.000000	99.535811
3520.000000	99.533168
3519.000000	99.530702
3518.000000	99.528419
3517.000000	99.527227
3516.000000	99.527924
3515.000000	99.530310
3514.000000	99.533034
3513.000000	99.534192
3512.000000	99.532683
3511.000000	99.529411
3510.000000	99.526827
3509.000000	99.526622
3508.000000	99.528102
3507.000000	99.528902
3506.000000	99.526664
3505.000000	99.520040
3504.000000	99.509809
3503.000000	99.499479
3502.000000	99.493200
3501.000000	99.492308
3500.000000	99.494843
3499.000000	99.498357
3498.000000	99.502003
3497.000000	99.505875
3496.000000	99.509392
3495.000000	99.511320
3494.000000	99.511020
3493.000000	99.508622
3492.000000	99.504039
3491.000000	99.496951
3490.000000	99.488043
3489.000000	99.479432
3488.000000	99.473407
3487.000000	99.471075
3486.000000	99.472389
3485.000000	99.476778
3484.000000	99.483024
3483.000000	99.488905
3482.000000	99.492011
3481.000000	99.491445
3480.000000	99.488467
3479.000000	99.485324
3478.000000	99.483545
3477.000000	99.483121
3476.000000	99.482709
3475.000000	99.480578
3474.000000	99.475925
3473.000000	99.469691
3472.000000	99.464065
3471.000000	99.460900
3470.000000	99.460279
3469.000000	99.460441
3468.000000	99.459221
3467.000000	99.455981
3466.000000	99.452229
3465.000000	99.450144
3464.000000	99.450492
3463.000000	99.452036
3462.000000	99.452897
3461.000000	99.452158
3460.000000	99.450125
3459.000000	99.447401
3458.000000	99.444251
3457.000000	99.440900
3456.000000	99.438170
3455.000000	99.437366
3454.000000	99.439164
3453.000000	99.442577
3452.000000	99.445506
3451.000000	99.446562
3450.000000	99.446104
3449.000000	99.445315
3448.000000	99.444759
3447.000000	99.444291
3446.000000	99.443934
3445.000000	99.444001
3444.000000	99.444311
3443.000000	99.443991
3442.000000	99.442349
3441.000000	99.439510
3440.000000	99.435969
3439.000000	99.432039
3438.000000	99.428116
3437.000000	99.424847
3436.000000	99.422379
3435.000000	99.419597
3434.000000	99.414816
3433.000000	99.407504
3432.000000	99.399287
3431.000000	99.393138
3430.000000	99.391318
3429.000000	99.393499
3428.000000	99.396368
3427.000000	99.395650
3426.000000	99.389652
3425.000000	99.381379
3424.000000	99.376553
3423.000000	99.378855
3422.000000	99.387053
3421.000000	99.396477
3420.000000	99.402630
3419.000000	99.403226
3418.000000	99.398085
3417.000000	99.388826
3416.000000	99.378656
3415.000000	99.370856
3414.000000	99.366539
3413.000000	99.364179
3412.000000	99.361458
3411.000000	99.356958
3410.000000	99.350244
3409.000000	99.341695
3408.000000	99.333082
3407.000000	99.327353
3406.000000	99.326598
3405.000000	99.330232
3404.000000	99.335517
3403.000000	99.339475
3402.000000	99.339952
3401.000000	99.335719
3400.000000	99.326973
3399.000000	99.316024
3398.000000	99.306557
3397.000000	99.301313
3396.000000	99.300424
3395.000000	99.302083
3394.000000	99.304417
3393.000000	99.306413
3392.000000	99.307644
3391.000000	99.308013
3390.000000	99.307996
3389.000000	99.308387
3388.000000	99.309104
3387.000000	99.308526
3386.000000	99.304986
3385.000000	99.299334
3384.000000	99.295040
3383.000000	99.294736
3382.000000	99.297021
3381.000000	99.297721
3380.000000	99.294350
3379.000000	99.288447
3378.000000	99.283289
3377.000000	99.280326
3376.000000	99.278525
3375.000000	99.276522
3374.000000	99.274186
3373.000000	99.272056
3372.000000	99.270196
3371.000000	99.268239
3370.000000	99.266113
3369.000000	99.264070
3368.000000	99.261984
3367.000000	99.259205
3366.000000	99.255609
3365.000000	99.252662
3364.000000	99.252572
3363.000000	99.255684
3362.000000	99.258895
3361.000000	99.257610
3360.000000	99.249858
3359.000000	99.238186
3358.000000	99.227209
3357.000000	99.219810
3356.000000	99.215963
3355.000000	99.214290
3354.000000	99.213453
3353.000000	99.212217
3352.000000	99.209696
3351.000000	99.206551
3350.000000	99.205205
3349.000000	99.207601
3348.000000	99.212470
3347.000000	99.215383
3346.000000	99.212147
3345.000000	99.202304
3344.000000	99.189265
3343.000000	99.177041
3342.000000	99.167196
3341.000000	99.159205
3340.000000	99.153266
3339.000000	99.151478
3338.000000	99.155397
3337.000000	99.162889
3336.000000	99.168557
3335.000000	99.167848
3334.000000	99.160506
3333.000000	99.149990
3332.000000	99.140320
3331.000000	99.133702
3330.000000	99.130129
3329.000000	99.128184
3328.000000	99.126399
3327.000000	99.124522
3326.000000	99.123564
3325.000000	99.124138
3324.000000	99.124670
3323.000000	99.121790
3322.000000	99.113029
3321.000000	99.099189
3320.000000	99.084165
3319.000000	99.072596
3318.000000	99.067412
3317.000000	99.068778
3316.000000	99.074412
3315.000000	99.080616
3314.000000	99.083792
3313.000000	99.082401
3312.000000	99.078223
3311.000000	99.075289
3310.000000	99.076471
3309.000000	99.080548
3308.000000	99.082978
3307.000000	99.079990
3306.000000	99.071705
3305.000000	99.061229
3304.000000	99.051515
3303.000000	99.043695
3302.000000	99.037938
3301.000000	99.034721
3300.000000	99.034630
3299.000000	99.037265
3298.000000	99.040905
3297.000000	99.043376
3296.000000	99.043413
3295.000000	99.041482
3294.000000	99.039212
3293.000000	99.037564
3292.000000	99.035431
3291.000000	99.030687
3290.000000	99.023043
3289.000000	99.015255
3288.000000	99.010668
3287.000000	99.009772
3286.000000	99.010056
3285.000000	99.009314
3284.000000	99.008163
3283.000000	99.008891
3282.000000	99.012497
3281.000000	99.017572
3280.000000	99.021747
3279.000000	99.023353
3278.000000	99.021919
3277.000000	99.018076
3276.000000	99.013490
3275.000000	99.010357
3274.000000	99.010200
3273.000000	99.012940
3272.000000	99.017077
3271.000000	99.020694
3270.000000	99.022446
3269.000000	99.022157
3268.000000	99.020867
3267.000000	99.020104
3266.000000	99.020654
3265.000000	99.021992
3264.000000	99.022944
3263.000000	99.022789
3262.000000	99.021676
3261.000000	99.020297
3260.000000	99.019298
3259.000000	99.018790
3258.000000	99.018156
3257.000000	99.016592
3256.000000	99.014276
3255.000000	99.012887
3254.000000	99.014419
3253.000000	99.019353
3252.000000	99.026283
3251.000000	99.033210
3250.000000	99.038858
3249.000000	99.042950
3248.000000	99.046070
3247.000000	99.049580
3246.000000	99.054779
3245.000000	99.061203
3244.000000	99.065997
3243.000000	99.066042
3242.000000	99.061069
3241.000000	99.054334
3240.000000	99.049992
3239.000000	99.050013
3238.000000	99.053590
3237.000000	99.058761
3236.000000	99.063973
3235.000000	99.068351
3234.000000	99.071487
3233.000000	99.073468
3232.000000	99.074695
3231.000000	99.075182
3230.000000	99.074316
3229.000000	99.071875
3228.000000	99.069238
3227.000000	99.068779
3226.000000	99.071424
3225.000000	99.075012
3224.000000	99.075595
3223.000000	99.070762
3222.000000	99.061887
3221.000000	99.053278
3220.000000	99.049107
3219.000000	99.050514
3218.000000	99.055083
3217.000000	99.059183
3216.000000	99.061136
3215.000000	99.062552
3214.000000	99.066303
3213.000000	99.072895
3212.000000	99.079115
3211.000000	99.080640
3210.000000	99.076146
3209.000000	99.068594
3208.000000	99.062465
3207.000000	99.059827
3206.000000	99.059293
3205.000000	99.058660
3204.000000	99.057938
3203.000000	99.059469
3202.000000	99.065195
3201.000000	99.074478
3200.000000	99.084667
3199.000000	99.093242
3198.000000	99.098802
3197.000000	99.100642
3196.000000	99.098657
3195.000000	99.093996
3194.000000	99.088874
3193.000000	99.085138
3192.000000	99.083283
3191.000000	99.083079
3190.000000	99.084500
3189.000000	99.087455
3188.000000	99.091150
3187.000000	99.094518
3186.000000	99.097123
3185.000000	99.099110
3184.000000	99.100554
3183.000000	99.101585
3182.000000	99.102877
3181.000000	99.105100
3180.000000	99.107783
3179.000000	99.109412
3178.000000	99.108884
3177.000000	99.106398
3176.000000	99.102930
3175.000000	99.099613
3174.000000	99.097816
3173.000000	99.098955
3172.000000	99.103493
3171.000000	99.110367
3170.000000	99.117684
3169.000000	99.123630
3168.000000	99.126670
3167.000000	99.125766
3166.000000	99.121345
3165.000000	99.115852
3164.000000	99.112526
3163.000000	99.113306
3162.000000	99.117891
3161.000000	99.124528
3160.000000	99.131246
3159.000000	99.136539
3158.000000	99.139614
3157.000000	99.140381
3156.000000	99.139225
3155.000000	99.136731
3154.000000	99.133901
3153.000000	99.132569
3152.000000	99.134836
3151.000000	99.141265
3150.000000	99.149548
3149.000000	99.155789
3148.000000	99.157853
3147.000000	99.157284
3146.000000	99.157374
3145.000000	99.159447
3144.000000	99.161765
3143.000000	99.162071
3142.000000	99.160309
3141.000000	99.158373
3140.000000	99.158042
3139.000000	99.159862
3138.000000	99.163214
3137.000000	99.166471
3136.000000	99.167751
3135.000000	99.167027
3134.000000	99.167255
3133.000000	99.171802
3132.000000	99.180343
3131.000000	99.188741
3130.000000	99.193316
3129.000000	99.193840
3128.000000	99.192077
3127.000000	99.189445
3126.000000	99.187203
3125.000000	99.187168
3124.000000	99.190110
3123.000000	99.194107
3122.000000	99.196464
3121.000000	99.197171
3120.000000	99.198675
3119.000000	99.202121
3118.000000	99.205643
3117.000000	99.206823
3116.000000	99.205219
3115.000000	99.201667
3114.000000	99.196652
3113.000000	99.190805
3112.000000	99.186017
3111.000000	99.184321
3110.000000	99.185787
3109.000000	99.188807
3108.000000	99.192491
3107.000000	99.197376
3106.000000	99.203208
3105.000000	99.207435
3104.000000	99.207403
3103.000000	99.203957
3102.000000	99.201567
3101.000000	99.204114
3100.000000	99.210675
3099.000000	99.216015
3098.000000	99.215296
3097.000000	99.208348
3096.000000	99.199525
3095.000000	99.193557
3094.000000	99.191460
3093.000000	99.190371
3092.000000	99.187080
3091.000000	99.181244
3090.000000	99.175450
3089.000000	99.173055
3088.000000	99.176441
3087.000000	99.186080
3086.000000	99.199284
3085.000000	99.209746
3084.000000	99.210699
3083.000000	99.200851
3082.000000	99.186787
3081.000000	99.177739
3080.000000	99.177596
3079.000000	99.182875
3078.000000	99.188205
3077.000000	99.191843
3076.000000	99.195216
3075.000000	99.199142
3074.000000	99.202501
3073.000000	99.204119
3072.000000	99.204388
3071.000000	99.204628
3070.000000	99.205428
3069.000000	99.205839
3068.000000	99.203955
3067.000000	99.198570
3066.000000	99.190801
3065.000000	99.183984
3064.000000	99.181326
3063.000000	99.183344
3062.000000	99.187556
3061.000000	99.190558
3060.000000	99.190654
3059.000000	99.189149
3058.000000	99.189385
3057.000000	99.193929
3056.000000	99.202183
3055.000000	99.211143
3054.000000	99.218512
3053.000000	99.224188
3052.000000	99.228373
3051.000000	99.229743
3050.000000	99.226944
3049.000000	99.221400
3048.000000	99.216965
3047.000000	99.216466
3046.000000	99.219550
3045.000000	99.223846
3044.000000	99.227127
3043.000000	99.228263
3042.000000	99.227405
3041.000000	99.225899
3040.000000	99.225272
3039.000000	99.225819
3038.000000	99.226653
3037.000000	99.227254
3036.000000	99.228159
3035.000000	99.229795
3034.000000	99.231516
3033.000000	99.232356
3032.000000	99.232168
3031.000000	99.231611
3030.000000	99.231509
3029.000000	99.232413
3028.000000	99.234023
3027.000000	99.234627
3026.000000	99.232115
3025.000000	99.226452
3024.000000	99.220644
3023.000000	99.218206
3022.000000	99.219887
3021.000000	99.223553
3020.000000	99.226947
3019.000000	99.229576
3018.000000	99.231794
3017.000000	99.233062
3016.000000	99.231980
3015.000000	99.227975
3014.000000	99.222476
3013.000000	99.217917
3012.000000	99.215285
3011.000000	99.212870
3010.000000	99.208074
3009.000000	99.200605
3008.000000	99.193257
3007.000000	99.189202
3006.000000	99.189048
3005.000000	99.190955
3004.000000	99.193026
3003.000000	99.194711
3002.000000	99.196223
3001.000000	99.197740
3000.000000	99.199434
2999.000000	99.201482
2998.000000	99.203593
2997.000000	99.205046
2996.000000	99.205518
2995.000000	99.205474
2994.000000	99.205352
2993.000000	99.204691
2992.000000	99.202485
2991.000000	99.198093
2990.000000	99.191515
2989.000000	99.183180
2988.000000	99.174185
2987.000000	99.166528
2986.000000	99.162097
2985.000000	99.160769
2984.000000	99.159823
2983.000000	99.155819
2982.000000	99.147163
2981.000000	99.134857
2980.000000	99.121207
2979.000000	99.108340
2978.000000	99.097617
2977.000000	99.089497
2976.000000	99.083447
2975.000000	99.078328
2974.000000	99.073152
2973.000000	99.067193
2972.000000	99.059442
2971.000000	99.048816
2970.000000	99.035458
2969.000000	99.021142
2968.000000	99.007357
2967.000000	98.993200
2966.000000	98.976027
2965.000000	98.954335
2964.000000	98.929466
2963.000000	98.904601
2962.000000	98.882784
2961.000000	98.865662
2960.000000	98.853005
2959.000000	98.842865
2958.000000	98.833068
2957.000000	98.823216
2956.000000	98.815208
2955.000000	98.811464
2954.000000	98.812738
2953.000000	98.817484
2952.000000	98.822790
2951.000000	98.825984
2950.000000	98.825986
2949.000000	98.823572
2948.000000	98.819806
2947.000000	98.814013
2946.000000	98.803787
2945.000000	98.787371
2944.000000	98.765679
2943.000000	98.741546
2942.000000	98.717361
2941.000000	98.693499
2940.000000	98.668387
2939.000000	98.639369
2938.000000	98.603825
2937.000000	98.560558
2936.000000	98.510709
2935.000000	98.457488
2934.000000	98.404825
2933.000000	98.355606
2932.000000	98.310180
2931.000000	98.266037
2930.000000	98.219656
2929.000000	98.169626
2928.000000	98.118382
2927.000000	98.070679
2926.000000	98.030106
2925.000000	97.996710
2924.000000	97.967560
2923.000000	97.939697
2922.000000	97.913170
2921.000000	97.891617
2920.000000	97.879925
2919.000000	97.880983
2918.000000	97.894727
2917.000000	97.920065
2916.000000	97.957242
2915.000000	98.007988
2914.000000	98.072910
2913.000000	98.148391
2912.000000	98.225960
2911.000000	98.295910
2910.000000	98.352762
2909.000000	98.397892
2908.000000	98.436814
2907.000000	98.474000
2906.000000	98.510345
2905.000000	98.544177
2904.000000	98.573240
2903.000000	98.595869
2902.000000	98.612177
2901.000000	98.624834
2900.000000	98.637888
2899.000000	98.653896
2898.000000	98.672484
2897.000000	98.692038
2896.000000	98.711747
2895.000000	98.731300
2894.000000	98.749653
2893.000000	98.765519
2892.000000	98.779006
2891.000000	98.791760
2890.000000	98.805429
2889.000000	98.820681
2888.000000	98.837459
2887.000000	98.855076
2886.000000	98.871738
2885.000000	98.884895
2884.000000	98.893027
2883.000000	98.897054
2882.000000	98.899512
2881.000000	98.902226
2880.000000	98.904833
2879.000000	98.905609
2878.000000	98.903472
2877.000000	98.898794
2876.000000	98.892293
2875.000000	98.883813
2874.000000	98.873021
2873.000000	98.861104
2872.000000	98.850831
2871.000000	98.844504
2870.000000	98.842267
2869.000000	98.842556
2868.000000	98.843437
2867.000000	98.843003
2866.000000	98.839119
2865.000000	98.829744
2864.000000	98.813683
2863.000000	98.791046
2862.000000	98.763216
2861.000000	98.732239
2860.000000	98.699331
2859.000000	98.663361
2858.000000	98.621608
2857.000000	98.573073
2856.000000	98.520928
2855.000000	98.471019
2854.000000	98.428280
2853.000000	98.395049
2852.000000	98.372636
2851.000000	98.363671
2850.000000	98.372260
2849.000000	98.401769
2848.000000	98.451956
2847.000000	98.517845
2846.000000	98.591483
2845.000000	98.665217
2844.000000	98.733586
2843.000000	98.793305
2842.000000	98.842973
2841.000000	98.883399
2840.000000	98.917371
2839.000000	98.947715
2838.000000	98.975552
2837.000000	99.000762
2836.000000	99.023576
2835.000000	99.044844
2834.000000	99.064899
2833.000000	99.082858
2832.000000	99.097177
2831.000000	99.106783
2830.000000	99.112218
2829.000000	99.116245
2828.000000	99.122576
2827.000000	99.132821
2826.000000	99.144772
2825.000000	99.154566
2824.000000	99.160521
2823.000000	99.164125
2822.000000	99.167664
2821.000000	99.172064
2820.000000	99.177110
2819.000000	99.182502
2818.000000	99.188114
2817.000000	99.193925
2816.000000	99.200023
2815.000000	99.206126
2814.000000	99.211004
2813.000000	99.213333
2812.000000	99.213495
2811.000000	99.213664
2810.000000	99.215528
2809.000000	99.218565
2808.000000	99.221268
2807.000000	99.223438
2806.000000	99.226366
2805.000000	99.230905
2804.000000	99.236101
2803.000000	99.239950
2802.000000	99.241184
2801.000000	99.240271
2800.000000	99.238958
2799.000000	99.238953
2798.000000	99.240813
2797.000000	99.243816
2796.000000	99.246597
2795.000000	99.247973
2794.000000	99.247674
2793.000000	99.246835
2792.000000	99.247534
2791.000000	99.251078
2790.000000	99.256381
2789.000000	99.260470
2788.000000	99.260980
2787.000000	99.258154
2786.000000	99.254460
2785.000000	99.252599
2784.000000	99.253908
2783.000000	99.258207
2782.000000	99.264588
2781.000000	99.271989
2780.000000	99.278949
2779.000000	99.283253
2778.000000	99.282793
2777.000000	99.277474
2776.000000	99.269978
2775.000000	99.263922
2774.000000	99.261101
2773.000000	99.260846
2772.000000	99.261823
2771.000000	99.263766
2770.000000	99.267275
2769.000000	99.272415
2768.000000	99.278049
2767.000000	99.282694
2766.000000	99.286059
2765.000000	99.289440
2764.000000	99.294067
2763.000000	99.299106
2762.000000	99.302240
2761.000000	99.302657
2760.000000	99.302277
2759.000000	99.303071
2758.000000	99.304208
2757.000000	99.303368
2756.000000	99.300190
2755.000000	99.296542
2754.000000	99.293599
2753.000000	99.290868
2752.000000	99.288486
2751.000000	99.288195
2750.000000	99.290720
2749.000000	99.293832
2748.000000	99.294659
2747.000000	99.292997
2746.000000	99.290917
2745.000000	99.289957
2744.000000	99.290269
2743.000000	99.291926
2742.000000	99.295260
2741.000000	99.299760
2740.000000	99.303973
2739.000000	99.306823
2738.000000	99.308186
2737.000000	99.308118
2736.000000	99.306580
2735.000000	99.304196
2734.000000	99.302431
2733.000000	99.302511
2732.000000	99.304513
2731.000000	99.307531
2730.000000	99.310162
2729.000000	99.310991
2728.000000	99.309614
2727.000000	99.307444
2726.000000	99.306648
2725.000000	99.307745
2724.000000	99.308926
2723.000000	99.308291
2722.000000	99.306193
2721.000000	99.304678
2720.000000	99.304929
2719.000000	99.305927
2718.000000	99.305720
2717.000000	99.303738
2716.000000	99.301861
2715.000000	99.303162
2714.000000	99.309123
2713.000000	99.317741
2712.000000	99.324703
2711.000000	99.326918
2710.000000	99.324798
2709.000000	99.320987
2708.000000	99.317565
2707.000000	99.315218
2706.000000	99.314473
2705.000000	99.316182
2704.000000	99.320226
2703.000000	99.324787
2702.000000	99.327847
2701.000000	99.329057
2700.000000	99.329495
2699.000000	99.329870
2698.000000	99.329705
2697.000000	99.328207
2696.000000	99.325368
2695.000000	99.322165
2694.000000	99.320070
2693.000000	99.320166
2692.000000	99.322088
2691.000000	99.323889
2690.000000	99.323775
2689.000000	99.322205
2688.000000	99.321547
2687.000000	99.323323
2686.000000	99.326446
2685.000000	99.328644
2684.000000	99.329021
2683.000000	99.328572
2682.000000	99.328583
2681.000000	99.329356
2680.000000	99.330384
2679.000000	99.331088
2678.000000	99.331246
2677.000000	99.331106
2676.000000	99.331326
2675.000000	99.332674
2674.000000	99.335626
2673.000000	99.339945
2672.000000	99.344210
2671.000000	99.346018
2670.000000	99.343690
2669.000000	99.338336
2668.000000	99.333451
2667.000000	99.331686
2666.000000	99.332390
2665.000000	99.332886
2664.000000	99.331502
2663.000000	99.328567
2662.000000	99.325319
2661.000000	99.323159
2660.000000	99.323419
2659.000000	99.326129
2658.000000	99.329018
2657.000000	99.329412
2656.000000	99.327575
2655.000000	99.326589
2654.000000	99.328282
2653.000000	99.330917
2652.000000	99.331852
2651.000000	99.330825
2650.000000	99.329045
2649.000000	99.326488
2648.000000	99.322514
2647.000000	99.318776
2646.000000	99.318951
2645.000000	99.324619
2644.000000	99.332974
2643.000000	99.339792
2642.000000	99.343815
2641.000000	99.347241
2640.000000	99.352433
2639.000000	99.359139
2638.000000	99.364894
2637.000000	99.367365
2636.000000	99.366178
2635.000000	99.363047
2634.000000	99.360706
2633.000000	99.361448
2632.000000	99.365812
2631.000000	99.371801
2630.000000	99.375503
2629.000000	99.373693
2628.000000	99.366834
2627.000000	99.359322
2626.000000	99.355854
2625.000000	99.357216
2624.000000	99.360022
2623.000000	99.360698
2622.000000	99.359263
2621.000000	99.358860
2620.000000	99.362012
2619.000000	99.367994
2618.000000	99.373887
2617.000000	99.377499
2616.000000	99.378567
2615.000000	99.377586
2614.000000	99.374851
2613.000000	99.371400
2612.000000	99.369968
2611.000000	99.373308
2610.000000	99.381149
2609.000000	99.389745
2608.000000	99.394970
2607.000000	99.395553
2606.000000	99.393269
2605.000000	99.390989
2604.000000	99.391051
2603.000000	99.394346
2602.000000	99.399601
2601.000000	99.403681
2600.000000	99.403802
2599.000000	99.399997
2598.000000	99.395087
2597.000000	99.392020
2596.000000	99.391472
2595.000000	99.392058
2594.000000	99.392534
2593.000000	99.393589
2592.000000	99.397329
2591.000000	99.404730
2590.000000	99.413579
2589.000000	99.419458
2588.000000	99.419589
2587.000000	99.416003
2586.000000	99.414504
2585.000000	99.419961
2584.000000	99.431821
2583.000000	99.443743
2582.000000	99.448103
2581.000000	99.442107
2580.000000	99.430531
2579.000000	99.422289
2578.000000	99.423579
2577.000000	99.433694
2576.000000	99.446599
2575.000000	99.455649
2574.000000	99.456985
2573.000000	99.450286
2572.000000	99.438251
2571.000000	99.425527
2570.000000	99.416727
2569.000000	99.414051
2568.000000	99.416254
2567.000000	99.419860
2566.000000	99.421689
2565.000000	99.420917
2564.000000	99.419410
2563.000000	99.420129
2562.000000	99.424784
2561.000000	99.432438
2560.000000	99.440118
2559.000000	99.444874
2558.000000	99.445625
2557.000000	99.443479
2556.000000	99.440363
2555.000000	99.437160
2554.000000	99.433345
2553.000000	99.428820
2552.000000	99.425717
2551.000000	99.427275
2550.000000	99.434172
2549.000000	99.442480
2548.000000	99.446267
2547.000000	99.442692
2546.000000	99.434614
2545.000000	99.428318
2544.000000	99.428798
2543.000000	99.436510
2542.000000	99.447478
2541.000000	99.456069
2540.000000	99.458524
2539.000000	99.455177
2538.000000	99.449885
2537.000000	99.446826
2536.000000	99.447114
2535.000000	99.448404
2534.000000	99.447969
2533.000000	99.445955
2532.000000	99.445127
2531.000000	99.447423
2530.000000	99.451386
2529.000000	99.453223
2528.000000	99.450057
2527.000000	99.442205
2526.000000	99.433113
2525.000000	99.427413
2524.000000	99.428096
2523.000000	99.434355
2522.000000	99.442133
2521.000000	99.447432
2520.000000	99.449099
2519.000000	99.448236
2518.000000	99.445677
2517.000000	99.441162
2516.000000	99.435037
2515.000000	99.429497
2514.000000	99.427189
2513.000000	99.428703
2512.000000	99.431917
2511.000000	99.434030
2510.000000	99.434075
2509.000000	99.433359
2508.000000	99.433619
2507.000000	99.435232
2506.000000	99.437464
2505.000000	99.439731
2504.000000	99.441781
2503.000000	99.443071
2502.000000	99.443172
2501.000000	99.442812
2500.000000	99.443193
2499.000000	99.443937
2498.000000	99.443105
2497.000000	99.440096
2496.000000	99.437412
2495.000000	99.438679
2494.000000	99.445705
2493.000000	99.457726
2492.000000	99.471631
2491.000000	99.481875
2490.000000	99.482658
2489.000000	99.473411
2488.000000	99.461445
2487.000000	99.456046
2486.000000	99.459395
2485.000000	99.465370
2484.000000	99.467688
2483.000000	99.466649
2482.000000	99.466473
2481.000000	99.468264
2480.000000	99.468241
2479.000000	99.463071
2478.000000	99.455154
2477.000000	99.451178
2476.000000	99.455207
2475.000000	99.463616
2474.000000	99.468120
2473.000000	99.464622
2472.000000	99.458052
2471.000000	99.457250
2470.000000	99.465419
2469.000000	99.476971
2468.000000	99.483625
2467.000000	99.481967
2466.000000	99.474817
2465.000000	99.467031
2464.000000	99.460906
2463.000000	99.454870
2462.000000	99.445803
2461.000000	99.432910
2460.000000	99.419770
2459.000000	99.412251
2458.000000	99.414232
2457.000000	99.425114
2456.000000	99.440541
2455.000000	99.454717
2454.000000	99.463184
2453.000000	99.465559
2452.000000	99.465735
2451.000000	99.467751
2450.000000	99.470861
2449.000000	99.470280
2448.000000	99.463386
2447.000000	99.453677
2446.000000	99.447586
2445.000000	99.448563
2444.000000	99.455302
2443.000000	99.464381
2442.000000	99.472874
2441.000000	99.478634
2440.000000	99.479975
2439.000000	99.476456
2438.000000	99.469954
2437.000000	99.464274
2436.000000	99.462783
2435.000000	99.465800
2434.000000	99.470498
2433.000000	99.473686
2432.000000	99.474499
2431.000000	99.474217
2430.000000	99.474324
2429.000000	99.475478
2428.000000	99.477594
2427.000000	99.479750
2426.000000	99.480536
2425.000000	99.479728
2424.000000	99.479226
2423.000000	99.481073
2422.000000	99.484878
2421.000000	99.488515
2420.000000	99.490762
2419.000000	99.491502
2418.000000	99.489829
2417.000000	99.484520
2416.000000	99.476925
2415.000000	99.471060
2414.000000	99.469592
2413.000000	99.471181
2412.000000	99.472847
2411.000000	99.473678
2410.000000	99.475104
2409.000000	99.478503
2408.000000	99.483506
2407.000000	99.487926
2406.000000	99.488832
2405.000000	99.484771
2404.000000	99.477822
2403.000000	99.472546
2402.000000	99.472040
2401.000000	99.475627
2400.000000	99.480686
2399.000000	99.485522
2398.000000	99.489677
2397.000000	99.492720
2396.000000	99.494347
2395.000000	99.495310
2394.000000	99.497044
2393.000000	99.500257
2392.000000	99.504188
2391.000000	99.507105
2390.000000	99.507105
2389.000000	99.503217
2388.000000	99.496626
2387.000000	99.490308
2386.000000	99.487169
2385.000000	99.488292
2384.000000	99.493044
2383.000000	99.500462
2382.000000	99.509863
2381.000000	99.520918
2380.000000	99.532946
2379.000000	99.543626
2378.000000	99.548828
2377.000000	99.545159
2376.000000	99.533998
2375.000000	99.522336
2374.000000	99.518423
2373.000000	99.525225
2372.000000	99.537560
2371.000000	99.545582
2370.000000	99.542567
2369.000000	99.530884
2368.000000	99.519494
2367.000000	99.515280
2366.000000	99.517570
2365.000000	99.521769
2364.000000	99.525610
2363.000000	99.527562
2362.000000	99.525184
2361.000000	99.519212
2360.000000	99.511065
2359.000000	99.505993
2358.000000	99.509238
2357.000000	99.519486
2356.000000	99.530210
2355.000000	99.529179
2354.000000	99.515180
2353.000000	99.504226
2352.000000	99.514747
2351.000000	99.544813
2350.000000	99.570822
2349.000000	99.573677
2348.000000	99.550548
2347.000000	99.518578
2346.000000	99.500917
2345.000000	99.505038
2344.000000	99.517073
2343.000000	99.516532
2342.000000	99.504747
2341.000000	99.494830
2340.000000	99.490653
2339.000000	99.486702
2338.000000	99.481601
2337.000000	99.481329
2336.000000	99.490272
2335.000000	99.503386
2334.000000	99.511493
2333.000000	99.509316
2332.000000	99.499759
2331.000000	99.491534
2330.000000	99.488633
2329.000000	99.490872
2328.000000	99.489480
2327.000000	99.478689
2326.000000	99.460746
2325.000000	99.442944
2324.000000	99.432540
2323.000000	99.427876
2322.000000	99.426808
2321.000000	99.428924
2320.000000	99.436669
2319.000000	99.449109
2318.000000	99.459655
2317.000000	99.462971
2316.000000	99.458726
2315.000000	99.452542
2314.000000	99.448707
2313.000000	99.448128
2312.000000	99.449185
2311.000000	99.451558
2310.000000	99.455825
2309.000000	99.462604
2308.000000	99.471448
2307.000000	99.480175
2306.000000	99.485491
2305.000000	99.483842
2304.000000	99.475621
2303.000000	99.465371
2302.000000	99.459565
2301.000000	99.461839
2300.000000	99.469866
2299.000000	99.476709
2298.000000	99.474503
2297.000000	99.461603
2296.000000	99.444562
2295.000000	99.434280
2294.000000	99.436156
2293.000000	99.445432
2292.000000	99.451480
2291.000000	99.446690
2290.000000	99.432521
2289.000000	99.417877
2288.000000	99.412660
2287.000000	99.419885
2286.000000	99.434345
2285.000000	99.448275
2284.000000	99.458638
2283.000000	99.466427
2282.000000	99.471388
2281.000000	99.470901
2280.000000	99.465048
2279.000000	99.457757
2278.000000	99.451548
2277.000000	99.445166
2276.000000	99.438255
2275.000000	99.434643
2274.000000	99.437294
2273.000000	99.444390
2272.000000	99.453147
2271.000000	99.464298
2270.000000	99.478517
2269.000000	99.491834
2268.000000	99.499708
2267.000000	99.502786
2266.000000	99.503500
2265.000000	99.500155
2264.000000	99.490413
2263.000000	99.478680
2262.000000	99.471955
2261.000000	99.468882
2260.000000	99.461641
2259.000000	99.449927
2258.000000	99.446078
2257.000000	99.460750
2256.000000	99.488874
2255.000000	99.514478
2254.000000	99.526828
2253.000000	99.528150
2252.000000	99.527750
2251.000000	99.533180
2250.000000	99.545006
2249.000000	99.556318
2248.000000	99.557664
2247.000000	99.546143
2246.000000	99.529473
2245.000000	99.518546
2244.000000	99.516083
2243.000000	99.515632
2242.000000	99.512516
2241.000000	99.512250
2240.000000	99.525064
2239.000000	99.552216
2238.000000	99.580281
2237.000000	99.590850
2236.000000	99.576871
2235.000000	99.549409
2234.000000	99.528003
2233.000000	99.524323
2232.000000	99.534269
2231.000000	99.544542
2230.000000	99.545583
2229.000000	99.538233
2228.000000	99.530192
2227.000000	99.528437
2226.000000	99.534474
2225.000000	99.543978
2224.000000	99.549571
2223.000000	99.546505
2222.000000	99.538707
2221.000000	99.538393
2220.000000	99.555968
2219.000000	99.589458
2218.000000	99.626377
2217.000000	99.655350
2216.000000	99.672015
2215.000000	99.672926
2214.000000	99.650943
2213.000000	99.604103
2212.000000	99.546609
2211.000000	99.502945
2210.000000	99.488835
2209.000000	99.500523
2208.000000	99.521673
2207.000000	99.537786
2206.000000	99.544223
2205.000000	99.544703
2204.000000	99.545015
2203.000000	99.546787
2202.000000	99.546233
2201.000000	99.539289
2200.000000	99.526772
2199.000000	99.513570
2198.000000	99.505098
2197.000000	99.506250
2196.000000	99.519278
2195.000000	99.538551
2194.000000	99.551706
2193.000000	99.552416
2192.000000	99.549588
2191.000000	99.556596
2190.000000	99.574066
2189.000000	99.591745
2188.000000	99.605002
2187.000000	99.617500
2186.000000	99.625507
2185.000000	99.613593
2184.000000	99.575061
2183.000000	99.527995
2182.000000	99.501077
2181.000000	99.507402
2180.000000	99.538387
2179.000000	99.578292
2178.000000	99.615869
2177.000000	99.643808
2176.000000	99.656287
2175.000000	99.650049
2174.000000	99.626774
2173.000000	99.595870
2172.000000	99.572825
2171.000000	99.567245
2170.000000	99.571030
2169.000000	99.566042
2168.000000	99.548813
2167.000000	99.539885
2166.000000	99.559132
2165.000000	99.595419
2164.000000	99.611753
2163.000000	99.585556
2162.000000	99.537096
2161.000000	99.515880
2160.000000	99.559933
2159.000000	99.660333
2158.000000	99.761666
2157.000000	99.805789
2156.000000	99.779087
2155.000000	99.713705
2154.000000	99.653984
2153.000000	99.630413
2152.000000	99.651418
2151.000000	99.704202
2150.000000	99.761216
2149.000000	99.794598
2148.000000	99.795864
2147.000000	99.782464
2146.000000	99.779733
2145.000000	99.795335
2144.000000	99.813886
2143.000000	99.817097
2142.000000	99.804700
2141.000000	99.791904
2140.000000	99.786886
2139.000000	99.776509
2138.000000	99.740968
2137.000000	99.681439
2136.000000	99.625983
2135.000000	99.603680
2134.000000	99.617252
2133.000000	99.644034
2132.000000	99.657772
2131.000000	99.646312
2130.000000	99.614731
2129.000000	99.579767
2128.000000	99.558797
2127.000000	99.556696
2126.000000	99.563264
2125.000000	99.566833
2124.000000	99.567971
2123.000000	99.574740
2122.000000	99.587039
2121.000000	99.593068
2120.000000	99.582252
2119.000000	99.555736
2118.000000	99.523270
2117.000000	99.496236
2116.000000	99.484627
2115.000000	99.492770
2114.000000	99.512789
2113.000000	99.526924
2112.000000	99.523147
2111.000000	99.507763
2110.000000	99.498574
2109.000000	99.507126
2108.000000	99.530645
2107.000000	99.558798
2106.000000	99.582479
2105.000000	99.595310
2104.000000	99.592771
2103.000000	99.574779
2102.000000	99.548360
2101.000000	99.524353
2100.000000	99.508901
2099.000000	99.499012
2098.000000	99.489191
2097.000000	99.481819
2096.000000	99.486032
2095.000000	99.504473
2094.000000	99.526725
2093.000000	99.541138
2092.000000	99.549817
2091.000000	99.564686
2090.000000	99.589557
2089.000000	99.612325
2088.000000	99.616985
2087.000000	99.600043
2086.000000	99.572974
2085.000000	99.551742
2084.000000	99.544297
2083.000000	99.545178
2082.000000	99.542811
2081.000000	99.533994
2080.000000	99.529078
2079.000000	99.538920
2078.000000	99.559407
2077.000000	99.575944
2076.000000	99.581687
2075.000000	99.582239
2074.000000	99.581813
2073.000000	99.576051
2072.000000	99.563953
2071.000000	99.556862
2070.000000	99.566789
2069.000000	99.590213
2068.000000	99.610963
2067.000000	99.617560
2066.000000	99.611940
2065.000000	99.602730
2064.000000	99.594586
2063.000000	99.585222
2062.000000	99.572107
2061.000000	99.560176
2060.000000	99.558334
2059.000000	99.565134
2058.000000	99.564940
2057.000000	99.548619
2056.000000	99.534273
2055.000000	99.552773
2054.000000	99.609546
2053.000000	99.674447
2052.000000	99.715390
2051.000000	99.727955
2050.000000	99.724431
2049.000000	99.710039
2048.000000	99.685016
2047.000000	99.658670
2046.000000	99.641576
2045.000000	99.629072
2044.000000	99.611182
2043.000000	99.595324
2042.000000	99.601271
2041.000000	99.632590
2040.000000	99.668366
2039.000000	99.688139
2038.000000	99.690379
2037.000000	99.682335
2036.000000	99.666106
2035.000000	99.640869
2034.000000	99.611935
2033.000000	99.591505
2032.000000	99.590760
2031.000000	99.612255
2030.000000	99.648143
2029.000000	99.686094
2028.000000	99.720222
2027.000000	99.753099
2026.000000	99.781919
2025.000000	99.789765
2024.000000	99.761608
2023.000000	99.705292
2022.000000	99.647357
2021.000000	99.610747
2020.000000	99.602838
2019.000000	99.622380
2018.000000	99.666528
2017.000000	99.722697
2016.000000	99.761760
2015.000000	99.753856
2014.000000	99.694209
2013.000000	99.614055
2012.000000	99.563168
2011.000000	99.572177
2010.000000	99.631353
2009.000000	99.706117
2008.000000	99.768377
2007.000000	99.810541
2006.000000	99.834622
2005.000000	99.841521
2004.000000	99.832869
2003.000000	99.811613
2002.000000	99.779738
2001.000000	99.745183
2000.000000	99.727913
1999.000000	99.744191
1998.000000	99.781415
1997.000000	99.800479
1996.000000	99.771554
1995.000000	99.699984
1994.000000	99.614893
1993.000000	99.546895
1992.000000	99.517276
1991.000000	99.530509
1990.000000	99.567890
1989.000000	99.596033
1988.000000	99.593194
1987.000000	99.569290
1986.000000	99.555058
1985.000000	99.571497
1984.000000	99.612521
1983.000000	99.654675
1982.000000	99.678673
1981.000000	99.682791
1980.000000	99.680469
1979.000000	99.684681
1978.000000	99.693975
1977.000000	99.698897
1976.000000	99.701521
1975.000000	99.715766
1974.000000	99.745637
1973.000000	99.776706
1972.000000	99.793826
1971.000000	99.796482
1970.000000	99.791941
1969.000000	99.784694
1968.000000	99.777751
1967.000000	99.772611
1966.000000	99.761406
1965.000000	99.730448
1964.000000	99.679930
1963.000000	99.631968
1962.000000	99.613509
1961.000000	99.632474
1960.000000	99.670624
1959.000000	99.698403
1958.000000	99.695969
1957.000000	99.667025
1956.000000	99.638153
1955.000000	99.637944
1954.000000	99.671225
1953.000000	99.717001
1952.000000	99.752604
1951.000000	99.772416
1950.000000	99.780003
1949.000000	99.773947
1948.000000	99.751796
1947.000000	99.721479
1946.000000	99.697666
1945.000000	99.687991
1944.000000	99.689832
1943.000000	99.698375
1942.000000	99.710350
1941.000000	99.720610
1940.000000	99.723499
1939.000000	99.719138
1938.000000	99.713965
1937.000000	99.714399
1936.000000	99.720736
1935.000000	99.727271
1934.000000	99.727526
1933.000000	99.719339
1932.000000	99.706539
1931.000000	99.695999
1930.000000	99.692246
1929.000000	99.694760
1928.000000	99.700394
1927.000000	99.707425
1926.000000	99.716043
1925.000000	99.724760
1924.000000	99.727661
1923.000000	99.717760
1922.000000	99.696125
1921.000000	99.674987
1920.000000	99.668031
1919.000000	99.678935
1918.000000	99.696579
1917.000000	99.703960
1916.000000	99.695955
1915.000000	99.680692
1914.000000	99.667578
1913.000000	99.662996
1912.000000	99.671034
1911.000000	99.690538
1910.000000	99.711147
1909.000000	99.718715
1908.000000	99.709782
1907.000000	99.695585
1906.000000	99.689826
1905.000000	99.697659
1904.000000	99.715241
1903.000000	99.733515
1902.000000	99.740777
1901.000000	99.728480
1900.000000	99.699903
1899.000000	99.668824
1898.000000	99.647150
1897.000000	99.637378
1896.000000	99.637479
1895.000000	99.647684
1894.000000	99.667282
1893.000000	99.688861
1892.000000	99.702998
1891.000000	99.706360
1890.000000	99.701921
1889.000000	99.694377
1888.000000	99.687345
1887.000000	99.683379
1886.000000	99.683951
1885.000000	99.688291
1884.000000	99.693976
1883.000000	99.700135
1882.000000	99.708707
1881.000000	99.721177
1880.000000	99.734875
1879.000000	99.743486
1878.000000	99.742078
1877.000000	99.732431
1876.000000	99.722568
1875.000000	99.719372
1874.000000	99.722172
1873.000000	99.724918
1872.000000	99.723662
1871.000000	99.719864
1870.000000	99.717495
1869.000000	99.719985
1868.000000	99.729226
1867.000000	99.742705
1866.000000	99.751916
1865.000000	99.749171
1864.000000	99.736706
1863.000000	99.725995
1862.000000	99.726408
1861.000000	99.736212
1860.000000	99.746489
1859.000000	99.751503
1858.000000	99.752056
1857.000000	99.751400
1856.000000	99.752211
1855.000000	99.755542
1854.000000	99.758988
1853.000000	99.757625
1852.000000	99.750014
1851.000000	99.741205
1850.000000	99.737436
1849.000000	99.739188
1848.000000	99.740911
1847.000000	99.737850
1846.000000	99.731303
1845.000000	99.728232
1844.000000	99.734467
1843.000000	99.746873
1842.000000	99.757056
1841.000000	99.760139
1840.000000	99.756222
1839.000000	99.747976
1838.000000	99.738789
1837.000000	99.731836
1836.000000	99.729651
1835.000000	99.732651
1834.000000	99.738413
1833.000000	99.744633
1832.000000	99.752061
1831.000000	99.762152
1830.000000	99.771916
1829.000000	99.777122
1828.000000	99.778958
1827.000000	99.780013
1826.000000	99.778560
1825.000000	99.770536
1824.000000	99.756360
1823.000000	99.742125
1822.000000	99.733352
1821.000000	99.733099
1820.000000	99.742689
1819.000000	99.759168
1818.000000	99.774704
1817.000000	99.781938
1816.000000	99.780710
1815.000000	99.776606
1814.000000	99.773517
1813.000000	99.772156
1812.000000	99.773654
1811.000000	99.778930
1810.000000	99.783988
1809.000000	99.781805
1808.000000	99.771954
1807.000000	99.762833
1806.000000	99.761723
1805.000000	99.766505
1804.000000	99.769502
1803.000000	99.766443
1802.000000	99.758903
1801.000000	99.750566
1800.000000	99.743760
1799.000000	99.739355
1798.000000	99.737880
1797.000000	99.739822
1796.000000	99.745738
1795.000000	99.754854
1794.000000	99.763559
1793.000000	99.766656
1792.000000	99.762583
1791.000000	99.757520
1790.000000	99.757038
1789.000000	99.759291
1788.000000	99.761999
1787.000000	99.767403
1786.000000	99.777924
1785.000000	99.789570
1784.000000	99.794913
1783.000000	99.791749
1782.000000	99.783232
1781.000000	99.773562
1780.000000	99.766923
1779.000000	99.766295
1778.000000	99.771392
1777.000000	99.780087
1776.000000	99.791562
1775.000000	99.804936
1774.000000	99.815839
1773.000000	99.815984
1772.000000	99.801099
1771.000000	99.781488
1770.000000	99.770292
1769.000000	99.768335
1768.000000	99.770885
1767.000000	99.775361
1766.000000	99.780298
1765.000000	99.782988
1764.000000	99.780950
1763.000000	99.775030
1762.000000	99.768963
1761.000000	99.765650
1760.000000	99.764257
1759.000000	99.761158
1758.000000	99.752732
1757.000000	99.739068
1756.000000	99.726864
1755.000000	99.722609
1754.000000	99.724239
1753.000000	99.724074
1752.000000	99.716788
1751.000000	99.703083
1750.000000	99.686504
1749.000000	99.669522
1748.000000	99.654905
1747.000000	99.644352
1746.000000	99.633928
1745.000000	99.617861
1744.000000	99.597559
1743.000000	99.582220
1742.000000	99.577536
1741.000000	99.579168
1740.000000	99.581066
1739.000000	99.584491
1738.000000	99.592907
1737.000000	99.603895
1736.000000	99.610694
1735.000000	99.612108
1734.000000	99.613167
1733.000000	99.615798
1732.000000	99.618788
1731.000000	99.622951
1730.000000	99.629318
1729.000000	99.635810
1728.000000	99.641216
1727.000000	99.646347
1726.000000	99.651375
1725.000000	99.653876
1724.000000	99.651416
1723.000000	99.645567
1722.000000	99.640377
1721.000000	99.637561
1720.000000	99.636117
1719.000000	99.633396
1718.000000	99.623563
1717.000000	99.601684
1716.000000	99.570353
1715.000000	99.538280
1714.000000	99.514548
1713.000000	99.501798
1712.000000	99.495808
1711.000000	99.491345
1710.000000	99.485591
1709.000000	99.478355
1708.000000	99.472019
1707.000000	99.470399
1706.000000	99.474561
1705.000000	99.479948
1704.000000	99.481759
1703.000000	99.478400
1702.000000	99.467875
1701.000000	99.455601
1700.000000	99.449758
1699.000000	99.449633
1698.000000	99.448554
1697.000000	99.432949
1696.000000	99.399130
1695.000000	99.366092
1694.000000	99.346772
1693.000000	99.334562
1692.000000	99.321714
1691.000000	99.306182
1690.000000	99.291287
1689.000000	99.281859
1688.000000	99.279984
1687.000000	99.279874
1686.000000	99.268729
1685.000000	99.232781
1684.000000	99.175357
1683.000000	99.129407
1682.000000	99.107577
1681.000000	99.089800
1680.000000	99.064644
1679.000000	99.034094
1678.000000	99.003582
1677.000000	98.971662
1676.000000	98.937095
1675.000000	98.905772
1674.000000	98.882347
1673.000000	98.861369
1672.000000	98.834504
1671.000000	98.798906
1670.000000	98.756140
1669.000000	98.710576
1668.000000	98.669288
1667.000000	98.636139
1666.000000	98.607592
1665.000000	98.577065
1664.000000	98.541393
1663.000000	98.503968
1662.000000	98.470099
1661.000000	98.439929
1660.000000	98.410846
1659.000000	98.383131
1658.000000	98.359901
1657.000000	98.342762
1656.000000	98.330014
1655.000000	98.316247
1654.000000	98.296625
1653.000000	98.270373
1652.000000	98.247168
1651.000000	98.230571
1650.000000	98.215879
1649.000000	98.204106
1648.000000	98.191003
1647.000000	98.177219
1646.000000	98.169446
1645.000000	98.166052
1644.000000	98.159088
1643.000000	98.150010
1642.000000	98.144078
1641.000000	98.143995
1640.000000	98.148234
1639.000000	98.154100
1638.000000	98.159136
1637.000000	98.161532
1636.000000	98.161146
1635.000000	98.160516
1634.000000	98.161186
1633.000000	98.161748
1632.000000	98.162118
1631.000000	98.163944
1630.000000	98.169409
1629.000000	98.178983
1628.000000	98.191688
1627.000000	98.206592
1626.000000	98.222709
1625.000000	98.239350
1624.000000	98.258589
1623.000000	98.283357
1622.000000	98.312222
1621.000000	98.341155
1620.000000	98.369977
1619.000000	98.400922
1618.000000	98.434775
1617.000000	98.469375
1616.000000	98.499410
1615.000000	98.522491
1614.000000	98.541502
1613.000000	98.559332
1612.000000	98.577375
1611.000000	98.597770
1610.000000	98.621698
1609.000000	98.647344
1608.000000	98.671890
1607.000000	98.694119
1606.000000	98.713943
1605.000000	98.732021
1604.000000	98.749528
1603.000000	98.766426
1602.000000	98.781061
1601.000000	98.792573
1600.000000	98.802895
1599.000000	98.814884
1598.000000	98.829051
1597.000000	98.843253
1596.000000	98.855029
1595.000000	98.863689
1594.000000	98.870369
1593.000000	98.876515
1592.000000	98.882753
1591.000000	98.888928
1590.000000	98.894353
1589.000000	98.897938
1588.000000	98.898026
1587.000000	98.892489
1586.000000	98.880077
1585.000000	98.862031
1584.000000	98.841518
1583.000000	98.820294
1582.000000	98.798038
1581.000000	98.776374
1580.000000	98.759889
1579.000000	98.751563
1578.000000	98.748480
1577.000000	98.744116
1576.000000	98.735060
1575.000000	98.723183
1574.000000	98.711243
1573.000000	98.701232
1572.000000	98.693961
1571.000000	98.690387
1570.000000	98.691113
1569.000000	98.692501
1568.000000	98.692324
1567.000000	98.690762
1566.000000	98.687602
1565.000000	98.682434
1564.000000	98.675899
1563.000000	98.668058
1562.000000	98.657230
1561.000000	98.639142
1560.000000	98.620060
1559.000000	98.585295
1558.000000	98.536857
1557.000000	98.507928
1556.000000	98.491890
1555.000000	98.475752
1554.000000	98.452902
1553.000000	98.425909
1552.000000	98.397710
1551.000000	98.369618
1550.000000	98.342624
1549.000000	98.318406
1548.000000	98.296246
1547.000000	98.272882
1546.000000	98.247262
1545.000000	98.221914
1544.000000	98.200068
1543.000000	98.184489
1542.000000	98.177302
1541.000000	98.176007
1540.000000	98.171448
1539.000000	98.165057
1538.000000	98.164462
1537.000000	98.169217
1536.000000	98.181012
1535.000000	98.204535
1534.000000	98.244244
1533.000000	98.289941
1532.000000	98.324999
1531.000000	98.348369
1530.000000	98.367840
1529.000000	98.388037
1528.000000	98.410045
1527.000000	98.434033
1526.000000	98.461329
1525.000000	98.491069
1524.000000	98.520190
1523.000000	98.547791
1522.000000	98.575701
1521.000000	98.601752
1520.000000	98.619368
1519.000000	98.627895
1518.000000	98.630864
1517.000000	98.629491
1516.000000	98.627952
1515.000000	98.632582
1514.000000	98.643820
1513.000000	98.658216
1512.000000	98.674276
1511.000000	98.691664
1510.000000	98.711810
1509.000000	98.737173
1508.000000	98.773726
1507.000000	98.817961
1506.000000	98.848743
1505.000000	98.857594
1504.000000	98.855606
1503.000000	98.854577
1502.000000	98.858134
1501.000000	98.866070
1500.000000	98.876193
1499.000000	98.888767
1498.000000	98.902716
1497.000000	98.914354
1496.000000	98.919974
1495.000000	98.920433
1494.000000	98.918065
1493.000000	98.913770
1492.000000	98.909915
1491.000000	98.911912
1490.000000	98.920086
1489.000000	98.926071
1488.000000	98.924996
1487.000000	98.920946
1486.000000	98.917203
1485.000000	98.911123
1484.000000	98.900292
1483.000000	98.885191
1482.000000	98.865947
1481.000000	98.841054
1480.000000	98.811115
1479.000000	98.779862
1478.000000	98.750624
1477.000000	98.724626
1476.000000	98.700746
1475.000000	98.675245
1474.000000	98.641480
1473.000000	98.595589
1472.000000	98.547339
1471.000000	98.509067
1470.000000	98.476841
1469.000000	98.440898
1468.000000	98.400045
1467.000000	98.360895
1466.000000	98.330740
1465.000000	98.311565
1464.000000	98.301114
1463.000000	98.295324
1462.000000	98.289225
1461.000000	98.278877
1460.000000	98.263743
1459.000000	98.245145
1458.000000	98.223982
1457.000000	98.202926
1456.000000	98.186510
1455.000000	98.173568
1454.000000	98.159991
1453.000000	98.145668
1452.000000	98.130706
1451.000000	98.114865
1450.000000	98.097280
1449.000000	98.079134
1448.000000	98.064504
1447.000000	98.055917
1446.000000	98.049535
1445.000000	98.040536
1444.000000	98.029266
1443.000000	98.019412
1442.000000	98.012459
1441.000000	98.005207
1440.000000	97.993400
1439.000000	97.975840
1438.000000	97.956829
1437.000000	97.944895
1436.000000	97.942692
1435.000000	97.942621
1434.000000	97.938033
1433.000000	97.929581
1432.000000	97.922201
1431.000000	97.920638
1430.000000	97.924403
1429.000000	97.928456
1428.000000	97.928367
1427.000000	97.922838
1426.000000	97.913510
1425.000000	97.904779
1424.000000	97.900015
1423.000000	97.895438
1422.000000	97.883102
1421.000000	97.860397
1420.000000	97.836354
1419.000000	97.824768
1418.000000	97.826848
1417.000000	97.833120
1416.000000	97.837694
1415.000000	97.838705
1414.000000	97.835239
1413.000000	97.830033
1412.000000	97.828823
1411.000000	97.833567
1410.000000	97.838330
1409.000000	97.836745
1408.000000	97.830381
1407.000000	97.826742
1406.000000	97.832190
1405.000000	97.849004
1404.000000	97.874644
1403.000000	97.901119
1402.000000	97.920861
1401.000000	97.934503
1400.000000	97.949967
1399.000000	97.970866
1398.000000	97.989567
1397.000000	97.999096
1396.000000	98.004023
1395.000000	98.013419
1394.000000	98.027951
1393.000000	98.041969
1392.000000	98.054240
1391.000000	98.067295
1390.000000	98.081301
1389.000000	98.094314
1388.000000	98.107405
1387.000000	98.125162
1386.000000	98.148309
1385.000000	98.171575
1384.000000	98.190405
1383.000000	98.204198
1382.000000	98.214413
1381.000000	98.223146
1380.000000	98.233027
1379.000000	98.245954
1378.000000	98.260948
1377.000000	98.275800
1376.000000	98.291229
1375.000000	98.310580
1374.000000	98.334269
1373.000000	98.358066
1372.000000	98.378409
1371.000000	98.395837
1370.000000	98.413023
1369.000000	98.432165
1368.000000	98.453512
1367.000000	98.474839
1366.000000	98.493577
1365.000000	98.509998
1364.000000	98.527382
1363.000000	98.548340
1362.000000	98.571848
1361.000000	98.595336
1360.000000	98.617950
1359.000000	98.639249
1358.000000	98.656990
1357.000000	98.668985
1356.000000	98.676622
1355.000000	98.684113
1354.000000	98.693604
1353.000000	98.703086
1352.000000	98.710341
1351.000000	98.716875
1350.000000	98.725674
1349.000000	98.736412
1348.000000	98.745056
1347.000000	98.748110
1346.000000	98.745602
1345.000000	98.740017
1344.000000	98.734279
1343.000000	98.730793
1342.000000	98.730950
1341.000000	98.734126
1340.000000	98.737577
1339.000000	98.738965
1338.000000	98.738446
1337.000000	98.737137
1336.000000	98.735596
1335.000000	98.734878
1334.000000	98.736910
1333.000000	98.742149
1332.000000	98.747861
1331.000000	98.750667
1330.000000	98.750614
1329.000000	98.751024
1328.000000	98.754057
1327.000000	98.758281
1326.000000	98.761080
1325.000000	98.761990
1324.000000	98.762843
1323.000000	98.765146
1322.000000	98.768528
1321.000000	98.771608
1320.000000	98.773863
1319.000000	98.776820
1318.000000	98.783477
1317.000000	98.795630
1316.000000	98.811760
1315.000000	98.828259
1314.000000	98.842752
1313.000000	98.855674
1312.000000	98.868128
1311.000000	98.879354
1310.000000	98.887821
1309.000000	98.894220
1308.000000	98.901472
1307.000000	98.911512
1306.000000	98.922996
1305.000000	98.932695
1304.000000	98.938718
1303.000000	98.941771
1302.000000	98.944133
1301.000000	98.948006
1300.000000	98.954587
1299.000000	98.964000
1298.000000	98.975536
1297.000000	98.987704
1296.000000	98.998318
1295.000000	99.005330
1294.000000	99.008328
1293.000000	99.009216
1292.000000	99.010943
1291.000000	99.015173
1290.000000	99.020861
1289.000000	99.025105
1288.000000	99.025437
1287.000000	99.021474
1286.000000	99.014654
1285.000000	99.006862
1284.000000	98.999957
1283.000000	98.996119
1282.000000	98.997111
1281.000000	99.002644
1280.000000	99.010616
1279.000000	99.019461
1278.000000	99.028835
1277.000000	99.037061
1276.000000	99.039682
1275.000000	99.033325
1274.000000	99.020802
1273.000000	99.010080
1272.000000	99.007453
1271.000000	99.012750
1270.000000	99.021236
1269.000000	99.028307
1268.000000	99.031511
1267.000000	99.030150
1266.000000	99.025168
1265.000000	99.018818
1264.000000	99.012913
1263.000000	99.007707
1262.000000	99.003368
1261.000000	99.001577
1260.000000	99.004072
1259.000000	99.009786
1258.000000	99.014725
1257.000000	99.015070
1256.000000	99.009824
1255.000000	99.000897
1254.000000	98.991514
1253.000000	98.984121
1252.000000	98.978883
1251.000000	98.974138
1250.000000	98.968644
1249.000000	98.963382
1248.000000	98.960724
1247.000000	98.961610
1246.000000	98.963792
1245.000000	98.963063
1244.000000	98.956404
1243.000000	98.944528
1242.000000	98.931670
1241.000000	98.922426
1240.000000	98.918420
1239.000000	98.918005
1238.000000	98.919075
1237.000000	98.921553
1236.000000	98.926439
1235.000000	98.933043
1234.000000	98.938593
1233.000000	98.941001
1232.000000	98.941273
1231.000000	98.942482
1230.000000	98.946788
1229.000000	98.953992
1228.000000	98.962703
1227.000000	98.972206
1226.000000	98.982773
1225.000000	98.994499
1224.000000	99.006692
1223.000000	99.018913
1222.000000	99.032198
1221.000000	99.048032
1220.000000	99.065849
1219.000000	99.082733
1218.000000	99.096475
1217.000000	99.107719
1216.000000	99.117481
1215.000000	99.123637
1214.000000	99.122493
1213.000000	99.114579
1212.000000	99.106395
1211.000000	99.104342
1210.000000	99.107797
1209.000000	99.110237
1208.000000	99.107057
1207.000000	99.099818
1206.000000	99.092333
1205.000000	99.085143
1204.000000	99.076242
1203.000000	99.065942
1202.000000	99.057739
1201.000000	99.053960
1200.000000	99.053206
1199.000000	99.053418
1198.000000	99.055116
1197.000000	99.059478
1196.000000	99.064571
1195.000000	99.066242
1194.000000	99.062960
1193.000000	99.057711
1192.000000	99.054619
1191.000000	99.055225
1190.000000	99.058702
1189.000000	99.064421
1188.000000	99.073046
1187.000000	99.085423
1186.000000	99.101137
1185.000000	99.117862
1184.000000	99.131766
1183.000000	99.139199
1182.000000	99.139083
1181.000000	99.133865
1180.000000	99.127760
1179.000000	99.123643
1178.000000	99.121254
1177.000000	99.117999
1176.000000	99.111128
1175.000000	99.099538
1174.000000	99.083811
1173.000000	99.065110
1172.000000	99.045083
1171.000000	99.026823
1170.000000	99.014015
1169.000000	99.007395
1168.000000	99.002721
1167.000000	98.994001
1166.000000	98.979151
1165.000000	98.961784
1164.000000	98.947536
1163.000000	98.939230
1162.000000	98.934874
1161.000000	98.929501
1160.000000	98.919587
1159.000000	98.906922
1158.000000	98.897775
1157.000000	98.896800
1156.000000	98.902269
1155.000000	98.908287
1154.000000	98.910781
1153.000000	98.909651
1152.000000	98.906114
1151.000000	98.901169
1150.000000	98.896888
1149.000000	98.895819
1148.000000	98.897612
1147.000000	98.898829
1146.000000	98.897945
1145.000000	98.898466
1144.000000	98.904960
1143.000000	98.917640
1142.000000	98.932682
1141.000000	98.946382
1140.000000	98.956637
1139.000000	98.961966
1138.000000	98.962586
1137.000000	98.962264
1136.000000	98.965900
1135.000000	98.974048
1134.000000	98.981756
1133.000000	98.983770
1132.000000	98.979715
1131.000000	98.973385
1130.000000	98.968136
1129.000000	98.963987
1128.000000	98.958415
1127.000000	98.949081
1126.000000	98.935813
1125.000000	98.920581
1124.000000	98.906059
1123.000000	98.894213
1122.000000	98.885552
1121.000000	98.878750
1120.000000	98.870831
1119.000000	98.859008
1118.000000	98.843532
1117.000000	98.828246
1116.000000	98.817037
1115.000000	98.809470
1114.000000	98.800599
1113.000000	98.785523
1112.000000	98.764099
1111.000000	98.741416
1110.000000	98.724007
1109.000000	98.714896
1108.000000	98.711222
1107.000000	98.706429
1106.000000	98.695921
1105.000000	98.681397
1104.000000	98.668963
1103.000000	98.662231
1102.000000	98.657496
1101.000000	98.646965
1100.000000	98.626923
1099.000000	98.602018
1098.000000	98.581444
1097.000000	98.571035
1096.000000	98.569746
1095.000000	98.572501
1094.000000	98.574652
1093.000000	98.573776
1092.000000	98.569655
1091.000000	98.564508
1090.000000	98.562401
1089.000000	98.565877
1088.000000	98.572689
1087.000000	98.577184
1086.000000	98.575233
1085.000000	98.566822
1084.000000	98.554411
1083.000000	98.541312
1082.000000	98.532154
1081.000000	98.531613
1080.000000	98.540056
1079.000000	98.551748
1078.000000	98.559875
1077.000000	98.562945
1076.000000	98.564627
1075.000000	98.568781
1074.000000	98.576709
1073.000000	98.587761
1072.000000	98.599104
1071.000000	98.605160
1070.000000	98.601031
1069.000000	98.588285
1068.000000	98.575157
1067.000000	98.569400
1066.000000	98.571780
1065.000000	98.577053
1064.000000	98.579869
1063.000000	98.578671
1062.000000	98.575357
1061.000000	98.572842
1060.000000	98.572403
1059.000000	98.572037
1058.000000	98.567488
1057.000000	98.555653
1056.000000	98.537489
1055.000000	98.517561
1054.000000	98.500682
1053.000000	98.488807
1052.000000	98.480638
1051.000000	98.473704
1050.000000	98.466108
1049.000000	98.456083
1048.000000	98.441327
1047.000000	98.421099
1046.000000	98.399179
1045.000000	98.382112
1044.000000	98.372685
1043.000000	98.366182
1042.000000	98.354491
1041.000000	98.333633
1040.000000	98.306166
1039.000000	98.277653
1038.000000	98.252960
1037.000000	98.234937
1036.000000	98.223381
1035.000000	98.214323
1034.000000	98.202706
1033.000000	98.187346
1032.000000	98.172358
1031.000000	98.162970
1030.000000	98.160890
1029.000000	98.164320
1028.000000	98.170906
1027.000000	98.179862
1026.000000	98.191993
1025.000000	98.208094
1024.000000	98.226750
1023.000000	98.243776
1022.000000	98.255524
1021.000000	98.262839
1020.000000	98.270160
1019.000000	98.280760
1018.000000	98.294085
1017.000000	98.307258
1016.000000	98.316852
1015.000000	98.319630
1014.000000	98.314672
1013.000000	98.306040
1012.000000	98.301017
1011.000000	98.304066
1010.000000	98.313223
1009.000000	98.322660
1008.000000	98.327963
1007.000000	98.329149
1006.000000	98.330500
1005.000000	98.337586
1004.000000	98.352893
1003.000000	98.374166
1002.000000	98.397977
1001.000000	98.423320
1000.000000	98.449321
999.000000	98.471458
998.000000	98.485109
997.000000	98.493045
996.000000	98.504677
995.000000	98.526373
994.000000	98.555823
993.000000	98.586887
992.000000	98.615605
991.000000	98.639890
990.000000	98.658515
989.000000	98.673857
988.000000	98.691718
987.000000	98.714651
986.000000	98.738128
985.000000	98.756815
984.000000	98.772111
983.000000	98.789560
982.000000	98.811081
981.000000	98.833800
980.000000	98.855163
979.000000	98.875013
978.000000	98.893164
977.000000	98.908990
976.000000	98.923690
975.000000	98.939695
974.000000	98.957084
973.000000	98.973295
972.000000	98.987162
971.000000	99.001196
970.000000	99.018873
969.000000	99.040786
968.000000	99.064014
967.000000	99.084424
966.000000	99.099668
965.000000	99.110873
964.000000	99.121528
963.000000	99.134477
962.000000	99.150317
961.000000	99.168767
960.000000	99.189989
959.000000	99.213234
958.000000	99.235485
957.000000	99.253452
956.000000	99.266851
955.000000	99.278595
954.000000	99.292038
953.000000	99.308507
952.000000	99.326477
951.000000	99.342294
950.000000	99.352915
949.000000	99.359241
948.000000	99.365881
947.000000	99.376363
946.000000	99.389444
945.000000	99.401566
944.000000	99.411370
943.000000	99.419393
942.000000	99.424292
941.000000	99.422758
940.000000	99.414376
939.000000	99.404357
938.000000	99.399864
937.000000	99.404361
936.000000	99.416634
935.000000	99.433986
934.000000	99.454206
933.000000	99.474670
932.000000	99.491606
931.000000	99.501868
930.000000	99.505242
929.000000	99.504332
928.000000	99.502699
927.000000	99.503807
926.000000	99.510522
925.000000	99.522621
924.000000	99.534214
923.000000	99.536704
922.000000	99.527436
921.000000	99.513917
920.000000	99.506767
919.000000	99.509021
918.000000	99.514757
917.000000	99.517811
916.000000	99.518078
915.000000	99.518823
914.000000	99.521665
913.000000	99.526380
912.000000	99.533168
911.000000	99.542261
910.000000	99.552286
909.000000	99.560869
908.000000	99.566570
907.000000	99.569948
906.000000	99.574118
905.000000	99.584444
904.000000	99.604624
903.000000	99.631327
902.000000	99.655271
901.000000	99.669987
900.000000	99.677954
899.000000	99.686102
898.000000	99.697333
897.000000	99.709158
896.000000	99.718756
895.000000	99.726112
894.000000	99.733073
893.000000	99.742353
892.000000	99.756981
891.000000	99.777459
890.000000	99.799255
889.000000	99.815859
888.000000	99.824529
887.000000	99.826406
886.000000	99.821290
885.000000	99.805323
884.000000	99.774818
883.000000	99.729414
882.000000	99.668889
881.000000	99.589274
880.000000	99.484839
879.000000	99.354143
878.000000	99.203233
877.000000	99.044539
876.000000	98.895464
875.000000	98.776208
874.000000	98.703793
873.000000	98.684917
872.000000	98.715597
871.000000	98.786449
870.000000	98.886872
869.000000	99.004823
868.000000	99.125250
867.000000	99.233132
866.000000	99.320079
865.000000	99.387391
864.000000	99.440472
863.000000	99.481129
862.000000	99.507421
861.000000	99.520650
860.000000	99.528717
859.000000	99.540553
858.000000	99.559586
857.000000	99.583778
856.000000	99.609964
855.000000	99.635520
854.000000	99.657053
853.000000	99.670796
852.000000	99.674824
851.000000	99.670121
850.000000	99.660430
849.000000	99.651940
848.000000	99.651271
847.000000	99.661011
846.000000	99.677724
845.000000	99.696004
844.000000	99.713262
843.000000	99.729034
842.000000	99.742154
841.000000	99.752338
840.000000	99.762887
839.000000	99.776832
838.000000	99.790349
837.000000	99.794831
836.000000	99.786851
835.000000	99.772298
834.000000	99.759593
833.000000	99.752798
832.000000	99.753047
831.000000	99.761475
830.000000	99.776166
829.000000	99.789749
828.000000	99.795940
827.000000	99.797423
826.000000	99.801980
825.000000	99.810853
824.000000	99.815823
823.000000	99.809611
822.000000	99.795186
821.000000	99.782420
820.000000	99.778317
819.000000	99.782087
818.000000	99.787779
817.000000	99.790159
816.000000	99.788607
815.000000	99.786512
814.000000	99.787160
813.000000	99.790392
812.000000	99.793552
811.000000	99.794497
810.000000	99.792658
809.000000	99.788089
808.000000	99.781119
807.000000	99.773037
806.000000	99.765998
805.000000	99.761864
804.000000	99.760962
803.000000	99.761011
802.000000	99.757670
801.000000	99.748955
800.000000	99.740017
799.000000	99.739772
798.000000	99.750129
797.000000	99.761835
796.000000	99.764603
795.000000	99.758968
794.000000	99.753712
793.000000	99.753484
792.000000	99.754791
791.000000	99.754123
790.000000	99.753863
789.000000	99.757820
788.000000	99.765376
787.000000	99.772910
786.000000	99.777941
785.000000	99.779115
784.000000	99.774401
783.000000	99.762358
782.000000	99.744532
781.000000	99.725027
780.000000	99.708806
779.000000	99.700857
778.000000	99.704076
777.000000	99.715704
776.000000	99.727634
775.000000	99.733000
774.000000	99.732026
773.000000	99.730029
772.000000	99.730938
771.000000	99.734911
770.000000	99.741116
769.000000	99.749485
768.000000	99.758901
767.000000	99.765917
766.000000	99.767162
765.000000	99.762880
764.000000	99.756981
763.000000	99.753019
762.000000	99.750705
761.000000	99.747695
760.000000	99.745022
759.000000	99.748458
758.000000	99.762052
757.000000	99.781111
756.000000	99.794717
755.000000	99.796030
754.000000	99.788275
753.000000	99.780035
752.000000	99.776946
751.000000	99.778874
750.000000	99.782529
749.000000	99.784903
748.000000	99.785683
747.000000	99.787950
746.000000	99.795110
745.000000	99.805726
744.000000	99.812894
743.000000	99.810437
742.000000	99.799152
741.000000	99.786272
740.000000	99.779653
739.000000	99.782132
738.000000	99.789050
737.000000	99.791291
736.000000	99.784173
735.000000	99.774459
734.000000	99.774487
733.000000	99.787075
732.000000	99.800449
731.000000	99.801498
730.000000	99.790180
729.000000	99.776022
728.000000	99.765221
727.000000	99.757461
726.000000	99.752054
725.000000	99.750380
724.000000	99.751650
723.000000	99.751408
722.000000	99.745907
721.000000	99.736008
720.000000	99.726775
719.000000	99.723907
718.000000	99.728288
717.000000	99.730708
716.000000	99.714197
715.000000	99.668753
714.000000	99.605684
713.000000	99.552248
712.000000	99.530284
711.000000	99.542904
710.000000	99.580106
709.000000	99.628556
708.000000	99.673906
707.000000	99.702503
706.000000	99.707991
705.000000	99.696201
704.000000	99.680406
703.000000	99.670861
702.000000	99.670207
701.000000	99.676444
700.000000	99.686160
699.000000	99.696450
698.000000	99.704856
697.000000	99.707946
696.000000	99.701644
695.000000	99.684832
694.000000	99.664181
693.000000	99.651166
692.000000	99.652125
691.000000	99.665787
690.000000	99.689118
689.000000	99.719940
688.000000	99.751332
687.000000	99.769662
686.000000	99.765833
685.000000	99.744094
684.000000	99.717061
683.000000	99.697057
682.000000	99.692208
681.000000	99.702973
680.000000	99.717637
679.000000	99.719844
678.000000	99.705755
677.000000	99.685973
676.000000	99.672490
675.000000	99.667329
674.000000	99.667539
673.000000	99.675231
672.000000	99.695167
671.000000	99.728122
670.000000	99.769235
669.000000	99.808303
668.000000	99.819542
667.000000	99.785479
666.000000	99.742165
665.000000	99.707855
664.000000	99.684804
663.000000	99.678879
662.000000	99.686148
661.000000	99.693472
660.000000	99.693134
659.000000	99.691039
658.000000	99.696015
657.000000	99.706807
656.000000	99.717976
655.000000	99.727590
654.000000	99.734912
653.000000	99.739830
652.000000	99.747248
651.000000	99.762382
650.000000	99.781121
649.000000	99.792857
648.000000	99.792400
647.000000	99.779054
646.000000	99.748037
645.000000	99.699299
644.000000	99.652201
643.000000	99.634416
642.000000	99.653244
641.000000	99.688942
640.000000	99.720853
639.000000	99.746274
638.000000	99.768349
637.000000	99.782155
636.000000	99.782881
635.000000	99.776626
634.000000	99.773540
633.000000	99.777013
632.000000	99.785688
631.000000	99.798532
630.000000	99.810650
629.000000	99.812259
628.000000	99.801009
627.000000	99.788163
626.000000	99.783506
625.000000	99.781946
624.000000	99.774857
623.000000	99.768337
622.000000	99.778146
621.000000	99.806703
620.000000	99.834755
619.000000	99.837970
618.000000	99.807955
617.000000	99.758851
616.000000	99.717349
615.000000	99.705124
614.000000	99.724107
613.000000	99.755745
612.000000	99.776534
611.000000	99.775034
610.000000	99.754684
609.000000	99.724952
608.000000	99.695719
607.000000	99.678302
606.000000	99.680373
605.000000	99.694673
604.000000	99.698392
603.000000	99.671826
602.000000	99.620795
601.000000	99.576228
600.000000	99.567316
599.000000	99.595047
598.000000	99.633777
597.000000	99.659779
596.000000	99.671257
595.000000	99.678599
594.000000	99.684112
593.000000	99.679347
592.000000	99.662504
591.000000	99.648807
590.000000	99.656503
589.000000	99.687277
588.000000	99.726945
587.000000	99.760870
586.000000	99.784419
585.000000	99.801616
584.000000	99.816605
583.000000	99.826802
582.000000	99.824492
581.000000	99.805737
580.000000	99.776417
579.000000	99.748466
578.000000	99.731857
577.000000	99.732529
576.000000	99.752756
575.000000	99.785606
574.000000	99.811522
573.000000	99.811077
572.000000	99.781924
571.000000	99.738674
570.000000	99.697445
569.000000	99.664311
568.000000	99.641896
567.000000	99.638397
566.000000	99.659023
565.000000	99.693155
564.000000	99.717922
563.000000	99.713736
562.000000	99.676770
561.000000	99.621104
560.000000	99.571338
559.000000	99.550256
558.000000	99.565317
557.000000	99.604976
556.000000	99.649264
555.000000	99.681634
554.000000	99.694040
553.000000	99.688902
552.000000	99.678505
551.000000	99.677255
550.000000	99.689013
549.000000	99.703092
548.000000	99.705459
547.000000	99.690217
546.000000	99.659479
545.000000	99.618804
544.000000	99.575819
543.000000	99.537730
542.000000	99.505051
541.000000	99.472323
540.000000	99.441447
539.000000	99.428662
538.000000	99.448998
537.000000	99.494868
536.000000	99.537672
535.000000	99.552205
534.000000	99.535191
533.000000	99.500423
532.000000	99.463299
531.000000	99.434709
530.000000	99.422679
529.000000	99.430167
528.000000	99.451493
527.000000	99.474886
526.000000	99.492033
525.000000	99.506791
524.000000	99.527217
523.000000	99.550602
522.000000	99.566683
521.000000	99.576702
520.000000	99.598774
519.000000	99.643444
518.000000	99.687342
517.000000	99.690000
516.000000	99.641390
515.000000	99.572874
514.000000	99.522652
513.000000	99.507578
512.000000	99.524227
511.000000	99.559104
510.000000	99.596383
509.000000	99.627067
508.000000	99.651333
507.000000	99.668576
506.000000	99.673242
505.000000	99.669553
504.000000	99.678722
503.000000	99.716953
502.000000	99.767844
501.000000	99.797741
500.000000	99.804297
499.000000	99.817169
498.000000	99.848157
497.000000	99.867493
496.000000	99.837006
495.000000	99.755864
494.000000	99.667196
493.000000	99.627136
492.000000	99.663034
491.000000	99.747363
490.000000	99.816708
489.000000	99.831791
488.000000	99.814076
487.000000	99.811377
486.000000	99.831899
485.000000	99.829381
484.000000	99.765571
483.000000	99.663857
482.000000	99.578608
481.000000	99.538281
480.000000	99.541644
479.000000	99.578910
478.000000	99.626432
477.000000	99.642282
476.000000	99.598544
475.000000	99.510564
474.000000	99.417505
473.000000	99.347306
472.000000	99.311408
471.000000	99.315999
470.000000	99.352913
469.000000	99.390770
468.000000	99.396991
467.000000	99.368040
466.000000	99.329090
465.000000	99.303716
464.000000	99.299850
463.000000	99.321817
462.000000	99.372986
461.000000	99.451321
460.000000	99.559397
459.000000	99.703354
458.000000	99.847653
457.000000	99.905284
456.000000	99.839100
455.000000	99.708611
454.000000	99.612305
453.000000	99.589907
452.000000	99.650768
451.000000	99.758014
450.000000	99.851556
