PE UV       SUBTECH     SPECTRUM    ASCII       PEDS        4.00        
   -1
3S-N10-C017.Sample.Cycle1.Raw.asc
22/03/29
16:11:59.00
22/03/29
16:11:59.00
Administrator

250.000000
1
Lambda 750
750N8071901
PerkinElmer UV WinLab 6.0.4.0738 / 1.61.00 Lambda 900

0
0
3350/servo 860.8/2
0
0
UV/VIS
1
1
1
CommonBeamDepol,150mm sphere / downward view
0
0
0
0
Program
Program
3350/servo 860.8/2
3350/0.2 860.8/0.2
3350/0.2 860.8/0.2
0
1
 
 
 
0
 
860.8
319.2
860.8
Front
100
on
 
 
0
0
0
 
0
 
 
 
0
 
 
0
0
0
0
0
 
 
 
 
0
0


0
0
#HDR
-1
-1
#GR
nm
%R
1.0
0.0
2500.000000
-10.000000
226
8
52.123436
14.504074
#DATA
2500.000000	25.104333
2490.000000	26.543790
2480.000000	22.878403
2470.000000	22.588160
2460.000000	24.632003
2450.000000	24.689280
2440.000000	25.488101
2430.000000	25.614847
2420.000000	26.622958
2410.000000	24.845520
2400.000000	26.485996
2390.000000	26.273520
2380.000000	26.194534
2370.000000	26.017185
2360.000000	25.940096
2350.000000	27.110022
2340.000000	26.226213
2330.000000	27.899008
2320.000000	27.454977
2310.000000	26.201102
2300.000000	25.982487
2290.000000	24.598326
2280.000000	25.600882
2270.000000	26.016179
2260.000000	25.944857
2250.000000	27.337990
2240.000000	27.950389
2230.000000	28.577960
2220.000000	29.375233
2210.000000	29.004047
2200.000000	28.831147
2190.000000	28.705436
2180.000000	28.096060
2170.000000	27.820703
2160.000000	28.256064
2150.000000	29.427885
2140.000000	30.302975
2130.000000	30.957981
2120.000000	31.616463
2110.000000	31.300583
2100.000000	31.109215
2090.000000	31.537504
2080.000000	31.408289
2070.000000	30.825419
2060.000000	30.184402
2050.000000	29.241085
2040.000000	28.752861
2030.000000	28.899786
2020.000000	29.459295
2010.000000	29.399236
2000.000000	28.947557
1990.000000	28.349816
1980.000000	27.529847
1970.000000	26.847600
1960.000000	26.103303
1950.000000	25.327197
1940.000000	25.344695
1930.000000	25.763714
1920.000000	27.077465
1910.000000	28.986393
1900.000000	32.006851
1890.000000	34.981758
1880.000000	37.700590
1870.000000	39.568518
1860.000000	40.350489
1850.000000	40.897404
1840.000000	41.001725
1830.000000	40.782994
1820.000000	40.457437
1810.000000	40.318182
1800.000000	39.990427
1790.000000	39.777718
1780.000000	39.672442
1770.000000	39.386589
1760.000000	39.153925
1750.000000	38.982330
1740.000000	38.694568
1730.000000	38.484732
1720.000000	38.761484
1710.000000	39.338840
1700.000000	39.661154
1690.000000	39.948663
1680.000000	40.759794
1670.000000	41.827323
1660.000000	42.450914
1650.000000	42.695874
1640.000000	42.574691
1630.000000	42.431482
1620.000000	42.053660
1610.000000	41.671508
1600.000000	41.343193
1590.000000	41.021382
1580.000000	40.784725
1570.000000	40.445803
1560.000000	40.217290
1550.000000	39.888778
1540.000000	39.465941
1530.000000	38.879852
1520.000000	38.529071
1510.000000	38.427224
1500.000000	38.360017
1490.000000	38.372363
1480.000000	38.535233
1470.000000	38.741456
1460.000000	38.944753
1450.000000	39.358547
1440.000000	39.943978
1430.000000	40.682073
1420.000000	41.533129
1410.000000	42.623607
1400.000000	44.080346
1390.000000	45.547378
1380.000000	46.499846
1370.000000	47.029090
1360.000000	47.351248
1350.000000	47.429357
1340.000000	47.373790
1330.000000	47.315833
1320.000000	47.506198
1310.000000	47.887579
1300.000000	48.215027
1290.000000	48.392250
1280.000000	48.311755
1270.000000	48.149531
1260.000000	48.116337
1250.000000	48.210535
1240.000000	48.240570
1230.000000	48.054932
1220.000000	47.755491
1210.000000	47.445048
1200.000000	47.263884
1190.000000	47.341963
1180.000000	47.616622
1170.000000	48.080465
1160.000000	48.542682
1150.000000	48.949508
1140.000000	49.251968
1130.000000	49.502444
1120.000000	49.682039
1110.000000	49.760501
1100.000000	49.810241
1090.000000	49.790295
1080.000000	49.787198
1070.000000	49.799685
1060.000000	49.868106
1050.000000	49.892509
1040.000000	49.962133
1030.000000	50.094275
1020.000000	50.234678
1010.000000	50.570072
1000.000000	50.941184
990.000000	51.061040
980.000000	51.104489
970.000000	51.193193
960.000000	51.278766
950.000000	51.415680
940.000000	51.509185
930.000000	51.476624
920.000000	51.465963
910.000000	51.539053
900.000000	51.634938
890.000000	51.961694
880.000000	52.123436
870.000000	52.106073
860.000000	52.104798
850.000000	51.339688
840.000000	50.118417
830.000000	50.044394
820.000000	50.121915
810.000000	50.237806
800.000000	50.287111
790.000000	50.293815
780.000000	50.272582
770.000000	50.305142
760.000000	50.313472
750.000000	50.334874
740.000000	50.279146
730.000000	50.229957
720.000000	50.268398
710.000000	50.239916
700.000000	50.296012
690.000000	50.213532
680.000000	50.128159
670.000000	50.105128
660.000000	50.048973
650.000000	50.060789
640.000000	49.959841
630.000000	49.918237
620.000000	49.805235
610.000000	49.683921
600.000000	49.646044
590.000000	49.666260
580.000000	49.603324
570.000000	49.494636
560.000000	49.447749
550.000000	49.335426
540.000000	49.094766
530.000000	48.813081
520.000000	48.374392
510.000000	47.893320
500.000000	47.430176
490.000000	46.983663
480.000000	46.602132
470.000000	46.185614
460.000000	45.614488
450.000000	44.847182
440.000000	43.917541
430.000000	42.863124
420.000000	41.625913
410.000000	40.252304
400.000000	39.102198
390.000000	38.156892
380.000000	37.223989
370.000000	36.314460
360.000000	35.292247
350.000000	33.950404
340.000000	32.423567
330.000000	30.960536
320.000000	29.711620
310.000000	28.057029
300.000000	25.367434
290.000000	20.784912
280.000000	17.275995
270.000000	16.384210
260.000000	16.019519
250.000000	14.504074
