PE UV       SUBTECH     SPECTRUM    ASCII       PEDS        4.00        
   -1
3S-H10-C005.Sample.Cycle1.Raw.asc
22/03/02
16:36:34.00
22/03/02
16:36:34.00
Administrator

250.000000
1
Lambda 750
750N8071901
PerkinElmer UV WinLab 6.0.4.0738 / 1.61.00 Lambda 900

0
0
3350/servo 860.8/2
0
0
UV/VIS
1
1
1
CommonBeamDepol,150mm sphere / downward view
0
0
0
0
Program
Program
3350/servo 860.8/2
3350/0.2 860.8/0.2
3350/0.2 860.8/0.2
0
1
 
 
 
0
 
860.8
319.2
860.8
Front
100
on
 
 
0
0
0
 
0
 
 
 
0
 
 
0
0
0
0
0
 
 
 
 
0
0


0
0
#HDR
-1
-1
#GR
nm
%R
1.0
0.0
2500.000000
-10.000000
226
8
51.329723
7.833910
#DATA
2500.000000	17.516723
2490.000000	22.427432
2480.000000	20.604111
2470.000000	18.454939
2460.000000	22.217275
2450.000000	28.303755
2440.000000	26.494944
2430.000000	25.013927
2420.000000	24.883027
2410.000000	27.950092
2400.000000	25.180537
2390.000000	26.929285
2380.000000	22.746826
2370.000000	21.805437
2360.000000	26.791989
2350.000000	25.861960
2340.000000	26.828844
2330.000000	21.864995
2320.000000	22.872622
2310.000000	22.272022
2300.000000	21.444154
2290.000000	23.273113
2280.000000	23.213515
2270.000000	23.006065
2260.000000	22.662364
2250.000000	24.243298
2240.000000	26.899415
2230.000000	28.229485
2220.000000	29.261722
2210.000000	25.527562
2200.000000	25.326666
2190.000000	27.457784
2180.000000	26.591372
2170.000000	26.610044
2160.000000	25.629274
2150.000000	25.061438
2140.000000	26.911472
2130.000000	27.417274
2120.000000	29.668903
2110.000000	28.187283
2100.000000	29.296661
2090.000000	28.704644
2080.000000	28.030712
2070.000000	28.269789
2060.000000	26.618645
2050.000000	25.828106
2040.000000	26.539758
2030.000000	26.049654
2020.000000	26.826277
2010.000000	26.775867
2000.000000	25.879864
1990.000000	25.982927
1980.000000	24.936791
1970.000000	24.229462
1960.000000	23.821476
1950.000000	23.492811
1940.000000	23.097922
1930.000000	23.371836
1920.000000	24.671473
1910.000000	26.381133
1900.000000	29.174355
1890.000000	32.397867
1880.000000	35.333153
1870.000000	37.483661
1860.000000	38.711480
1850.000000	38.582113
1840.000000	38.640946
1830.000000	38.504923
1820.000000	38.602645
1810.000000	38.421236
1800.000000	37.960422
1790.000000	37.544823
1780.000000	37.089494
1770.000000	36.358825
1760.000000	36.124474
1750.000000	35.824163
1740.000000	35.855768
1730.000000	35.035469
1720.000000	35.272535
1710.000000	36.230023
1700.000000	36.906266
1690.000000	37.593499
1680.000000	38.688927
1670.000000	39.852435
1660.000000	40.522751
1650.000000	40.925478
1640.000000	40.854398
1630.000000	40.793970
1620.000000	40.383541
1610.000000	39.763686
1600.000000	39.234355
1590.000000	38.856713
1580.000000	38.449296
1570.000000	38.393641
1560.000000	38.187911
1550.000000	37.736693
1540.000000	37.259784
1530.000000	36.701208
1520.000000	36.211080
1510.000000	36.052590
1500.000000	35.865935
1490.000000	35.842107
1480.000000	36.003187
1470.000000	36.305963
1460.000000	36.676838
1450.000000	37.027362
1440.000000	37.449296
1430.000000	37.623104
1420.000000	37.920167
1410.000000	39.321443
1400.000000	41.887066
1390.000000	44.488269
1380.000000	45.842039
1370.000000	46.132996
1360.000000	46.180101
1350.000000	46.113656
1340.000000	46.254532
1330.000000	46.818940
1320.000000	47.885717
1310.000000	48.893670
1300.000000	49.322082
1290.000000	49.499758
1280.000000	49.393622
1270.000000	48.875740
1260.000000	48.719937
1250.000000	48.592840
1240.000000	48.468000
1230.000000	48.286796
1220.000000	47.859529
1210.000000	47.530585
1200.000000	47.292916
1190.000000	47.195884
1180.000000	47.703485
1170.000000	48.251953
1160.000000	48.867284
1150.000000	49.246877
1140.000000	49.474604
1130.000000	49.818515
1120.000000	50.150336
1110.000000	50.459047
1100.000000	50.464476
1090.000000	50.358532
1080.000000	50.094180
1070.000000	50.072042
1060.000000	50.115108
1050.000000	50.072069
1040.000000	50.006466
1030.000000	49.926246
1020.000000	49.902941
1010.000000	50.395496
1000.000000	51.150589
990.000000	51.329723
980.000000	51.226456
970.000000	51.177709
960.000000	51.028176
950.000000	50.933624
940.000000	50.796378
930.000000	50.644854
920.000000	50.581126
910.000000	50.671032
900.000000	50.876297
890.000000	50.901354
880.000000	50.387081
870.000000	50.051889
860.000000	49.720667
850.000000	49.725104
840.000000	50.195858
830.000000	49.988283
820.000000	50.135816
810.000000	50.092150
800.000000	50.184019
790.000000	50.048665
780.000000	49.846203
770.000000	49.973952
760.000000	49.993529
750.000000	49.878518
740.000000	49.680755
730.000000	49.491331
720.000000	49.274956
710.000000	49.137791
700.000000	49.039424
690.000000	48.849592
680.000000	48.655725
670.000000	48.382075
660.000000	48.247700
650.000000	47.940237
640.000000	47.645734
630.000000	47.376889
620.000000	47.038160
610.000000	46.692092
600.000000	46.255251
590.000000	45.988636
580.000000	45.622976
570.000000	45.211790
560.000000	44.813134
550.000000	44.353723
540.000000	43.899998
530.000000	43.428851
520.000000	42.952055
510.000000	42.317913
500.000000	41.757216
490.000000	41.130533
480.000000	40.314391
470.000000	39.584663
460.000000	38.654501
450.000000	37.480739
440.000000	36.228778
430.000000	34.853531
420.000000	33.377095
410.000000	31.894533
400.000000	30.593495
390.000000	29.431880
380.000000	28.177473
370.000000	26.746378
360.000000	25.320288
350.000000	23.899294
340.000000	22.299331
330.000000	20.730575
320.000000	19.789856
310.000000	17.711268
300.000000	14.595990
290.000000	11.698320
280.000000	9.614219
270.000000	8.941761
260.000000	8.721997
250.000000	7.833910
