PE UV       SUBTECH     SPECTRUM    ASCII       PEDS        4.00        
   -1
3S-H10-C008.Sample.Cycle1.Raw.asc
22/03/02
16:46:11.00
22/03/02
16:46:11.00
Administrator

250.000000
1
Lambda 750
750N8071901
PerkinElmer UV WinLab 6.0.4.0738 / 1.61.00 Lambda 900

0
0
3350/servo 860.8/2
0
0
UV/VIS
1
1
1
CommonBeamDepol,150mm sphere / downward view
0
0
0
0
Program
Program
3350/servo 860.8/2
3350/0.2 860.8/0.2
3350/0.2 860.8/0.2
0
1
 
 
 
0
 
860.8
319.2
860.8
Front
100
on
 
 
0
0
0
 
0
 
 
 
0
 
 
0
0
0
0
0
 
 
 
 
0
0


0
0
#HDR
-1
-1
#GR
nm
%R
1.0
0.0
2500.000000
-10.000000
226
8
51.457386
8.545751
#DATA
2500.000000	18.240801
2490.000000	19.811283
2480.000000	18.533983
2470.000000	11.012950
2460.000000	21.664692
2450.000000	25.839735
2440.000000	26.655425
2430.000000	21.670817
2420.000000	24.915295
2410.000000	25.131266
2400.000000	24.903243
2390.000000	22.323665
2380.000000	22.366546
2370.000000	23.116279
2360.000000	23.291904
2350.000000	25.014599
2340.000000	25.597703
2330.000000	22.354505
2320.000000	25.537979
2310.000000	21.400099
2300.000000	21.592444
2290.000000	22.572591
2280.000000	21.900048
2270.000000	20.626485
2260.000000	23.691224
2250.000000	24.803454
2240.000000	26.177970
2230.000000	26.212353
2220.000000	27.920630
2210.000000	27.010920
2200.000000	26.197558
2190.000000	26.702778
2180.000000	26.668721
2170.000000	26.321736
2160.000000	24.927191
2150.000000	25.530952
2140.000000	25.927971
2130.000000	27.874956
2120.000000	28.391944
2110.000000	27.862848
2100.000000	28.770819
2090.000000	28.686525
2080.000000	28.773140
2070.000000	27.488244
2060.000000	26.641296
2050.000000	25.707584
2040.000000	26.251760
2030.000000	25.750218
2020.000000	26.721706
2010.000000	26.207512
2000.000000	25.260334
1990.000000	25.327752
1980.000000	24.621077
1970.000000	24.074456
1960.000000	23.364323
1950.000000	23.232054
1940.000000	22.284969
1930.000000	22.928595
1920.000000	24.744957
1910.000000	25.667189
1900.000000	28.627982
1890.000000	32.496647
1880.000000	35.258613
1870.000000	37.769518
1860.000000	38.910695
1850.000000	38.455270
1840.000000	38.851728
1830.000000	38.438763
1820.000000	38.311421
1810.000000	38.088186
1800.000000	37.910173
1790.000000	37.385379
1780.000000	36.840291
1770.000000	36.418369
1760.000000	36.427621
1750.000000	35.912121
1740.000000	35.606521
1730.000000	34.811556
1720.000000	35.110202
1710.000000	36.152322
1700.000000	36.981964
1690.000000	37.492009
1680.000000	38.392333
1670.000000	39.711177
1660.000000	40.483258
1650.000000	40.734698
1640.000000	40.810248
1630.000000	40.759735
1620.000000	40.365803
1610.000000	39.810370
1600.000000	39.061365
1590.000000	38.694254
1580.000000	38.498164
1570.000000	38.281492
1560.000000	37.924564
1550.000000	37.659110
1540.000000	37.204596
1530.000000	36.583587
1520.000000	36.096005
1510.000000	35.872857
1500.000000	35.645919
1490.000000	35.624020
1480.000000	35.791179
1470.000000	36.020643
1460.000000	36.287692
1450.000000	36.829151
1440.000000	37.311892
1430.000000	37.549983
1420.000000	37.868526
1410.000000	39.155812
1400.000000	41.865981
1390.000000	44.510582
1380.000000	45.855793
1370.000000	46.180907
1360.000000	46.156517
1350.000000	46.122210
1340.000000	46.249249
1330.000000	46.845399
1320.000000	48.082780
1310.000000	49.088826
1300.000000	49.462617
1290.000000	49.607864
1280.000000	49.406367
1270.000000	49.020158
1260.000000	48.864320
1250.000000	48.767481
1240.000000	48.648196
1230.000000	48.385802
1220.000000	47.990605
1210.000000	47.678033
1200.000000	47.402092
1190.000000	47.394340
1180.000000	47.820449
1170.000000	48.426625
1160.000000	49.049659
1150.000000	49.482125
1140.000000	49.821557
1130.000000	50.154427
1120.000000	50.291790
1110.000000	50.622805
1100.000000	50.666307
1090.000000	50.595367
1080.000000	50.343366
1070.000000	50.298925
1060.000000	50.287446
1050.000000	50.192185
1040.000000	50.122213
1030.000000	50.096299
1020.000000	50.138196
1010.000000	50.543447
1000.000000	51.223177
990.000000	51.419132
980.000000	51.457386
970.000000	51.403924
960.000000	51.229163
950.000000	51.290183
940.000000	51.073974
930.000000	51.118737
920.000000	51.146513
910.000000	50.767464
900.000000	50.646429
890.000000	51.068047
880.000000	51.243334
870.000000	51.094955
860.000000	50.063075
850.000000	50.457963
840.000000	51.303302
830.000000	51.032560
820.000000	51.192293
810.000000	51.275040
800.000000	51.248113
790.000000	51.018310
780.000000	50.959635
770.000000	51.067364
760.000000	51.104099
750.000000	51.022238
740.000000	50.922402
730.000000	50.899187
720.000000	50.717569
710.000000	50.638234
700.000000	50.632254
690.000000	50.421889
680.000000	50.304435
670.000000	50.157541
660.000000	50.009387
650.000000	49.807063
640.000000	49.601576
630.000000	49.412774
620.000000	49.073351
610.000000	48.818092
600.000000	48.515938
590.000000	48.382198
580.000000	48.101581
570.000000	47.669444
560.000000	47.380527
550.000000	47.087364
540.000000	46.699744
530.000000	46.286226
520.000000	45.888277
510.000000	45.364302
500.000000	44.777312
490.000000	44.202259
480.000000	43.548611
470.000000	42.768575
460.000000	41.895085
450.000000	40.792634
440.000000	39.541674
430.000000	38.146983
420.000000	36.478428
410.000000	34.800551
400.000000	33.358375
390.000000	31.998060
380.000000	30.697723
370.000000	29.107611
360.000000	27.550730
350.000000	26.063553
340.000000	24.145332
330.000000	22.349231
320.000000	20.800335
310.000000	18.531816
300.000000	15.896727
290.000000	12.714168
280.000000	10.451313
270.000000	9.919259
260.000000	9.632559
250.000000	8.545751
