PE UV       SUBTECH     SPECTRUM    ASCII       PEDS        4.00        
   -1
3S-N10-C025.Sample.Cycle1.Raw.asc
22/03/29
16:35:55.00
22/03/29
16:35:55.00
Administrator

250.000000
1
Lambda 750
750N8071901
PerkinElmer UV WinLab 6.0.4.0738 / 1.61.00 Lambda 900

0
0
3350/servo 860.8/2
0
0
UV/VIS
1
1
1
CommonBeamDepol,150mm sphere / downward view
0
0
0
0
Program
Program
3350/servo 860.8/2
3350/0.2 860.8/0.2
3350/0.2 860.8/0.2
0
1
 
 
 
0
 
860.8
319.2
860.8
Front
100
on
 
 
0
0
0
 
0
 
 
 
0
 
 
0
0
0
0
0
 
 
 
 
0
0


0
0
#HDR
-1
-1
#GR
nm
%R
1.0
0.0
2500.000000
-10.000000
226
8
53.134075
14.797417
#DATA
2500.000000	22.507295
2490.000000	21.763475
2480.000000	22.754050
2470.000000	22.362888
2460.000000	21.593936
2450.000000	23.051412
2440.000000	23.958421
2430.000000	26.251117
2420.000000	27.148643
2410.000000	25.922162
2400.000000	26.860553
2390.000000	25.314972
2380.000000	26.038531
2370.000000	26.962728
2360.000000	25.388662
2350.000000	27.697800
2340.000000	26.255975
2330.000000	27.209348
2320.000000	26.820468
2310.000000	26.321920
2300.000000	25.380076
2290.000000	24.990833
2280.000000	24.899155
2270.000000	25.570174
2260.000000	25.974587
2250.000000	27.280129
2240.000000	27.893668
2230.000000	28.525085
2220.000000	28.934498
2210.000000	28.878421
2200.000000	28.729609
2190.000000	27.894012
2180.000000	28.091031
2170.000000	27.196244
2160.000000	27.871291
2150.000000	29.744926
2140.000000	29.741120
2130.000000	30.722083
2120.000000	30.949245
2110.000000	31.223482
2100.000000	31.634981
2090.000000	31.208108
2080.000000	31.210131
2070.000000	30.607986
2060.000000	30.009054
2050.000000	29.011566
2040.000000	28.579675
2030.000000	28.774897
2020.000000	29.405151
2010.000000	29.198959
2000.000000	28.833889
1990.000000	28.176291
1980.000000	27.334012
1970.000000	26.658944
1960.000000	25.813510
1950.000000	25.279677
1940.000000	25.063936
1930.000000	25.519279
1920.000000	27.047533
1910.000000	28.848721
1900.000000	31.789229
1890.000000	35.112587
1880.000000	37.770812
1870.000000	39.970982
1860.000000	40.871149
1850.000000	41.289753
1840.000000	41.211810
1830.000000	41.225826
1820.000000	40.971714
1810.000000	40.681818
1800.000000	40.403158
1790.000000	40.217787
1780.000000	40.052055
1770.000000	39.740578
1760.000000	39.546929
1750.000000	39.237212
1740.000000	38.952314
1730.000000	38.755862
1720.000000	39.039276
1710.000000	39.646669
1700.000000	40.061103
1690.000000	40.318399
1680.000000	41.102608
1670.000000	42.195583
1660.000000	42.974943
1650.000000	43.194046
1640.000000	43.142637
1630.000000	42.952755
1620.000000	42.485949
1610.000000	42.138554
1600.000000	41.780697
1590.000000	41.421288
1580.000000	41.209460
1570.000000	40.872700
1560.000000	40.598152
1550.000000	40.289938
1540.000000	39.840208
1530.000000	39.287909
1520.000000	38.936828
1510.000000	38.784000
1500.000000	38.671603
1490.000000	38.671690
1480.000000	38.890498
1470.000000	39.082410
1460.000000	39.336253
1450.000000	39.754717
1440.000000	40.352122
1430.000000	41.088438
1420.000000	42.023288
1410.000000	43.146542
1400.000000	44.656623
1390.000000	46.183385
1380.000000	47.178489
1370.000000	47.701753
1360.000000	48.073321
1350.000000	48.185118
1340.000000	48.159057
1330.000000	48.093733
1320.000000	48.296905
1310.000000	48.659726
1300.000000	48.958890
1290.000000	49.099016
1280.000000	49.035387
1270.000000	48.925578
1260.000000	48.909169
1250.000000	48.951950
1240.000000	48.936321
1230.000000	48.772717
1220.000000	48.580116
1210.000000	48.319230
1200.000000	48.116380
1190.000000	48.180947
1180.000000	48.423378
1170.000000	48.867628
1160.000000	49.349952
1150.000000	49.738969
1140.000000	50.077383
1130.000000	50.340588
1120.000000	50.552581
1110.000000	50.638173
1100.000000	50.664269
1090.000000	50.643819
1080.000000	50.644956
1070.000000	50.712032
1060.000000	50.781461
1050.000000	50.846886
1040.000000	50.910934
1030.000000	51.022433
1020.000000	51.155224
1010.000000	51.465340
1000.000000	51.827201
990.000000	51.937256
980.000000	51.964204
970.000000	52.064220
960.000000	52.213384
950.000000	52.327123
940.000000	52.361291
930.000000	52.360150
920.000000	52.404267
910.000000	52.438610
900.000000	52.661051
890.000000	52.905675
880.000000	52.901372
870.000000	53.030485
860.000000	53.134075
850.000000	52.223853
840.000000	50.947438
830.000000	50.994195
820.000000	51.189386
810.000000	51.115240
800.000000	51.178096
790.000000	51.257278
780.000000	51.197651
770.000000	51.316834
760.000000	51.287643
750.000000	51.268297
740.000000	51.265165
730.000000	51.335835
720.000000	51.321517
710.000000	51.241683
700.000000	51.262203
690.000000	51.192621
680.000000	51.122059
670.000000	51.107221
660.000000	51.032721
650.000000	51.056005
640.000000	51.034778
630.000000	50.975449
620.000000	50.852957
610.000000	50.845679
600.000000	50.822880
590.000000	50.772906
580.000000	50.759387
570.000000	50.713930
560.000000	50.595983
550.000000	50.509104
540.000000	50.294263
530.000000	49.999783
520.000000	49.572025
510.000000	49.099750
500.000000	48.633521
490.000000	48.252526
480.000000	47.916559
470.000000	47.543799
460.000000	46.985828
450.000000	46.298837
440.000000	45.534527
430.000000	44.490180
420.000000	43.178746
410.000000	41.851494
400.000000	40.675506
390.000000	39.656880
380.000000	38.687386
370.000000	37.826544
360.000000	36.919816
350.000000	35.576044
340.000000	34.155547
330.000000	32.461411
320.000000	30.997819
310.000000	29.235310
300.000000	25.868162
290.000000	21.192137
280.000000	17.618785
270.000000	16.723894
260.000000	16.319325
250.000000	14.797417
