PE UV       SUBTECH     SPECTRUM    ASCII       PEDS        4.00        
   -1
3S-N10-C029.Sample.Cycle1.Raw.asc
22/03/29
16:47:20.00
22/03/29
16:47:20.00
Administrator

250.000000
1
Lambda 750
750N8071901
PerkinElmer UV WinLab 6.0.4.0738 / 1.61.00 Lambda 900

0
0
3350/servo 860.8/2
0
0
UV/VIS
1
1
1
CommonBeamDepol,150mm sphere / downward view
0
0
0
0
Program
Program
3350/servo 860.8/2
3350/0.2 860.8/0.2
3350/0.2 860.8/0.2
0
1
 
 
 
0
 
860.8
319.2
860.8
Front
100
on
 
 
0
0
0
 
0
 
 
 
0
 
 
0
0
0
0
0
 
 
 
 
0
0


0
0
#HDR
-1
-1
#GR
nm
%R
1.0
0.0
2500.000000
-10.000000
226
8
53.487367
15.207083
#DATA
2500.000000	24.405884
2490.000000	22.173897
2480.000000	21.414331
2470.000000	21.621213
2460.000000	22.969299
2450.000000	23.538022
2440.000000	26.319507
2430.000000	26.977691
2420.000000	25.837599
2410.000000	26.417478
2400.000000	27.167491
2390.000000	25.230135
2380.000000	25.324262
2370.000000	25.022614
2360.000000	26.809058
2350.000000	26.021948
2340.000000	26.645635
2330.000000	27.037673
2320.000000	26.706108
2310.000000	27.026502
2300.000000	26.255480
2290.000000	25.423698
2280.000000	25.853367
2270.000000	25.244915
2260.000000	25.330351
2250.000000	26.800318
2240.000000	27.623433
2230.000000	28.607052
2220.000000	29.148648
2210.000000	28.855914
2200.000000	29.141043
2190.000000	27.652753
2180.000000	28.131265
2170.000000	27.779781
2160.000000	28.589948
2150.000000	29.718849
2140.000000	29.437824
2130.000000	30.295706
2120.000000	31.603407
2110.000000	31.317563
2100.000000	31.425457
2090.000000	31.374873
2080.000000	31.184533
2070.000000	31.096406
2060.000000	30.426222
2050.000000	29.021726
2040.000000	28.662933
2030.000000	28.605930
2020.000000	29.249861
2010.000000	29.139129
2000.000000	28.834583
1990.000000	28.205057
1980.000000	27.366379
1970.000000	26.594973
1960.000000	25.650983
1950.000000	25.057293
1940.000000	25.028169
1930.000000	25.314374
1920.000000	26.841492
1910.000000	28.904715
1900.000000	31.920863
1890.000000	35.127789
1880.000000	37.981248
1870.000000	40.323311
1860.000000	41.247925
1850.000000	41.620820
1840.000000	41.674134
1830.000000	41.534522
1820.000000	41.144905
1810.000000	40.981541
1800.000000	40.676924
1790.000000	40.509544
1780.000000	40.253122
1770.000000	40.028644
1760.000000	39.762711
1750.000000	39.530896
1740.000000	39.166908
1730.000000	39.030471
1720.000000	39.374806
1710.000000	39.897560
1700.000000	40.333754
1690.000000	40.684661
1680.000000	41.492905
1670.000000	42.585833
1660.000000	43.335255
1650.000000	43.590962
1640.000000	43.421519
1630.000000	43.169682
1620.000000	42.810223
1610.000000	42.454238
1600.000000	42.065028
1590.000000	41.730031
1580.000000	41.488359
1570.000000	41.185556
1560.000000	40.883682
1550.000000	40.573900
1540.000000	40.068978
1530.000000	39.491014
1520.000000	39.099792
1510.000000	38.968404
1500.000000	38.899095
1490.000000	38.916995
1480.000000	39.088872
1470.000000	39.286566
1460.000000	39.514439
1450.000000	39.966901
1440.000000	40.576300
1430.000000	41.382798
1420.000000	42.321041
1410.000000	43.533190
1400.000000	45.052583
1390.000000	46.609309
1380.000000	47.630382
1370.000000	48.172686
1360.000000	48.512594
1350.000000	48.641886
1340.000000	48.630952
1330.000000	48.560106
1320.000000	48.690543
1310.000000	49.067083
1300.000000	49.368221
1290.000000	49.531351
1280.000000	49.481971
1270.000000	49.340508
1260.000000	49.336449
1250.000000	49.339591
1240.000000	49.280301
1230.000000	49.170062
1220.000000	48.978628
1210.000000	48.720931
1200.000000	48.516671
1190.000000	48.583202
1180.000000	48.840003
1170.000000	49.294444
1160.000000	49.787034
1150.000000	50.184405
1140.000000	50.469637
1130.000000	50.750020
1120.000000	51.007781
1110.000000	51.032774
1100.000000	51.084046
1090.000000	51.034498
1080.000000	51.060167
1070.000000	51.093736
1060.000000	51.174667
1050.000000	51.278424
1040.000000	51.376345
1030.000000	51.465076
1020.000000	51.603275
1010.000000	51.947700
1000.000000	52.298072
990.000000	52.411435
980.000000	52.467783
970.000000	52.565122
960.000000	52.648050
950.000000	52.746346
940.000000	52.848366
930.000000	52.888999
920.000000	52.912786
910.000000	52.978431
900.000000	53.143333
890.000000	53.402563
880.000000	53.487367
870.000000	53.384215
860.000000	53.345096
850.000000	52.806956
840.000000	51.888600
830.000000	51.813378
820.000000	51.944888
810.000000	51.990825
800.000000	52.074453
790.000000	52.008322
780.000000	51.938081
770.000000	52.028099
760.000000	52.081156
750.000000	52.185028
740.000000	52.088191
730.000000	52.108525
720.000000	52.071155
710.000000	52.061564
700.000000	52.078513
690.000000	51.990922
680.000000	51.926676
670.000000	51.855248
660.000000	51.820794
650.000000	51.844647
640.000000	51.786933
630.000000	51.697422
620.000000	51.606808
610.000000	51.551525
600.000000	51.488338
590.000000	51.453322
580.000000	51.467991
570.000000	51.402544
560.000000	51.276737
550.000000	51.191575
540.000000	50.982495
530.000000	50.670321
520.000000	50.222573
510.000000	49.717556
500.000000	49.257148
490.000000	48.805476
480.000000	48.397220
470.000000	48.023310
460.000000	47.404203
450.000000	46.599157
440.000000	45.763937
430.000000	44.698449
420.000000	43.377008
410.000000	41.954475
400.000000	40.692697
390.000000	39.798157
380.000000	38.760933
370.000000	37.821738
360.000000	36.923164
350.000000	35.531054
340.000000	34.079365
330.000000	32.350844
320.000000	30.905850
310.000000	29.525794
300.000000	26.369244
290.000000	21.573910
280.000000	17.960724
270.000000	17.027803
260.000000	16.595526
250.000000	15.207083
