PE UV       SUBTECH     SPECTRUM    ASCII       PEDS        4.00        
   -1
3S-N10-C020.Sample.Cycle1.Raw.asc
22/03/29
16:20:47.00
22/03/29
16:20:47.00
Administrator

250.000000
1
Lambda 750
750N8071901
PerkinElmer UV WinLab 6.0.4.0738 / 1.61.00 Lambda 900

0
0
3350/servo 860.8/2
0
0
UV/VIS
1
1
1
CommonBeamDepol,150mm sphere / downward view
0
0
0
0
Program
Program
3350/servo 860.8/2
3350/0.2 860.8/0.2
3350/0.2 860.8/0.2
0
1
 
 
 
0
 
860.8
319.2
860.8
Front
100
on
 
 
0
0
0
 
0
 
 
 
0
 
 
0
0
0
0
0
 
 
 
 
0
0


0
0
#HDR
-1
-1
#GR
nm
%R
1.0
0.0
2500.000000
-10.000000
226
8
51.949605
13.743855
#DATA
2500.000000	23.344410
2490.000000	21.850143
2480.000000	21.796625
2470.000000	22.888367
2460.000000	25.027270
2450.000000	25.135396
2440.000000	25.477459
2430.000000	26.616708
2420.000000	26.181038
2410.000000	24.990035
2400.000000	27.021638
2390.000000	25.498447
2380.000000	25.943921
2370.000000	24.656642
2360.000000	27.094970
2350.000000	26.003495
2340.000000	26.117466
2330.000000	26.829113
2320.000000	26.608811
2310.000000	25.803247
2300.000000	25.618117
2290.000000	25.581899
2280.000000	24.545540
2270.000000	25.466319
2260.000000	25.769447
2250.000000	26.798489
2240.000000	27.559333
2230.000000	28.764754
2220.000000	29.132529
2210.000000	29.078917
2200.000000	28.783824
2190.000000	28.218074
2180.000000	27.844823
2170.000000	27.637827
2160.000000	28.774851
2150.000000	29.532650
2140.000000	29.735844
2130.000000	30.334173
2120.000000	30.886028
2110.000000	31.063546
2100.000000	31.013537
2090.000000	31.298382
2080.000000	30.953464
2070.000000	30.821512
2060.000000	30.053292
2050.000000	28.846700
2040.000000	28.567256
2030.000000	28.570117
2020.000000	28.986512
2010.000000	29.426494
2000.000000	28.779716
1990.000000	28.180698
1980.000000	27.399212
1970.000000	26.566593
1960.000000	25.765406
1950.000000	25.121433
1940.000000	25.178484
1930.000000	25.508519
1920.000000	26.788590
1910.000000	28.802214
1900.000000	31.605495
1890.000000	34.976690
1880.000000	37.608192
1870.000000	39.581225
1860.000000	40.454713
1850.000000	40.843033
1840.000000	40.780814
1830.000000	40.715237
1820.000000	40.395254
1810.000000	40.138210
1800.000000	39.918518
1790.000000	39.670423
1780.000000	39.645045
1770.000000	39.338075
1760.000000	39.029194
1750.000000	38.769270
1740.000000	38.528228
1730.000000	38.330032
1720.000000	38.556966
1710.000000	39.112714
1700.000000	39.534319
1690.000000	39.842561
1680.000000	40.621974
1670.000000	41.678954
1660.000000	42.338143
1650.000000	42.545959
1640.000000	42.480496
1630.000000	42.256182
1620.000000	41.953510
1610.000000	41.606704
1600.000000	41.283175
1590.000000	40.958288
1580.000000	40.663505
1570.000000	40.367995
1560.000000	40.128222
1550.000000	39.789877
1540.000000	39.313505
1530.000000	38.755771
1520.000000	38.444931
1510.000000	38.274750
1500.000000	38.194610
1490.000000	38.214004
1480.000000	38.397809
1470.000000	38.562762
1460.000000	38.815332
1450.000000	39.212006
1440.000000	39.786360
1430.000000	40.525173
1420.000000	41.388883
1410.000000	42.476445
1400.000000	43.925657
1390.000000	45.403637
1380.000000	46.398889
1370.000000	46.908190
1360.000000	47.285207
1350.000000	47.372319
1340.000000	47.302339
1330.000000	47.205882
1320.000000	47.374681
1310.000000	47.739053
1300.000000	48.101452
1290.000000	48.277098
1280.000000	48.206081
1270.000000	48.090909
1260.000000	48.003859
1250.000000	48.060650
1240.000000	48.077174
1230.000000	47.886244
1220.000000	47.620905
1210.000000	47.357197
1200.000000	47.177360
1190.000000	47.239230
1180.000000	47.511552
1170.000000	47.955948
1160.000000	48.425733
1150.000000	48.835136
1140.000000	49.193561
1130.000000	49.433260
1120.000000	49.558841
1110.000000	49.570441
1100.000000	49.626363
1090.000000	49.624477
1080.000000	49.635617
1070.000000	49.671023
1060.000000	49.732161
1050.000000	49.767253
1040.000000	49.819881
1030.000000	49.980696
1020.000000	50.156414
1010.000000	50.501068
1000.000000	50.860169
990.000000	50.961871
980.000000	50.957936
970.000000	51.065970
960.000000	51.164124
950.000000	51.263295
940.000000	51.308999
930.000000	51.355120
920.000000	51.434208
910.000000	51.506585
900.000000	51.547994
890.000000	51.656294
880.000000	51.716672
870.000000	51.852927
860.000000	51.949605
850.000000	51.194119
840.000000	50.245373
830.000000	50.312602
820.000000	50.403919
810.000000	50.403057
800.000000	50.372036
790.000000	50.286132
780.000000	50.310301
770.000000	50.313941
760.000000	50.327773
750.000000	50.390863
740.000000	50.386608
730.000000	50.333294
720.000000	50.266905
710.000000	50.255304
700.000000	50.295583
690.000000	50.163718
680.000000	50.170699
670.000000	50.126819
660.000000	49.966492
650.000000	49.986766
640.000000	49.899978
630.000000	49.765914
620.000000	49.673381
610.000000	49.581577
600.000000	49.540450
590.000000	49.463170
580.000000	49.438357
570.000000	49.311710
560.000000	49.209916
550.000000	49.109877
540.000000	48.852622
530.000000	48.542008
520.000000	48.082700
510.000000	47.535746
500.000000	47.038698
490.000000	46.581124
480.000000	46.185574
470.000000	45.777597
460.000000	45.162540
450.000000	44.330357
440.000000	43.443969
430.000000	42.344055
420.000000	41.064812
410.000000	39.645906
400.000000	38.465914
390.000000	37.525262
380.000000	36.407220
370.000000	35.363374
360.000000	34.458481
350.000000	33.163188
340.000000	31.690744
330.000000	30.074393
320.000000	28.310115
310.000000	26.842861
300.000000	24.359240
290.000000	19.907613
280.000000	16.492889
270.000000	15.593343
260.000000	15.159279
250.000000	13.743855
