PE UV       SUBTECH     SPECTRUM    ASCII       PEDS        4.00        
   -1
3S-N10-C013.Sample.Cycle1.Raw.asc
22/03/29
15:59:23.00
22/03/29
15:59:23.00
Administrator

250.000000
1
Lambda 750
750N8071901
PerkinElmer UV WinLab 6.0.4.0738 / 1.61.00 Lambda 900

0
0
3350/servo 860.8/2
0
0
UV/VIS
1
1
1
CommonBeamDepol,150mm sphere / downward view
0
0
0
0
Program
Program
3350/servo 860.8/2
3350/0.2 860.8/0.2
3350/0.2 860.8/0.2
0
1
 
 
 
0
 
860.8
319.2
860.8
Front
100
on
 
 
0
0
0
 
0
 
 
 
0
 
 
0
0
0
0
0
 
 
 
 
0
0


0
0
#HDR
-1
-1
#GR
nm
%R
1.0
0.0
2500.000000
-10.000000
226
8
53.401891
15.051775
#DATA
2500.000000	20.286636
2490.000000	22.986346
2480.000000	20.896420
2470.000000	20.992406
2460.000000	23.774361
2450.000000	21.452454
2440.000000	24.942660
2430.000000	25.985736
2420.000000	26.520628
2410.000000	25.333610
2400.000000	26.518306
2390.000000	25.581248
2380.000000	25.547385
2370.000000	24.936991
2360.000000	25.958424
2350.000000	25.680217
2340.000000	24.866298
2330.000000	25.639455
2320.000000	26.504596
2310.000000	26.891296
2300.000000	25.248949
2290.000000	24.940559
2280.000000	25.012441
2270.000000	24.650318
2260.000000	25.378835
2250.000000	26.377683
2240.000000	27.500767
2230.000000	28.452352
2220.000000	28.514256
2210.000000	28.314141
2200.000000	27.943038
2190.000000	27.769231
2180.000000	27.822191
2170.000000	27.279936
2160.000000	27.909515
2150.000000	29.234595
2140.000000	29.203355
2130.000000	30.139523
2120.000000	30.547494
2110.000000	31.145923
2100.000000	31.193623
2090.000000	30.770521
2080.000000	30.755764
2070.000000	30.408940
2060.000000	29.603117
2050.000000	28.577003
2040.000000	28.125668
2030.000000	28.200961
2020.000000	28.831452
2010.000000	29.022243
2000.000000	28.457462
1990.000000	27.836895
1980.000000	26.839883
1970.000000	26.142058
1960.000000	25.316822
1950.000000	24.755553
1940.000000	24.643851
1930.000000	25.189701
1920.000000	26.625474
1910.000000	28.574767
1900.000000	31.489537
1890.000000	34.828816
1880.000000	37.754180
1870.000000	39.962434
1860.000000	40.803818
1850.000000	41.342742
1840.000000	41.229317
1830.000000	41.169094
1820.000000	40.794607
1810.000000	40.711583
1800.000000	40.359457
1790.000000	40.133666
1780.000000	40.004922
1770.000000	39.685797
1760.000000	39.356698
1750.000000	39.120111
1740.000000	38.840956
1730.000000	38.694632
1720.000000	39.023740
1710.000000	39.646900
1700.000000	40.040967
1690.000000	40.270908
1680.000000	41.096354
1670.000000	42.216184
1660.000000	42.959659
1650.000000	43.277693
1640.000000	43.113244
1630.000000	42.902339
1620.000000	42.539840
1610.000000	42.128602
1600.000000	41.767720
1590.000000	41.434278
1580.000000	41.127253
1570.000000	40.784208
1560.000000	40.554545
1550.000000	40.237592
1540.000000	39.746757
1530.000000	39.160825
1520.000000	38.764849
1510.000000	38.658134
1500.000000	38.565270
1490.000000	38.577093
1480.000000	38.809156
1470.000000	38.989822
1460.000000	39.220005
1450.000000	39.680984
1440.000000	40.316069
1430.000000	41.086586
1420.000000	42.018194
1410.000000	43.226139
1400.000000	44.745051
1390.000000	46.303629
1380.000000	47.336709
1370.000000	47.832555
1360.000000	48.204482
1350.000000	48.363363
1340.000000	48.328608
1330.000000	48.301723
1320.000000	48.507790
1310.000000	48.898877
1300.000000	49.227342
1290.000000	49.381033
1280.000000	49.303016
1270.000000	49.206091
1260.000000	49.189679
1250.000000	49.224031
1240.000000	49.155176
1230.000000	49.014420
1220.000000	48.807772
1210.000000	48.556609
1200.000000	48.359560
1190.000000	48.413807
1180.000000	48.677373
1170.000000	49.140107
1160.000000	49.631404
1150.000000	50.039109
1140.000000	50.364187
1130.000000	50.602125
1120.000000	50.811434
1110.000000	50.918285
1100.000000	50.956258
1090.000000	50.922068
1080.000000	50.911297
1070.000000	50.965525
1060.000000	51.074734
1050.000000	51.079858
1040.000000	51.128695
1030.000000	51.240836
1020.000000	51.394050
1010.000000	51.734861
1000.000000	52.073603
990.000000	52.204386
980.000000	52.252186
970.000000	52.365072
960.000000	52.461480
950.000000	52.574996
940.000000	52.610426
930.000000	52.622171
920.000000	52.703984
910.000000	52.750078
900.000000	52.777909
890.000000	53.131572
880.000000	53.331653
870.000000	53.401891
860.000000	53.379676
850.000000	52.527811
840.000000	51.646005
830.000000	51.598073
820.000000	51.701059
810.000000	51.840578
800.000000	51.858525
790.000000	51.816460
780.000000	51.799707
770.000000	51.816500
760.000000	51.728250
750.000000	51.803462
740.000000	51.820066
730.000000	51.798301
720.000000	51.790281
710.000000	51.803160
700.000000	51.883817
690.000000	51.856727
680.000000	51.726005
670.000000	51.649933
660.000000	51.638651
650.000000	51.648832
640.000000	51.567295
630.000000	51.521184
620.000000	51.441344
610.000000	51.385190
600.000000	51.372400
590.000000	51.329139
580.000000	51.300005
570.000000	51.221126
560.000000	51.094485
550.000000	51.053356
540.000000	50.846532
530.000000	50.524825
520.000000	50.095419
510.000000	49.628925
500.000000	49.121076
490.000000	48.645759
480.000000	48.280886
470.000000	47.912504
460.000000	47.305420
450.000000	46.508482
440.000000	45.667298
430.000000	44.642056
420.000000	43.351212
410.000000	41.907240
400.000000	40.684207
390.000000	39.667861
380.000000	38.638145
370.000000	37.878987
360.000000	37.242861
350.000000	35.615850
340.000000	33.919851
330.000000	32.451997
320.000000	30.985661
310.000000	29.398778
300.000000	26.394245
290.000000	21.592090
280.000000	17.872558
270.000000	16.797614
260.000000	16.435215
250.000000	15.051775
