PE UV       SUBTECH     SPECTRUM    ASCII       PEDS        4.00        
   -1
3S-N10-C012.Sample.Cycle1.Raw.asc
22/03/29
15:56:28.00
22/03/29
15:56:28.00
Administrator

250.000000
1
Lambda 750
750N8071901
PerkinElmer UV WinLab 6.0.4.0738 / 1.61.00 Lambda 900

0
0
3350/servo 860.8/2
0
0
UV/VIS
1
1
1
CommonBeamDepol,150mm sphere / downward view
0
0
0
0
Program
Program
3350/servo 860.8/2
3350/0.2 860.8/0.2
3350/0.2 860.8/0.2
0
1
 
 
 
0
 
860.8
319.2
860.8
Front
100
on
 
 
0
0
0
 
0
 
 
 
0
 
 
0
0
0
0
0
 
 
 
 
0
0


0
0
#HDR
-1
-1
#GR
nm
%R
1.0
0.0
2500.000000
-10.000000
226
8
53.152422
14.680619
#DATA
2500.000000	22.351045
2490.000000	23.098197
2480.000000	19.819373
2470.000000	21.945856
2460.000000	23.347501
2450.000000	22.128641
2440.000000	25.565988
2430.000000	26.185233
2420.000000	25.843032
2410.000000	27.114650
2400.000000	26.278294
2390.000000	25.192354
2380.000000	27.013722
2370.000000	24.570098
2360.000000	26.152010
2350.000000	26.732750
2340.000000	25.995439
2330.000000	26.311128
2320.000000	26.769974
2310.000000	26.136011
2300.000000	25.270879
2290.000000	25.226983
2280.000000	25.500668
2270.000000	24.780650
2260.000000	25.655099
2250.000000	26.876246
2240.000000	27.744255
2230.000000	28.432495
2220.000000	28.682353
2210.000000	28.829963
2200.000000	28.345972
2190.000000	27.582175
2180.000000	27.460766
2170.000000	27.687072
2160.000000	28.541363
2150.000000	29.143325
2140.000000	29.811553
2130.000000	30.231518
2120.000000	31.100875
2110.000000	31.297600
2100.000000	31.148084
2090.000000	31.330081
2080.000000	31.214245
2070.000000	30.997113
2060.000000	30.608676
2050.000000	28.892188
2040.000000	28.346922
2030.000000	28.655059
2020.000000	29.236728
2010.000000	29.453059
2000.000000	28.901025
1990.000000	28.161212
1980.000000	27.310726
1970.000000	26.823873
1960.000000	25.931669
1950.000000	25.264930
1940.000000	25.249316
1930.000000	25.630620
1920.000000	26.752161
1910.000000	28.920681
1900.000000	31.874526
1890.000000	35.140918
1880.000000	38.129084
1870.000000	40.012106
1860.000000	40.784680
1850.000000	41.495719
1840.000000	41.562642
1830.000000	41.433231
1820.000000	41.104140
1810.000000	40.819335
1800.000000	40.409632
1790.000000	40.361232
1780.000000	40.326026
1770.000000	39.968988
1760.000000	39.662601
1750.000000	39.369881
1740.000000	38.954170
1730.000000	38.902212
1720.000000	39.179795
1710.000000	39.804517
1700.000000	40.179838
1690.000000	40.482418
1680.000000	41.207536
1670.000000	42.391634
1660.000000	43.094429
1650.000000	43.369449
1640.000000	43.262521
1630.000000	43.069081
1620.000000	42.670753
1610.000000	42.308200
1600.000000	41.951481
1590.000000	41.637014
1580.000000	41.329054
1570.000000	41.042483
1560.000000	40.792990
1550.000000	40.462029
1540.000000	40.003285
1530.000000	39.404827
1520.000000	39.030445
1510.000000	38.891357
1500.000000	38.819635
1490.000000	38.856249
1480.000000	39.045999
1470.000000	39.281242
1460.000000	39.480928
1450.000000	39.942863
1440.000000	40.605652
1430.000000	41.322398
1420.000000	42.266167
1410.000000	43.419579
1400.000000	44.881270
1390.000000	46.377573
1380.000000	47.394202
1370.000000	47.914537
1360.000000	48.269371
1350.000000	48.412582
1340.000000	48.361002
1330.000000	48.314779
1320.000000	48.490636
1310.000000	48.905056
1300.000000	49.225047
1290.000000	49.391376
1280.000000	49.340691
1270.000000	49.216625
1260.000000	49.214140
1250.000000	49.236846
1240.000000	49.210405
1230.000000	49.061341
1220.000000	48.825109
1210.000000	48.564575
1200.000000	48.383924
1190.000000	48.490971
1180.000000	48.750237
1170.000000	49.187455
1160.000000	49.674180
1150.000000	50.039564
1140.000000	50.344188
1130.000000	50.601899
1120.000000	50.793316
1110.000000	50.877106
1100.000000	50.929344
1090.000000	50.879312
1080.000000	50.847592
1070.000000	50.906715
1060.000000	50.993257
1050.000000	51.047251
1040.000000	51.136785
1030.000000	51.248468
1020.000000	51.367140
1010.000000	51.663840
1000.000000	51.995273
990.000000	52.100080
980.000000	52.149956
970.000000	52.264048
960.000000	52.367642
950.000000	52.487226
940.000000	52.580574
930.000000	52.621952
920.000000	52.677449
910.000000	52.712417
900.000000	52.818368
890.000000	53.105285
880.000000	53.152422
870.000000	53.143695
860.000000	53.123242
850.000000	52.431248
840.000000	51.259787
830.000000	51.456587
820.000000	51.408587
810.000000	51.358390
800.000000	51.407867
790.000000	51.412387
780.000000	51.429387
770.000000	51.526338
760.000000	51.461993
750.000000	51.471545
740.000000	51.497045
730.000000	51.516144
720.000000	51.530946
710.000000	51.465034
700.000000	51.532162
690.000000	51.469815
680.000000	51.421991
670.000000	51.334013
660.000000	51.233123
650.000000	51.251175
640.000000	51.270136
630.000000	51.214383
620.000000	51.145104
610.000000	51.019124
600.000000	50.971143
590.000000	50.992165
580.000000	50.938587
570.000000	50.819937
560.000000	50.773927
550.000000	50.674493
540.000000	50.455261
530.000000	50.136403
520.000000	49.696353
510.000000	49.204932
500.000000	48.717425
490.000000	48.323944
480.000000	48.014116
470.000000	47.613565
460.000000	47.070192
450.000000	46.318558
440.000000	45.387859
430.000000	44.364365
420.000000	43.143358
410.000000	41.814472
400.000000	40.600586
390.000000	39.524472
380.000000	38.446001
370.000000	37.631605
360.000000	36.971286
350.000000	35.526908
340.000000	33.961108
330.000000	32.034765
320.000000	30.280889
310.000000	28.639124
300.000000	25.730923
290.000000	21.060204
280.000000	17.408073
270.000000	16.482504
260.000000	16.068367
250.000000	14.680619
