PE UV       SUBTECH     SPECTRUM    ASCII       PEDS        4.00        
   -1
3S-N10-C014.Sample.Cycle1.Raw.asc
22/03/29
16:03:17.00
22/03/29
16:03:17.00
Administrator

250.000000
1
Lambda 750
750N8071901
PerkinElmer UV WinLab 6.0.4.0738 / 1.61.00 Lambda 900

0
0
3350/servo 860.8/2
0
0
UV/VIS
1
1
1
CommonBeamDepol,150mm sphere / downward view
0
0
0
0
Program
Program
3350/servo 860.8/2
3350/0.2 860.8/0.2
3350/0.2 860.8/0.2
0
1
 
 
 
0
 
860.8
319.2
860.8
Front
100
on
 
 
0
0
0
 
0
 
 
 
0
 
 
0
0
0
0
0
 
 
 
 
0
0


0
0
#HDR
-1
-1
#GR
nm
%R
1.0
0.0
2500.000000
-10.000000
226
8
52.711761
14.491713
#DATA
2500.000000	23.331946
2490.000000	23.953980
2480.000000	22.730846
2470.000000	22.688694
2460.000000	23.224585
2450.000000	22.774739
2440.000000	24.991340
2430.000000	25.439769
2420.000000	25.294708
2410.000000	25.362280
2400.000000	26.737086
2390.000000	25.713820
2380.000000	26.419719
2370.000000	25.743511
2360.000000	26.016385
2350.000000	26.585122
2340.000000	25.438653
2330.000000	27.265359
2320.000000	26.023642
2310.000000	26.786008
2300.000000	25.229074
2290.000000	25.034419
2280.000000	25.997381
2270.000000	25.576565
2260.000000	25.809240
2250.000000	26.517418
2240.000000	28.101647
2230.000000	28.206218
2220.000000	29.281744
2210.000000	28.838460
2200.000000	28.585573
2190.000000	28.183015
2180.000000	28.052168
2170.000000	27.997337
2160.000000	28.262051
2150.000000	29.084995
2140.000000	29.820730
2130.000000	30.287132
2120.000000	30.932754
2110.000000	31.003885
2100.000000	31.538154
2090.000000	31.450905
2080.000000	31.490340
2070.000000	30.470998
2060.000000	30.082173
2050.000000	29.157267
2040.000000	28.817719
2030.000000	28.782473
2020.000000	29.331192
2010.000000	29.433424
2000.000000	28.950104
1990.000000	28.325921
1980.000000	27.428320
1970.000000	26.614978
1960.000000	25.823317
1950.000000	25.180190
1940.000000	24.962947
1930.000000	25.733540
1920.000000	26.850077
1910.000000	28.913971
1900.000000	31.885130
1890.000000	34.891006
1880.000000	37.672408
1870.000000	39.834440
1860.000000	40.552251
1850.000000	41.057753
1840.000000	41.128191
1830.000000	41.026919
1820.000000	40.678762
1810.000000	40.514075
1800.000000	40.109969
1790.000000	39.908186
1780.000000	39.810588
1770.000000	39.518435
1760.000000	39.273777
1750.000000	39.025082
1740.000000	38.690392
1730.000000	38.559182
1720.000000	38.895278
1710.000000	39.464518
1700.000000	39.853028
1690.000000	40.126350
1680.000000	40.873062
1670.000000	41.944212
1660.000000	42.686414
1650.000000	42.966741
1640.000000	42.875327
1630.000000	42.639158
1620.000000	42.304152
1610.000000	41.913826
1600.000000	41.552212
1590.000000	41.246387
1580.000000	40.933580
1570.000000	40.627199
1560.000000	40.399371
1550.000000	40.085652
1540.000000	39.613982
1530.000000	39.051994
1520.000000	38.676779
1510.000000	38.571832
1500.000000	38.515926
1490.000000	38.510318
1480.000000	38.720861
1470.000000	38.903484
1460.000000	39.143276
1450.000000	39.564953
1440.000000	40.181793
1430.000000	40.902148
1420.000000	41.794300
1410.000000	42.939682
1400.000000	44.387648
1390.000000	45.888071
1380.000000	46.902525
1370.000000	47.407218
1360.000000	47.742658
1350.000000	47.848636
1340.000000	47.792614
1330.000000	47.764568
1320.000000	47.973486
1310.000000	48.341393
1300.000000	48.623670
1290.000000	48.720006
1280.000000	48.635666
1270.000000	48.599496
1260.000000	48.586595
1250.000000	48.596803
1240.000000	48.543758
1230.000000	48.403067
1220.000000	48.231105
1210.000000	47.964414
1200.000000	47.770965
1190.000000	47.849234
1180.000000	48.124842
1170.000000	48.530727
1160.000000	48.989547
1150.000000	49.406313
1140.000000	49.703991
1130.000000	49.970398
1120.000000	50.176192
1110.000000	50.267329
1100.000000	50.288144
1090.000000	50.257663
1080.000000	50.238103
1070.000000	50.279856
1060.000000	50.366647
1050.000000	50.431988
1040.000000	50.527773
1030.000000	50.619745
1020.000000	50.738343
1010.000000	51.070356
1000.000000	51.415636
990.000000	51.556885
980.000000	51.587800
970.000000	51.650133
960.000000	51.715201
950.000000	51.881215
940.000000	51.977383
930.000000	51.892928
920.000000	51.915105
910.000000	52.099436
900.000000	52.245269
890.000000	52.559028
880.000000	52.711761
870.000000	52.477058
860.000000	52.508301
850.000000	51.877507
840.000000	50.625624
830.000000	50.615259
820.000000	50.568730
810.000000	50.618048
800.000000	50.773723
790.000000	50.800879
780.000000	50.732303
770.000000	50.778201
760.000000	50.787098
750.000000	50.838981
740.000000	50.796531
730.000000	50.764929
720.000000	50.716475
710.000000	50.716327
700.000000	50.789829
690.000000	50.703291
680.000000	50.573115
670.000000	50.564725
660.000000	50.517005
650.000000	50.529455
640.000000	50.469316
630.000000	50.419158
620.000000	50.377033
610.000000	50.269325
600.000000	50.219916
590.000000	50.208049
580.000000	50.165937
570.000000	50.044493
560.000000	49.986536
550.000000	49.900379
540.000000	49.719117
530.000000	49.419748
520.000000	48.951256
510.000000	48.448844
500.000000	48.009895
490.000000	47.632486
480.000000	47.278555
470.000000	46.893218
460.000000	46.330288
450.000000	45.659183
440.000000	44.831118
430.000000	43.755153
420.000000	42.490375
410.000000	41.153391
400.000000	40.003990
390.000000	39.013213
380.000000	37.995080
370.000000	37.143944
360.000000	36.314735
350.000000	34.995947
340.000000	33.663118
330.000000	31.947432
320.000000	30.368741
310.000000	28.686661
300.000000	25.571874
290.000000	20.947836
280.000000	17.385947
270.000000	16.394909
260.000000	15.949526
250.000000	14.491713
