PE UV       SUBTECH     SPECTRUM    ASCII       PEDS        4.00        
   -1
3C-H10-F015.Sample.Cycle1.Raw.asc
22/03/21
16:22:57.00
22/03/21
16:22:57.00
Administrator

250.000000
1
Lambda 750
750N8071901
PerkinElmer UV WinLab 6.0.4.0738 / 1.61.00 Lambda 900

0
0
3350/servo 860.8/2
0
0
UV/VIS
1
1
1
CommonBeamDepol,150mm sphere / downward view
0
0
0
0
Program
Program
3350/servo 860.8/2
3350/0.2 860.8/0.2
3350/0.2 860.8/0.2
0
1
 
 
 
0
 
860.8
319.2
860.8
Front
100
on
 
 
0
0
0
 
0
 
 
 
0
 
 
0
0
0
0
0
 
 
 
 
0
0


0
0
#HDR
-1
-1
#GR
nm
%R
1.0
0.0
2500.000000
-10.000000
226
8
42.201124
9.683838
#DATA
2500.000000	10.377254
2490.000000	11.415983
2480.000000	9.683838
2470.000000	14.303736
2460.000000	12.325078
2450.000000	12.572496
2440.000000	13.753752
2430.000000	12.384176
2420.000000	13.548554
2410.000000	15.677955
2400.000000	14.037718
2390.000000	12.905255
2380.000000	14.785123
2370.000000	15.119930
2360.000000	15.193950
2350.000000	14.001772
2340.000000	15.499553
2330.000000	13.140420
2320.000000	14.842265
2310.000000	14.313898
2300.000000	14.308080
2290.000000	14.774929
2280.000000	14.249499
2270.000000	13.929881
2260.000000	14.177830
2250.000000	15.123642
2240.000000	15.260556
2230.000000	16.049594
2220.000000	16.476874
2210.000000	16.074789
2200.000000	15.844741
2190.000000	15.695627
2180.000000	15.867404
2170.000000	15.570371
2160.000000	15.928778
2150.000000	16.352453
2140.000000	16.327637
2130.000000	16.815425
2120.000000	17.635929
2110.000000	17.527243
2100.000000	17.894312
2090.000000	17.934358
2080.000000	17.651559
2070.000000	17.090588
2060.000000	16.753625
2050.000000	16.044872
2040.000000	15.523523
2030.000000	16.011652
2020.000000	16.437114
2010.000000	16.598328
2000.000000	16.418874
1990.000000	15.808043
1980.000000	15.137823
1970.000000	14.912903
1960.000000	14.540866
1950.000000	14.060093
1940.000000	14.046449
1930.000000	14.362847
1920.000000	14.848269
1910.000000	16.592769
1900.000000	18.801096
1890.000000	21.401687
1880.000000	24.417399
1870.000000	26.417831
1860.000000	27.520015
1850.000000	28.427096
1840.000000	28.244422
1830.000000	27.991956
1820.000000	27.730361
1810.000000	27.374046
1800.000000	27.099271
1790.000000	27.023700
1780.000000	26.722672
1770.000000	26.408198
1760.000000	26.012780
1750.000000	25.495060
1740.000000	25.056963
1730.000000	25.037982
1720.000000	25.453292
1710.000000	26.163198
1700.000000	26.607278
1690.000000	26.775311
1680.000000	27.808866
1670.000000	29.244523
1660.000000	30.233417
1650.000000	30.640232
1640.000000	30.556854
1630.000000	30.325695
1620.000000	29.880816
1610.000000	29.294896
1600.000000	28.758459
1590.000000	28.234375
1580.000000	27.853153
1570.000000	27.512650
1560.000000	27.222733
1550.000000	26.900482
1540.000000	26.421545
1530.000000	25.871264
1520.000000	25.376818
1510.000000	25.125309
1500.000000	24.998424
1490.000000	25.062028
1480.000000	25.278884
1470.000000	25.562484
1460.000000	25.926755
1450.000000	26.446206
1440.000000	27.039274
1430.000000	27.821958
1420.000000	28.915344
1410.000000	30.576952
1400.000000	32.862817
1390.000000	35.013924
1380.000000	36.417851
1370.000000	37.151331
1360.000000	37.691174
1350.000000	38.115902
1340.000000	38.484576
1330.000000	38.892089
1320.000000	39.433277
1310.000000	39.946415
1300.000000	40.280266
1290.000000	40.341038
1280.000000	40.185334
1270.000000	40.052064
1260.000000	40.065113
1250.000000	40.087237
1240.000000	39.915076
1230.000000	39.677271
1220.000000	39.306181
1210.000000	38.912065
1200.000000	38.562167
1190.000000	38.378822
1180.000000	38.607567
1170.000000	39.311257
1160.000000	40.059807
1150.000000	40.760673
1140.000000	41.281376
1130.000000	41.668946
1120.000000	41.868346
1110.000000	41.852416
1100.000000	41.772030
1090.000000	41.669950
1080.000000	41.696564
1070.000000	41.615660
1060.000000	41.535489
1050.000000	41.437097
1040.000000	41.390440
1030.000000	41.377197
1020.000000	41.472206
1010.000000	41.674870
1000.000000	41.892211
990.000000	41.923795
980.000000	41.920323
970.000000	41.956030
960.000000	42.001506
950.000000	42.089427
940.000000	42.107360
930.000000	41.964440
920.000000	41.883288
910.000000	41.961680
900.000000	42.072879
890.000000	42.201124
880.000000	42.087206
870.000000	42.162162
860.000000	42.136324
850.000000	41.743460
840.000000	40.901890
830.000000	40.688856
820.000000	40.560386
810.000000	40.522783
800.000000	40.525177
790.000000	40.411017
780.000000	40.378085
770.000000	40.397046
760.000000	40.403786
750.000000	40.362227
740.000000	40.360463
730.000000	40.311024
720.000000	40.246462
710.000000	40.178495
700.000000	40.157316
690.000000	40.034772
680.000000	39.993061
670.000000	39.963425
660.000000	39.828368
650.000000	39.742093
640.000000	39.660739
630.000000	39.588669
620.000000	39.539629
610.000000	39.397624
600.000000	39.262639
590.000000	39.164084
580.000000	38.979917
570.000000	38.786723
560.000000	38.671986
550.000000	38.469974
540.000000	38.158719
530.000000	37.835965
520.000000	37.422747
510.000000	36.927256
500.000000	36.426014
490.000000	35.950819
480.000000	35.390569
470.000000	34.717291
460.000000	33.978434
450.000000	33.103980
440.000000	32.083985
430.000000	30.889263
420.000000	29.374474
410.000000	27.690744
400.000000	26.275025
390.000000	25.377952
380.000000	24.617424
370.000000	24.012108
360.000000	23.535683
350.000000	22.743519
340.000000	22.024332
330.000000	21.301994
320.000000	20.465120
310.000000	19.995101
300.000000	18.816218
290.000000	16.595187
280.000000	15.117206
270.000000	14.858308
260.000000	14.820950
250.000000	13.850513
