PE UV       SUBTECH     SPECTRUM    ASCII       PEDS        4.00        
   -1
3C-N10-F021.Sample.Raw.asc
22/03/25
15:49:27.00
22/03/25
15:49:27.00
Administrator

250.000000
1
Lambda 750
750N8071901
PerkinElmer UV WinLab 6.0.4.0738 / 1.61.00 Lambda 900

0
0
3350/servo 860.8/2
0
0
UV/VIS
1
1
1
CommonBeamDepol,150mm sphere / downward view
0
0
0
0
Program
Program
3350/servo 860.8/2
3350/0.2 860.8/0.2
3350/0.2 860.8/0.2
0
1
 
 
 
0
 
860.8
319.2
860.8
Front
100
on
 
 
0
0
0
 
0
 
 
 
0
 
 
0
0
0
0
0
 
 
 
 
0
0


0
0
#HDR
-1
-1
#GR
nm
%R
1.0
0.0
2500.000000
-10.000000
226
8
40.996807
9.889583
#DATA
2500.000000	9.889583
2490.000000	12.790543
2480.000000	12.003478
2470.000000	12.899324
2460.000000	10.943171
2450.000000	13.187470
2440.000000	12.913206
2430.000000	13.666967
2420.000000	12.444603
2410.000000	14.665183
2400.000000	13.521833
2390.000000	14.136636
2380.000000	15.641405
2370.000000	14.348698
2360.000000	13.188656
2350.000000	13.362403
2340.000000	13.898857
2330.000000	14.330231
2320.000000	14.835204
2310.000000	13.477992
2300.000000	12.445331
2290.000000	13.293635
2280.000000	13.413349
2270.000000	13.580303
2260.000000	13.612126
2250.000000	13.851905
2240.000000	14.413444
2230.000000	15.035053
2220.000000	15.535485
2210.000000	15.882741
2200.000000	14.245181
2190.000000	14.886548
2180.000000	14.306186
2170.000000	14.681477
2160.000000	15.379534
2150.000000	15.046631
2140.000000	15.786024
2130.000000	16.611274
2120.000000	16.620174
2110.000000	17.071491
2100.000000	17.036110
2090.000000	16.896765
2080.000000	16.910861
2070.000000	16.361207
2060.000000	15.766293
2050.000000	15.739214
2040.000000	15.140912
2030.000000	15.187579
2020.000000	15.398499
2010.000000	15.537512
2000.000000	15.383764
1990.000000	14.884831
1980.000000	14.543437
1970.000000	14.053067
1960.000000	13.627083
1950.000000	13.239180
1940.000000	12.984831
1930.000000	13.324121
1920.000000	14.270686
1910.000000	15.540263
1900.000000	17.772545
1890.000000	20.401345
1880.000000	23.177367
1870.000000	25.137188
1860.000000	26.225869
1850.000000	26.513581
1840.000000	26.665258
1830.000000	26.519676
1820.000000	26.143477
1810.000000	26.046771
1800.000000	25.829012
1790.000000	25.484299
1780.000000	25.297676
1770.000000	24.938176
1760.000000	24.555978
1750.000000	24.368622
1740.000000	24.106585
1730.000000	23.908361
1720.000000	24.237495
1710.000000	24.764966
1700.000000	25.138583
1690.000000	25.503391
1680.000000	26.373738
1670.000000	27.581241
1660.000000	28.413924
1650.000000	28.706574
1640.000000	28.687230
1630.000000	28.365466
1620.000000	28.003459
1610.000000	27.510192
1600.000000	27.016586
1590.000000	26.611749
1580.000000	26.274183
1570.000000	25.942268
1560.000000	25.654335
1550.000000	25.423788
1540.000000	24.963859
1530.000000	24.442150
1520.000000	24.010783
1510.000000	23.732304
1500.000000	23.664027
1490.000000	23.651167
1480.000000	23.812140
1470.000000	24.113213
1460.000000	24.409195
1450.000000	24.827999
1440.000000	25.420563
1430.000000	26.135138
1420.000000	27.105247
1410.000000	28.583848
1400.000000	30.536086
1390.000000	32.518612
1380.000000	33.829728
1370.000000	34.453535
1360.000000	34.827082
1350.000000	35.180816
1340.000000	35.414888
1330.000000	35.701221
1320.000000	36.231173
1310.000000	36.786067
1300.000000	37.236029
1290.000000	37.365095
1280.000000	37.316668
1270.000000	37.251492
1260.000000	37.221050
1250.000000	37.204024
1240.000000	37.088493
1230.000000	36.909513
1220.000000	36.650348
1210.000000	36.324722
1200.000000	36.038384
1190.000000	35.910918
1180.000000	36.162747
1170.000000	36.805832
1160.000000	37.585379
1150.000000	38.133626
1140.000000	38.562397
1130.000000	38.864772
1120.000000	39.034506
1110.000000	39.167623
1100.000000	39.221099
1090.000000	39.233754
1080.000000	39.180342
1070.000000	39.110022
1060.000000	39.094316
1050.000000	39.068549
1040.000000	39.080189
1030.000000	39.131397
1020.000000	39.224282
1010.000000	39.479169
1000.000000	39.803443
990.000000	39.964053
980.000000	39.959290
970.000000	40.045311
960.000000	40.208834
950.000000	40.322090
940.000000	40.319175
930.000000	40.330675
920.000000	40.304238
910.000000	40.396136
900.000000	40.509406
890.000000	40.658502
880.000000	40.765204
870.000000	40.827927
860.000000	40.996807
850.000000	40.704833
840.000000	40.046890
830.000000	40.180421
820.000000	40.336439
810.000000	40.420349
800.000000	40.351602
790.000000	40.235048
780.000000	40.263738
770.000000	40.272078
760.000000	40.320156
750.000000	40.308489
740.000000	40.320890
730.000000	40.370080
720.000000	40.425151
710.000000	40.362521
700.000000	40.373228
690.000000	40.389124
680.000000	40.401621
670.000000	40.399011
660.000000	40.380500
650.000000	40.392971
640.000000	40.306529
630.000000	40.251914
620.000000	40.216046
610.000000	40.157624
600.000000	40.114496
590.000000	40.085157
580.000000	40.031307
570.000000	39.906304
560.000000	39.816172
550.000000	39.666706
540.000000	39.406844
530.000000	39.129612
520.000000	38.781076
510.000000	38.369869
500.000000	37.958963
490.000000	37.550086
480.000000	37.029202
470.000000	36.458415
460.000000	35.773811
450.000000	34.886774
440.000000	33.871859
430.000000	32.520492
420.000000	30.777381
410.000000	28.744996
400.000000	27.033001
390.000000	26.014058
380.000000	25.204852
370.000000	24.537757
360.000000	23.973588
350.000000	23.092002
340.000000	22.014420
330.000000	20.807604
320.000000	20.176188
310.000000	19.942167
300.000000	18.593838
290.000000	16.190581
280.000000	14.639131
270.000000	14.572095
260.000000	14.446807
250.000000	13.194832
