PE UV       SUBTECH     SPECTRUM    ASCII       PEDS        4.00        
   -1
3G-N10-C028.Sample.Raw.asc
22/04/20
12:05:14.00
22/04/20
12:05:14.00
Administrator

250.000000
1
Lambda 750
750N8071901
PerkinElmer UV WinLab 6.0.4.0738 / 1.61.00 Lambda 900

0
0
3350/servo 860.8/2
0
0
UV/VIS
1
1
1
CommonBeamDepol,150mm sphere / downward view
0
0
0
0
Program
Program
3350/servo 860.8/2
3350/0.2 860.8/0.2
3350/0.2 860.8/0.2
0
1
 
 
 
0
 
860.8
319.2
860.8
Front
100
on
 
 
0
0
0
 
0
 
 
 
0
 
 
0
0
0
0
0
 
 
 
 
0
0


0
0
#HDR
-1
-1
#GR
nm
%R
1.0
0.0
2500.000000
-10.000000
226
8
63.367197
18.784790
#DATA
2500.000000	26.387788
2490.000000	26.956950
2480.000000	22.365866
2470.000000	26.792938
2460.000000	25.758704
2450.000000	29.453531
2440.000000	28.739333
2430.000000	28.824118
2420.000000	29.264029
2410.000000	29.196111
2400.000000	29.331040
2390.000000	28.415731
2380.000000	27.840011
2370.000000	32.652299
2360.000000	27.501024
2350.000000	31.328594
2340.000000	31.113729
2330.000000	31.992746
2320.000000	33.367456
2310.000000	28.228381
2300.000000	28.552702
2290.000000	30.275643
2280.000000	30.109508
2270.000000	31.988363
2260.000000	29.724008
2250.000000	30.519051
2240.000000	33.405257
2230.000000	32.637071
2220.000000	36.189031
2210.000000	32.422434
2200.000000	32.346636
2190.000000	33.333545
2180.000000	32.293822
2170.000000	30.166994
2160.000000	33.053821
2150.000000	32.819785
2140.000000	33.684536
2130.000000	36.579986
2120.000000	36.543329
2110.000000	35.259645
2100.000000	36.821277
2090.000000	35.627039
2080.000000	35.434925
2070.000000	35.056039
2060.000000	34.076746
2050.000000	33.797762
2040.000000	33.720444
2030.000000	33.228582
2020.000000	33.711353
2010.000000	33.645990
2000.000000	33.387378
1990.000000	33.249416
1980.000000	32.202296
1970.000000	30.739459
1960.000000	30.325234
1950.000000	29.177181
1940.000000	29.217328
1930.000000	30.205927
1920.000000	31.315715
1910.000000	33.054153
1900.000000	37.495174
1890.000000	41.386788
1880.000000	44.553756
1870.000000	47.240665
1860.000000	48.428167
1850.000000	49.084711
1840.000000	48.833130
1830.000000	48.660365
1820.000000	48.406152
1810.000000	48.141905
1800.000000	47.845220
1790.000000	47.484045
1780.000000	47.238563
1770.000000	46.776508
1760.000000	46.371789
1750.000000	45.930315
1740.000000	45.587487
1730.000000	45.503831
1720.000000	45.978676
1710.000000	46.412845
1700.000000	46.875983
1690.000000	47.523135
1680.000000	48.621932
1670.000000	49.790553
1660.000000	50.864480
1650.000000	51.141121
1640.000000	51.121393
1630.000000	50.833558
1620.000000	50.458874
1610.000000	49.773666
1600.000000	49.191197
1590.000000	48.699645
1580.000000	48.321092
1570.000000	48.002059
1560.000000	47.794056
1550.000000	47.375325
1540.000000	46.874940
1530.000000	46.396240
1520.000000	45.851596
1510.000000	45.539568
1500.000000	45.252785
1490.000000	45.259257
1480.000000	45.542364
1470.000000	46.038286
1460.000000	46.392959
1450.000000	46.951141
1440.000000	47.714389
1430.000000	48.325950
1420.000000	48.974438
1410.000000	50.301837
1400.000000	52.596976
1390.000000	55.318494
1380.000000	56.871510
1370.000000	57.308497
1360.000000	57.344725
1350.000000	57.424846
1340.000000	57.512873
1330.000000	57.960149
1320.000000	59.316742
1310.000000	60.317337
1300.000000	60.727576
1290.000000	60.861218
1280.000000	60.227911
1270.000000	59.944049
1260.000000	60.075469
1250.000000	60.074831
1240.000000	60.166395
1230.000000	59.833440
1220.000000	59.509012
1210.000000	59.311941
1200.000000	58.951781
1190.000000	59.015156
1180.000000	59.195604
1170.000000	59.726854
1160.000000	60.314035
1150.000000	60.751661
1140.000000	61.036039
1130.000000	61.412746
1120.000000	61.686985
1110.000000	62.026169
1100.000000	62.076547
1090.000000	62.043721
1080.000000	61.899442
1070.000000	61.845997
1060.000000	61.840364
1050.000000	61.759868
1040.000000	61.511297
1030.000000	61.567614
1020.000000	61.785550
1010.000000	62.069376
1000.000000	62.673261
990.000000	62.824769
980.000000	62.681479
970.000000	62.770034
960.000000	62.868138
950.000000	63.071618
940.000000	63.134565
930.000000	63.083341
920.000000	62.675553
910.000000	62.867541
900.000000	63.367197
890.000000	63.075044
880.000000	63.035668
870.000000	62.935387
860.000000	62.478926
850.000000	62.694762
840.000000	63.027650
830.000000	62.763150
820.000000	62.573733
810.000000	62.878079
800.000000	62.809044
790.000000	62.708015
780.000000	62.618072
770.000000	62.760792
760.000000	62.704010
750.000000	62.627250
740.000000	62.747481
730.000000	62.708683
720.000000	62.621365
710.000000	62.685209
700.000000	62.685204
690.000000	62.582121
680.000000	62.588953
670.000000	62.458705
660.000000	62.420755
650.000000	62.332189
640.000000	62.200379
630.000000	62.109101
620.000000	61.907929
610.000000	61.598880
600.000000	61.489746
590.000000	61.304382
580.000000	61.119178
570.000000	60.881521
560.000000	60.617172
550.000000	60.313291
540.000000	59.939737
530.000000	59.620678
520.000000	59.230530
510.000000	58.740320
500.000000	58.212980
490.000000	57.532170
480.000000	56.868891
470.000000	56.188918
460.000000	55.318100
450.000000	54.246248
440.000000	53.018464
430.000000	51.685181
420.000000	50.203163
410.000000	48.572852
400.000000	47.034429
390.000000	45.707309
380.000000	44.197658
370.000000	42.503026
360.000000	40.702422
350.000000	39.510924
340.000000	38.326260
330.000000	36.264869
320.000000	34.548988
310.000000	32.486170
300.000000	30.204596
290.000000	25.782189
280.000000	21.961004
270.000000	20.905437
260.000000	20.690027
250.000000	18.784790
