PE UV       SUBTECH     SPECTRUM    ASCII       PEDS        4.00        
   -1
3G-H10-F023.Sample.Cycle1.Raw.asc
22/04/19
17:43:34.00
22/04/19
17:43:34.00
Administrator

250.000000
1
Lambda 750
750N8071901
PerkinElmer UV WinLab 6.0.4.0738 / 1.61.00 Lambda 900

0
0
3350/servo 860.8/2
0
0
UV/VIS
1
1
1
CommonBeamDepol,150mm sphere / downward view
0
0
0
0
Program
Program
3350/servo 860.8/2
3350/0.2 860.8/0.2
3350/0.2 860.8/0.2
0
1
 
 
 
0
 
860.8
319.2
860.8
Front
100
on
 
 
0
0
0
 
0
 
 
 
0
 
 
0
0
0
0
0
 
 
 
 
0
0


0
0
#HDR
-1
-1
#GR
nm
%R
1.0
0.0
2500.000000
-10.000000
226
8
65.867210
8.523194
#DATA
2500.000000	10.279756
2490.000000	10.438400
2480.000000	8.523194
2470.000000	18.730184
2460.000000	15.201303
2450.000000	18.033418
2440.000000	14.411436
2430.000000	20.358872
2420.000000	16.654140
2410.000000	22.555160
2400.000000	19.164022
2390.000000	18.834095
2380.000000	17.748794
2370.000000	15.453277
2360.000000	21.308436
2350.000000	19.957517
2340.000000	21.086730
2330.000000	18.545304
2320.000000	20.561091
2310.000000	16.924005
2300.000000	17.402405
2290.000000	16.542860
2280.000000	19.018850
2270.000000	19.735128
2260.000000	17.714348
2250.000000	19.812727
2240.000000	21.389504
2230.000000	19.607044
2220.000000	21.404719
2210.000000	22.803203
2200.000000	19.859359
2190.000000	21.223628
2180.000000	22.230684
2170.000000	19.271309
2160.000000	22.104817
2150.000000	21.502063
2140.000000	22.214855
2130.000000	21.824951
2120.000000	23.862949
2110.000000	24.623792
2100.000000	25.111111
2090.000000	24.471357
2080.000000	23.558953
2070.000000	22.691521
2060.000000	23.094762
2050.000000	22.245821
2040.000000	21.356727
2030.000000	22.357045
2020.000000	22.457115
2010.000000	22.377003
2000.000000	22.136809
1990.000000	21.761954
1980.000000	20.904801
1970.000000	19.986615
1960.000000	19.423152
1950.000000	19.052764
1940.000000	18.339327
1930.000000	18.843057
1920.000000	20.833522
1910.000000	23.067729
1900.000000	26.339649
1890.000000	30.628483
1880.000000	34.528197
1870.000000	38.311089
1860.000000	40.662372
1850.000000	41.107661
1840.000000	40.519973
1830.000000	40.235143
1820.000000	39.958306
1810.000000	39.743434
1800.000000	39.338905
1790.000000	38.698078
1780.000000	38.109326
1770.000000	37.625937
1760.000000	36.798855
1750.000000	36.377386
1740.000000	35.933613
1730.000000	35.510856
1720.000000	36.077262
1710.000000	37.238451
1700.000000	37.748574
1690.000000	38.516101
1680.000000	40.469880
1670.000000	42.418975
1660.000000	43.747106
1650.000000	44.535199
1640.000000	44.307239
1630.000000	43.762637
1620.000000	43.230366
1610.000000	42.335499
1600.000000	41.643389
1590.000000	40.824612
1580.000000	40.203236
1570.000000	39.715138
1560.000000	39.145508
1550.000000	38.642330
1540.000000	37.901796
1530.000000	36.958728
1520.000000	36.223444
1510.000000	35.766621
1500.000000	35.685271
1490.000000	35.653800
1480.000000	36.033093
1470.000000	36.558711
1460.000000	36.982494
1450.000000	37.766142
1440.000000	38.787941
1430.000000	40.023075
1420.000000	41.498416
1410.000000	43.852987
1400.000000	47.431245
1390.000000	51.388488
1380.000000	53.941702
1370.000000	55.042041
1360.000000	55.825199
1350.000000	56.478808
1340.000000	56.922769
1330.000000	57.595537
1320.000000	58.860825
1310.000000	60.194427
1300.000000	60.924389
1290.000000	61.295171
1280.000000	61.109444
1270.000000	60.695066
1260.000000	60.719405
1250.000000	60.504016
1240.000000	60.270515
1230.000000	59.905066
1220.000000	59.363926
1210.000000	58.586387
1200.000000	58.052194
1190.000000	57.895489
1180.000000	58.306830
1170.000000	59.568509
1160.000000	61.004272
1150.000000	62.051698
1140.000000	63.172939
1130.000000	64.002879
1120.000000	64.232509
1110.000000	64.203623
1100.000000	64.102515
1090.000000	64.329397
1080.000000	64.289822
1070.000000	64.022198
1060.000000	64.011762
1050.000000	63.965506
1040.000000	64.000606
1030.000000	63.872094
1020.000000	64.050654
1010.000000	64.583647
1000.000000	65.230486
990.000000	65.473291
980.000000	65.174309
970.000000	65.188224
960.000000	65.363961
950.000000	65.666845
940.000000	65.867210
930.000000	65.564705
920.000000	65.199513
910.000000	65.251226
900.000000	65.542004
890.000000	65.586973
880.000000	65.483148
870.000000	65.042280
860.000000	65.189429
850.000000	65.395838
840.000000	64.893673
830.000000	64.921509
820.000000	65.007225
810.000000	64.607974
800.000000	64.324831
790.000000	64.354565
780.000000	64.265690
770.000000	64.316041
760.000000	64.339829
750.000000	63.989727
740.000000	63.696338
730.000000	63.623646
720.000000	63.509341
710.000000	63.237320
700.000000	62.813982
690.000000	62.394582
680.000000	62.093074
670.000000	61.763333
660.000000	61.407584
650.000000	60.940022
640.000000	60.435276
630.000000	59.826674
620.000000	59.270526
610.000000	58.590543
600.000000	57.960027
590.000000	57.455200
580.000000	56.806359
570.000000	56.188996
560.000000	55.501480
550.000000	54.663953
540.000000	53.782732
530.000000	52.934407
520.000000	52.000050
510.000000	50.992865
500.000000	49.837724
490.000000	48.574802
480.000000	47.223112
470.000000	45.651141
460.000000	43.914379
450.000000	41.875663
440.000000	39.673834
430.000000	37.503944
420.000000	35.271616
410.000000	33.455980
400.000000	32.440872
390.000000	31.619064
380.000000	30.597729
370.000000	29.482613
360.000000	28.430548
350.000000	27.183711
340.000000	25.931093
330.000000	25.200860
320.000000	24.237680
310.000000	22.405434
300.000000	20.229459
290.000000	17.793342
280.000000	16.492819
270.000000	16.285581
260.000000	16.287991
250.000000	15.420512
