PE UV       SUBTECH     SPECTRUM    ASCII       PEDS        4.00        
   -1
3G-H10-F013.Sample.Cycle1.Raw.asc
22/04/19
17:13:47.00
22/04/19
17:13:47.00
Administrator

250.000000
1
Lambda 750
750N8071901
PerkinElmer UV WinLab 6.0.4.0738 / 1.61.00 Lambda 900

0
0
3350/servo 860.8/2
0
0
UV/VIS
1
1
1
CommonBeamDepol,150mm sphere / downward view
0
0
0
0
Program
Program
3350/servo 860.8/2
3350/0.2 860.8/0.2
3350/0.2 860.8/0.2
0
1
 
 
 
0
 
860.8
319.2
860.8
Front
100
on
 
 
0
0
0
 
0
 
 
 
0
 
 
0
0
0
0
0
 
 
 
 
0
0


0
0
#HDR
-1
-1
#GR
nm
%R
1.0
0.0
2500.000000
-10.000000
226
8
65.569072
11.097500
#DATA
2500.000000	11.534131
2490.000000	11.114602
2480.000000	11.097500
2470.000000	17.069799
2460.000000	18.002560
2450.000000	18.786260
2440.000000	11.949640
2430.000000	20.413265
2420.000000	19.681460
2410.000000	20.689934
2400.000000	19.312701
2390.000000	19.393555
2380.000000	23.097183
2370.000000	15.756488
2360.000000	20.650384
2350.000000	20.515025
2340.000000	19.905799
2330.000000	20.210809
2320.000000	17.801876
2310.000000	16.900001
2300.000000	18.117404
2290.000000	17.302931
2280.000000	17.293808
2270.000000	18.679362
2260.000000	16.950462
2250.000000	20.201669
2240.000000	22.155868
2230.000000	20.599628
2220.000000	21.927098
2210.000000	21.769717
2200.000000	19.982530
2190.000000	19.873973
2180.000000	21.008979
2170.000000	19.277701
2160.000000	21.907526
2150.000000	22.395729
2140.000000	23.111856
2130.000000	22.747069
2120.000000	22.189607
2110.000000	23.823648
2100.000000	25.330212
2090.000000	23.006055
2080.000000	22.614573
2070.000000	22.716140
2060.000000	21.843458
2050.000000	21.800701
2040.000000	21.453002
2030.000000	22.056055
2020.000000	21.975814
2010.000000	22.484012
2000.000000	22.464615
1990.000000	21.300676
1980.000000	20.701256
1970.000000	19.954778
1960.000000	19.639552
1950.000000	18.494218
1940.000000	18.571868
1930.000000	19.234120
1920.000000	20.280431
1910.000000	22.377461
1900.000000	25.413958
1890.000000	29.723182
1880.000000	33.869658
1870.000000	37.371309
1860.000000	38.672830
1850.000000	39.330281
1840.000000	39.100353
1830.000000	38.972671
1820.000000	38.711328
1810.000000	38.554889
1800.000000	37.897361
1790.000000	37.213408
1780.000000	37.004596
1770.000000	36.369785
1760.000000	35.711305
1750.000000	35.250166
1740.000000	34.546668
1730.000000	34.464846
1720.000000	34.838726
1710.000000	35.822535
1700.000000	36.453677
1690.000000	37.478518
1680.000000	39.352436
1670.000000	41.141948
1660.000000	42.507974
1650.000000	43.274636
1640.000000	42.935474
1630.000000	42.627812
1620.000000	41.899076
1610.000000	41.129898
1600.000000	40.345232
1590.000000	39.592463
1580.000000	38.989232
1570.000000	38.397119
1560.000000	37.872793
1550.000000	37.390303
1540.000000	36.624142
1530.000000	35.808424
1520.000000	35.178864
1510.000000	34.873614
1500.000000	34.493720
1490.000000	34.535487
1480.000000	34.875225
1470.000000	35.420267
1460.000000	35.914510
1450.000000	36.675233
1440.000000	37.662329
1430.000000	38.828049
1420.000000	40.416478
1410.000000	42.817864
1400.000000	46.371002
1390.000000	50.251256
1380.000000	52.918738
1370.000000	54.135362
1360.000000	54.907247
1350.000000	55.649870
1340.000000	56.274294
1330.000000	57.204930
1320.000000	58.489579
1310.000000	59.824770
1300.000000	60.568955
1290.000000	60.897863
1280.000000	60.606397
1270.000000	60.148450
1260.000000	60.096120
1250.000000	60.014037
1240.000000	59.643998
1230.000000	59.243386
1220.000000	58.705694
1210.000000	57.961746
1200.000000	57.392481
1190.000000	57.200652
1180.000000	57.755767
1170.000000	58.839891
1160.000000	60.371197
1150.000000	61.688868
1140.000000	62.755109
1130.000000	63.463738
1120.000000	64.018221
1110.000000	64.192072
1100.000000	64.069846
1090.000000	64.185463
1080.000000	64.166496
1070.000000	63.837004
1060.000000	63.678973
1050.000000	63.677002
1040.000000	63.644570
1030.000000	63.563174
1020.000000	63.665273
1010.000000	64.060067
1000.000000	64.652549
990.000000	64.831953
980.000000	64.787163
970.000000	64.928198
960.000000	65.031486
950.000000	65.384876
940.000000	65.376006
930.000000	65.152386
920.000000	64.955596
910.000000	64.933806
900.000000	65.436081
890.000000	65.558507
880.000000	65.569072
870.000000	65.151559
860.000000	64.691862
850.000000	65.325948
840.000000	65.461023
830.000000	65.432372
820.000000	65.286906
810.000000	65.090844
800.000000	64.880626
790.000000	64.825668
780.000000	64.637321
770.000000	64.755414
760.000000	64.675156
750.000000	64.252523
740.000000	64.047150
730.000000	63.921444
720.000000	63.873578
710.000000	63.606433
700.000000	63.227288
690.000000	62.740135
680.000000	62.421157
670.000000	62.154889
660.000000	61.641717
650.000000	61.111718
640.000000	60.465032
630.000000	59.794509
620.000000	59.229844
610.000000	58.447464
600.000000	57.837006
590.000000	57.244981
580.000000	56.531733
570.000000	55.847918
560.000000	55.195186
550.000000	54.373819
540.000000	53.466417
530.000000	52.613633
520.000000	51.713533
510.000000	50.644240
500.000000	49.401043
490.000000	48.049973
480.000000	46.585228
470.000000	45.034592
460.000000	43.325963
450.000000	41.138639
440.000000	38.910596
430.000000	36.683536
420.000000	34.408361
410.000000	32.729781
400.000000	31.825429
390.000000	31.113332
380.000000	30.243276
370.000000	29.199463
360.000000	28.108934
350.000000	26.964678
340.000000	25.649745
330.000000	24.588444
320.000000	23.866375
310.000000	22.923736
300.000000	21.728179
290.000000	18.826682
280.000000	16.986938
270.000000	16.776709
260.000000	16.685236
250.000000	15.897665
