PE UV       SUBTECH     SPECTRUM    ASCII       PEDS        4.00        
   -1
3G-N10-C017.Sample.Raw.asc
22/04/20
11:33:12.00
22/04/20
11:33:12.00
Administrator

250.000000
1
Lambda 750
750N8071901
PerkinElmer UV WinLab 6.0.4.0738 / 1.61.00 Lambda 900

0
0
3350/servo 860.8/2
0
0
UV/VIS
1
1
1
CommonBeamDepol,150mm sphere / downward view
0
0
0
0
Program
Program
3350/servo 860.8/2
3350/0.2 860.8/0.2
3350/0.2 860.8/0.2
0
1
 
 
 
0
 
860.8
319.2
860.8
Front
100
on
 
 
0
0
0
 
0
 
 
 
0
 
 
0
0
0
0
0
 
 
 
 
0
0


0
0
#HDR
-1
-1
#GR
nm
%R
1.0
0.0
2500.000000
-10.000000
226
8
64.996348
19.485364
#DATA
2500.000000	23.231812
2490.000000	29.583829
2480.000000	28.981210
2470.000000	26.334804
2460.000000	24.619732
2450.000000	32.415408
2440.000000	31.026093
2430.000000	28.750417
2420.000000	28.159761
2410.000000	29.441598
2400.000000	30.426717
2390.000000	29.796204
2380.000000	32.798044
2370.000000	35.063070
2360.000000	31.949634
2350.000000	35.103645
2340.000000	31.896897
2330.000000	31.654909
2320.000000	29.843824
2310.000000	30.506603
2300.000000	30.438910
2290.000000	27.626965
2280.000000	25.936445
2270.000000	30.161845
2260.000000	30.718368
2250.000000	32.410369
2240.000000	33.053750
2230.000000	34.163517
2220.000000	34.164321
2210.000000	33.976284
2200.000000	34.441597
2190.000000	34.303550
2180.000000	32.679301
2170.000000	32.387786
2160.000000	31.630788
2150.000000	34.801885
2140.000000	34.639033
2130.000000	36.377216
2120.000000	37.854081
2110.000000	35.377608
2100.000000	35.954761
2090.000000	36.419847
2080.000000	37.074393
2070.000000	36.240686
2060.000000	35.424603
2050.000000	33.850303
2040.000000	33.075471
2030.000000	34.122559
2020.000000	34.245626
2010.000000	35.263573
2000.000000	34.580400
1990.000000	33.413602
1980.000000	32.242321
1970.000000	31.298947
1960.000000	30.906334
1950.000000	29.889123
1940.000000	29.774327
1930.000000	30.226748
1920.000000	31.711289
1910.000000	33.860367
1900.000000	38.924297
1890.000000	42.578799
1880.000000	45.858646
1870.000000	47.574548
1860.000000	49.470093
1850.000000	50.320176
1840.000000	50.022880
1830.000000	50.328782
1820.000000	49.363035
1810.000000	49.046917
1800.000000	48.778883
1790.000000	48.854094
1780.000000	48.535103
1770.000000	48.022672
1760.000000	47.554565
1750.000000	46.687646
1740.000000	46.520538
1730.000000	46.647350
1720.000000	47.148492
1710.000000	47.981925
1700.000000	48.102737
1690.000000	48.160438
1680.000000	49.587961
1670.000000	51.175730
1660.000000	52.221801
1650.000000	52.440114
1640.000000	52.388133
1630.000000	52.029952
1620.000000	51.620330
1610.000000	50.983993
1600.000000	50.412287
1590.000000	49.839753
1580.000000	49.472177
1570.000000	49.036098
1560.000000	48.951557
1550.000000	48.489622
1540.000000	48.029707
1530.000000	47.358013
1520.000000	46.857367
1510.000000	46.564223
1500.000000	46.374702
1490.000000	46.314331
1480.000000	46.607412
1470.000000	47.083515
1460.000000	47.443472
1450.000000	47.959066
1440.000000	48.830199
1430.000000	49.504868
1420.000000	50.390075
1410.000000	51.802951
1400.000000	54.020709
1390.000000	56.572732
1380.000000	58.131820
1370.000000	58.909436
1360.000000	58.952994
1350.000000	58.965827
1340.000000	58.997081
1330.000000	59.450522
1320.000000	60.836526
1310.000000	61.744575
1300.000000	62.176993
1290.000000	62.098059
1280.000000	61.632445
1270.000000	61.509769
1260.000000	61.592011
1250.000000	61.618387
1240.000000	61.592822
1230.000000	61.218404
1220.000000	60.947758
1210.000000	60.761507
1200.000000	60.399254
1190.000000	60.260690
1180.000000	60.492912
1170.000000	61.079656
1160.000000	61.738175
1150.000000	62.263372
1140.000000	62.514989
1130.000000	63.056702
1120.000000	63.396195
1110.000000	63.469219
1100.000000	63.509157
1090.000000	63.502789
1080.000000	63.426452
1070.000000	63.393677
1060.000000	63.320569
1050.000000	63.387635
1040.000000	63.333966
1030.000000	63.411383
1020.000000	63.541293
1010.000000	63.795319
1000.000000	64.336311
990.000000	64.486360
980.000000	64.383374
970.000000	64.409460
960.000000	64.502520
950.000000	64.521562
940.000000	64.573207
930.000000	64.575987
920.000000	64.315662
910.000000	64.522377
900.000000	64.650919
890.000000	64.700197
880.000000	64.996348
870.000000	64.709509
860.000000	63.886923
850.000000	63.944480
840.000000	64.518419
830.000000	64.309650
820.000000	64.061225
810.000000	64.234251
800.000000	64.027302
790.000000	63.821754
780.000000	63.916934
770.000000	64.144341
760.000000	63.951509
750.000000	63.884606
740.000000	63.889307
730.000000	63.953236
720.000000	63.951236
710.000000	63.852585
700.000000	63.873434
690.000000	63.806997
680.000000	63.710101
670.000000	63.680194
660.000000	63.602116
650.000000	63.463028
640.000000	63.282252
630.000000	63.138064
620.000000	63.016565
610.000000	62.745373
600.000000	62.487453
590.000000	62.303732
580.000000	62.116729
570.000000	61.782345
560.000000	61.527207
550.000000	61.213271
540.000000	60.874180
530.000000	60.487577
520.000000	60.026105
510.000000	59.574255
500.000000	59.030735
490.000000	58.341773
480.000000	57.757294
470.000000	56.960480
460.000000	56.101560
450.000000	55.144870
440.000000	53.898659
430.000000	52.562048
420.000000	50.882603
410.000000	49.286122
400.000000	47.829180
390.000000	46.574330
380.000000	45.177068
370.000000	43.712177
360.000000	42.209375
350.000000	41.100303
340.000000	39.505449
330.000000	37.797958
320.000000	36.271383
310.000000	34.050246
300.000000	31.154275
290.000000	26.463185
280.000000	22.543911
270.000000	21.632884
260.000000	21.261924
250.000000	19.485364
