PE UV       SUBTECH     SPECTRUM    ASCII       PEDS        4.00        
   -1
3G-H10-F028.Sample.Cycle1.Raw.asc
22/04/19
17:57:53.00
22/04/19
17:57:53.00
Administrator

250.000000
1
Lambda 750
750N8071901
PerkinElmer UV WinLab 6.0.4.0738 / 1.61.00 Lambda 900

0
0
3350/servo 860.8/2
0
0
UV/VIS
1
1
1
CommonBeamDepol,150mm sphere / downward view
0
0
0
0
Program
Program
3350/servo 860.8/2
3350/0.2 860.8/0.2
3350/0.2 860.8/0.2
0
1
 
 
 
0
 
860.8
319.2
860.8
Front
100
on
 
 
0
0
0
 
0
 
 
 
0
 
 
0
0
0
0
0
 
 
 
 
0
0


0
0
#HDR
-1
-1
#GR
nm
%R
1.0
0.0
2500.000000
-10.000000
226
8
66.815888
10.255565
#DATA
2500.000000	12.939031
2490.000000	14.372439
2480.000000	10.255565
2470.000000	17.445346
2460.000000	17.588803
2450.000000	18.016026
2440.000000	17.474307
2430.000000	18.285826
2420.000000	23.627416
2410.000000	24.367467
2400.000000	23.663135
2390.000000	20.321082
2380.000000	16.650192
2370.000000	15.945749
2360.000000	21.758450
2350.000000	20.245926
2340.000000	20.505262
2330.000000	19.445543
2320.000000	18.886306
2310.000000	20.581023
2300.000000	19.373972
2290.000000	21.016491
2280.000000	20.695974
2270.000000	21.964518
2260.000000	19.770323
2250.000000	20.901893
2240.000000	21.210155
2230.000000	21.483270
2220.000000	23.367966
2210.000000	23.232330
2200.000000	21.769131
2190.000000	22.368521
2180.000000	22.098210
2170.000000	20.750423
2160.000000	21.753867
2150.000000	22.845391
2140.000000	23.880625
2130.000000	23.599581
2120.000000	23.473903
2110.000000	25.582811
2100.000000	26.194132
2090.000000	25.281045
2080.000000	25.600581
2070.000000	24.147182
2060.000000	24.321556
2050.000000	24.000229
2040.000000	23.162529
2030.000000	23.235459
2020.000000	22.794090
2010.000000	23.203139
2000.000000	23.082527
1990.000000	22.633186
1980.000000	21.841495
1970.000000	21.041141
1960.000000	20.714379
1950.000000	20.286410
1940.000000	19.693307
1930.000000	19.836107
1920.000000	21.507723
1910.000000	23.963160
1900.000000	27.360575
1890.000000	31.290244
1880.000000	35.752487
1870.000000	39.417542
1860.000000	40.944585
1850.000000	41.346480
1840.000000	41.577327
1830.000000	41.303044
1820.000000	40.370129
1810.000000	40.518906
1800.000000	40.172701
1790.000000	39.573157
1780.000000	38.893078
1770.000000	38.264964
1760.000000	37.684174
1750.000000	37.196947
1740.000000	36.495906
1730.000000	36.270712
1720.000000	36.950613
1710.000000	37.891160
1700.000000	38.613766
1690.000000	39.614833
1680.000000	41.301691
1670.000000	43.065506
1660.000000	44.578553
1650.000000	45.413092
1640.000000	45.322243
1630.000000	44.746622
1620.000000	43.979377
1610.000000	43.159369
1600.000000	42.433097
1590.000000	41.655282
1580.000000	40.984864
1570.000000	40.451450
1560.000000	39.952313
1550.000000	39.425972
1540.000000	38.756135
1530.000000	37.807165
1520.000000	37.185742
1510.000000	36.850204
1500.000000	36.510587
1490.000000	36.604431
1480.000000	36.927429
1470.000000	37.432461
1460.000000	37.946253
1450.000000	38.766463
1440.000000	39.743103
1430.000000	40.842964
1420.000000	42.307444
1410.000000	44.646797
1400.000000	48.261394
1390.000000	52.269008
1380.000000	54.825374
1370.000000	55.956392
1360.000000	56.714406
1350.000000	57.371264
1340.000000	57.927714
1330.000000	58.839025
1320.000000	60.230237
1310.000000	61.489523
1300.000000	62.162549
1290.000000	62.445926
1280.000000	62.227108
1270.000000	61.760997
1260.000000	61.642334
1250.000000	61.515817
1240.000000	61.265915
1230.000000	60.884274
1220.000000	60.446509
1210.000000	59.734253
1200.000000	59.184519
1190.000000	58.874105
1180.000000	59.355082
1170.000000	60.574633
1160.000000	61.968404
1150.000000	62.962963
1140.000000	63.988643
1130.000000	64.847897
1120.000000	65.182690
1110.000000	65.361243
1100.000000	65.427188
1090.000000	65.441844
1080.000000	65.507106
1070.000000	65.304551
1060.000000	65.068558
1050.000000	65.064359
1040.000000	64.984124
1030.000000	64.858748
1020.000000	64.983879
1010.000000	65.332605
1000.000000	65.917999
990.000000	65.997227
980.000000	65.991548
970.000000	66.307761
960.000000	66.432451
950.000000	66.717150
940.000000	66.815888
930.000000	66.519031
920.000000	66.295012
910.000000	66.350451
900.000000	66.736484
890.000000	66.559527
880.000000	66.424784
870.000000	66.779063
860.000000	66.665314
850.000000	66.400503
840.000000	66.031872
830.000000	66.134663
820.000000	66.183051
810.000000	65.723810
800.000000	65.370588
790.000000	65.532616
780.000000	65.438301
770.000000	65.469543
760.000000	65.402988
750.000000	65.159171
740.000000	64.945732
730.000000	64.698360
720.000000	64.594816
710.000000	64.378489
700.000000	64.041210
690.000000	63.554479
680.000000	63.192940
670.000000	62.811926
660.000000	62.516984
650.000000	62.044216
640.000000	61.504642
630.000000	60.908749
620.000000	60.334924
610.000000	59.616352
600.000000	58.995103
590.000000	58.445107
580.000000	57.774807
570.000000	57.117285
560.000000	56.477866
550.000000	55.597955
540.000000	54.753535
530.000000	53.919990
520.000000	52.981509
510.000000	52.012548
500.000000	50.795183
490.000000	49.401918
480.000000	48.046327
470.000000	46.524431
460.000000	44.757693
450.000000	42.690718
440.000000	40.375795
430.000000	38.121071
420.000000	35.886322
410.000000	34.109559
400.000000	33.076849
390.000000	32.239789
380.000000	31.308428
370.000000	30.351652
360.000000	29.542870
350.000000	28.473183
340.000000	26.880352
330.000000	25.911924
320.000000	25.348238
310.000000	23.741550
300.000000	21.313907
290.000000	18.496190
280.000000	16.851517
270.000000	16.683069
260.000000	16.581341
250.000000	15.815933
