PE UV       SUBTECH     SPECTRUM    ASCII       PEDS        4.00        
   -1
TDgAgneauUK 22.Sample.asc
18/03/08
14:31:30.00
18/03/08
14:31:30.00
Administrator

200.000000
1
Lambda 750
750N8071901
PerkinElmer UV WinLab 6.0.4.0738 / 1.61.00 Lambda 900

0
0
3350/servo 860.8/2
0
0
UV/VIS
1
1
1
CommonBeamDepol,150mm sphere / downward view
0
0
0
0
Program
Program
3350/servo 860.8/2
3350/0.2 860.8/0.2
3350/0.2 860.8/0.2
0
1
 
 
 
0
 
860.8
319.2
860.8
Front
100
on
 
 
0
0
0
 
0
 
 
 
0
 
 
0
0
0
0
0
 
 
 
 
0
0


0
0
#HDR
-1
-1
#GR
nm
%T
1.0
0.0
2350.000000
-1.000000
2151
8
30.709282
0.037255
#DATA
2350.000000	10.475134
2349.000000	10.777971
2348.000000	10.443412
2347.000000	11.121432
2346.000000	11.131846
2345.000000	10.621127
2344.000000	10.526910
2343.000000	10.479949
2342.000000	10.157078
2341.000000	10.562437
2340.000000	10.798878
2339.000000	11.018639
2338.000000	11.270862
2337.000000	11.012565
2336.000000	11.104615
2335.000000	11.572800
2334.000000	11.363632
2333.000000	11.383441
2332.000000	11.529278
2331.000000	11.088644
2330.000000	11.209612
2329.000000	10.984587
2328.000000	11.032103
2327.000000	10.716527
2326.000000	11.411571
2325.000000	11.275140
2324.000000	10.898381
2323.000000	10.745538
2322.000000	10.578861
2321.000000	10.986570
2320.000000	11.128001
2319.000000	11.089230
2318.000000	11.154519
2317.000000	10.949576
2316.000000	10.823070
2315.000000	10.854063
2314.000000	10.782297
2313.000000	10.736529
2312.000000	10.493401
2311.000000	10.682895
2310.000000	10.926535
2309.000000	10.507140
2308.000000	10.480164
2307.000000	10.474790
2306.000000	10.599772
2305.000000	10.399120
2304.000000	10.254233
2303.000000	10.420275
2302.000000	10.297600
2301.000000	10.148360
2300.000000	10.007020
2299.000000	9.997556
2298.000000	10.021836
2297.000000	10.104915
2296.000000	10.101695
2295.000000	9.959225
2294.000000	9.847227
2293.000000	9.852963
2292.000000	9.812686
2291.000000	9.815952
2290.000000	9.646940
2289.000000	9.588791
2288.000000	9.708327
2287.000000	9.763752
2286.000000	9.538713
2285.000000	9.437221
2284.000000	9.635852
2283.000000	9.494080
2282.000000	9.525046
2281.000000	9.573681
2280.000000	9.512563
2279.000000	9.637914
2278.000000	9.606155
2277.000000	9.579444
2276.000000	9.554544
2275.000000	9.547365
2274.000000	9.693715
2273.000000	9.880688
2272.000000	9.787040
2271.000000	9.797303
2270.000000	9.872297
2269.000000	9.887031
2268.000000	9.856240
2267.000000	9.874723
2266.000000	9.843182
2265.000000	9.994880
2264.000000	10.075573
2263.000000	10.087302
2262.000000	10.210599
2261.000000	10.248255
2260.000000	10.234173
2259.000000	10.447813
2258.000000	10.668246
2257.000000	10.739259
2256.000000	10.815932
2255.000000	10.840828
2254.000000	10.974960
2253.000000	11.040236
2252.000000	11.101811
2251.000000	11.252396
2250.000000	11.436616
2249.000000	11.607582
2248.000000	11.752186
2247.000000	11.909776
2246.000000	11.997518
2245.000000	11.880896
2244.000000	12.019400
2243.000000	12.396210
2242.000000	12.468460
2241.000000	12.415610
2240.000000	12.547739
2239.000000	12.600966
2238.000000	12.631160
2237.000000	12.720244
2236.000000	12.698319
2235.000000	12.851918
2234.000000	12.903556
2233.000000	12.942847
2232.000000	13.023356
2231.000000	13.005078
2230.000000	12.936289
2229.000000	13.043990
2228.000000	13.196282
2227.000000	13.224456
2226.000000	13.210020
2225.000000	13.162204
2224.000000	13.162877
2223.000000	13.080851
2222.000000	12.985349
2221.000000	12.986577
2220.000000	12.991464
2219.000000	13.088474
2218.000000	13.156413
2217.000000	13.041401
2216.000000	12.896331
2215.000000	12.887998
2214.000000	12.873112
2213.000000	12.889717
2212.000000	12.887093
2211.000000	12.741166
2210.000000	12.733447
2209.000000	12.645433
2208.000000	12.588646
2207.000000	12.625752
2206.000000	12.613352
2205.000000	12.518098
2204.000000	12.594712
2203.000000	12.550507
2202.000000	12.491079
2201.000000	12.310622
2200.000000	12.218415
2199.000000	12.167768
2198.000000	12.081802
2197.000000	12.060175
2196.000000	12.045672
2195.000000	11.800915
2194.000000	11.887045
2193.000000	11.798128
2192.000000	11.623690
2191.000000	11.752189
2190.000000	11.817530
2189.000000	11.866312
2188.000000	11.642087
2187.000000	11.588969
2186.000000	11.531858
2185.000000	11.527085
2184.000000	11.657913
2183.000000	11.642591
2182.000000	11.482603
2181.000000	11.396765
2180.000000	11.393512
2179.000000	11.435345
2178.000000	11.375251
2177.000000	11.444775
2176.000000	11.305453
2175.000000	11.404506
2174.000000	11.450707
2173.000000	11.454635
2172.000000	11.480119
2171.000000	11.540203
2170.000000	11.476365
2169.000000	11.601580
2168.000000	11.723133
2167.000000	11.720635
2166.000000	11.732227
2165.000000	11.708050
2164.000000	11.722028
2163.000000	11.847184
2162.000000	11.949330
2161.000000	11.778135
2160.000000	11.979164
2159.000000	12.173383
2158.000000	12.222380
2157.000000	12.248490
2156.000000	12.233138
2155.000000	12.554684
2154.000000	12.573880
2153.000000	12.799476
2152.000000	12.698165
2151.000000	12.770639
2150.000000	12.867607
2149.000000	12.592687
2148.000000	12.933465
2147.000000	13.058043
2146.000000	13.073046
2145.000000	13.418639
2144.000000	13.345381
2143.000000	13.165365
2142.000000	13.305937
2141.000000	13.529313
2140.000000	13.695556
2139.000000	13.824839
2138.000000	13.625683
2137.000000	13.857279
2136.000000	13.918074
2135.000000	14.027806
2134.000000	14.188280
2133.000000	13.652031
2132.000000	13.956631
2131.000000	14.178127
2130.000000	14.240567
2129.000000	14.311489
2128.000000	14.318878
2127.000000	14.295502
2126.000000	14.275009
2125.000000	14.337022
2124.000000	14.268701
2123.000000	14.367508
2122.000000	14.521122
2121.000000	14.460115
2120.000000	14.439641
2119.000000	14.403295
2118.000000	14.539409
2117.000000	14.576221
2116.000000	14.580098
2115.000000	14.586155
2114.000000	14.630087
2113.000000	14.668549
2112.000000	14.576733
2111.000000	14.476954
2110.000000	14.556055
2109.000000	14.766948
2108.000000	14.811830
2107.000000	14.786782
2106.000000	14.774911
2105.000000	14.690478
2104.000000	14.668983
2103.000000	14.707193
2102.000000	14.741725
2101.000000	14.744792
2100.000000	14.767739
2099.000000	14.573810
2098.000000	14.664725
2097.000000	14.698327
2096.000000	14.708985
2095.000000	14.717595
2094.000000	14.758121
2093.000000	14.698291
2092.000000	14.629983
2091.000000	14.638391
2090.000000	14.597575
2089.000000	14.640810
2088.000000	14.552438
2087.000000	14.494886
2086.000000	14.606367
2085.000000	14.679791
2084.000000	14.646712
2083.000000	14.542568
2082.000000	14.389835
2081.000000	14.377592
2080.000000	14.372387
2079.000000	14.335822
2078.000000	14.241426
2077.000000	14.262792
2076.000000	14.173640
2075.000000	14.041829
2074.000000	13.999464
2073.000000	13.983023
2072.000000	13.909876
2071.000000	13.918683
2070.000000	13.772534
2069.000000	13.625833
2068.000000	13.569278
2067.000000	13.530136
2066.000000	13.395338
2065.000000	13.269976
2064.000000	13.214297
2063.000000	13.099339
2062.000000	13.083396
2061.000000	12.998091
2060.000000	12.832930
2059.000000	12.679371
2058.000000	12.617165
2057.000000	12.576544
2056.000000	12.487054
2055.000000	12.375484
2054.000000	12.310748
2053.000000	12.244170
2052.000000	12.129638
2051.000000	11.990051
2050.000000	11.927976
2049.000000	11.890266
2048.000000	11.867602
2047.000000	11.829151
2046.000000	11.784935
2045.000000	11.758272
2044.000000	11.719038
2043.000000	11.713150
2042.000000	11.691587
2041.000000	11.668584
2040.000000	11.743440
2039.000000	11.751107
2038.000000	11.755141
2037.000000	11.787144
2036.000000	11.819239
2035.000000	11.940123
2034.000000	12.027834
2033.000000	12.034872
2032.000000	12.071549
2031.000000	12.112482
2030.000000	12.218951
2029.000000	12.319087
2028.000000	12.395196
2027.000000	12.504298
2026.000000	12.590710
2025.000000	12.629828
2024.000000	12.652966
2023.000000	12.660589
2022.000000	12.688069
2021.000000	12.751923
2020.000000	12.794907
2019.000000	12.827388
2018.000000	12.841880
2017.000000	12.865549
2016.000000	12.871846
2015.000000	12.889497
2014.000000	12.906952
2013.000000	12.861089
2012.000000	12.817741
2011.000000	12.809152
2010.000000	12.802940
2009.000000	12.754620
2008.000000	12.718138
2007.000000	12.717888
2006.000000	12.668920
2005.000000	12.608267
2004.000000	12.533841
2003.000000	12.497054
2002.000000	12.456918
2001.000000	12.366004
2000.000000	12.314491
1999.000000	12.270410
1998.000000	12.216115
1997.000000	12.188141
1996.000000	12.160577
1995.000000	12.084352
1994.000000	12.027475
1993.000000	11.954580
1992.000000	11.811793
1991.000000	11.756923
1990.000000	11.726060
1989.000000	11.673605
1988.000000	11.648806
1987.000000	11.565001
1986.000000	11.455747
1985.000000	11.445234
1984.000000	11.402750
1983.000000	11.313438
1982.000000	11.258443
1981.000000	11.192256
1980.000000	11.130189
1979.000000	11.030920
1978.000000	10.978370
1977.000000	10.932876
1976.000000	10.860660
1975.000000	10.821737
1974.000000	10.758487
1973.000000	10.722574
1972.000000	10.638058
1971.000000	10.577783
1970.000000	10.519162
1969.000000	10.459842
1968.000000	10.387032
1967.000000	10.376552
1966.000000	10.343678
1965.000000	10.235047
1964.000000	10.154853
1963.000000	10.089078
1962.000000	10.086031
1961.000000	10.043128
1960.000000	9.972502
1959.000000	9.926661
1958.000000	9.911412
1957.000000	9.853379
1956.000000	9.809253
1955.000000	9.713304
1954.000000	9.696992
1953.000000	9.712059
1952.000000	9.651261
1951.000000	9.607251
1950.000000	9.582467
1949.000000	9.562966
1948.000000	9.526249
1947.000000	9.518346
1946.000000	9.477658
1945.000000	9.469942
1944.000000	9.468721
1943.000000	9.550853
1942.000000	9.544159
1941.000000	9.582402
1940.000000	9.611658
1939.000000	9.602305
1938.000000	9.650773
1937.000000	9.722804
1936.000000	9.757920
1935.000000	9.801908
1934.000000	9.856542
1933.000000	9.920741
1932.000000	10.035268
1931.000000	10.107403
1930.000000	10.243552
1929.000000	10.286636
1928.000000	10.381397
1927.000000	10.467819
1926.000000	10.594601
1925.000000	10.748495
1924.000000	10.868902
1923.000000	10.911190
1922.000000	11.125842
1921.000000	11.397394
1920.000000	11.565390
1919.000000	11.659526
1918.000000	11.850009
1917.000000	12.058217
1916.000000	12.086561
1915.000000	12.411246
1914.000000	12.671997
1913.000000	12.938504
1912.000000	13.146841
1911.000000	13.330211
1910.000000	13.569564
1909.000000	13.778781
1908.000000	14.083693
1907.000000	14.388713
1906.000000	14.675732
1905.000000	14.920815
1904.000000	15.202550
1903.000000	15.475610
1902.000000	15.781295
1901.000000	16.133456
1900.000000	16.476320
1899.000000	16.764148
1898.000000	17.139477
1897.000000	17.423991
1896.000000	17.710528
1895.000000	18.008720
1894.000000	18.253524
1893.000000	18.606263
1892.000000	18.919498
1891.000000	19.198640
1890.000000	19.514642
1889.000000	19.736920
1888.000000	20.079456
1887.000000	20.332415
1886.000000	20.595538
1885.000000	20.832860
1884.000000	21.099455
1883.000000	21.358253
1882.000000	21.610035
1881.000000	21.857122
1880.000000	22.007058
1879.000000	22.175443
1878.000000	22.420120
1877.000000	22.672476
1876.000000	22.820627
1875.000000	22.961539
1874.000000	23.106343
1873.000000	23.229260
1872.000000	23.397372
1871.000000	23.498096
1870.000000	23.603107
1869.000000	23.721384
1868.000000	23.765177
1867.000000	23.823268
1866.000000	23.875599
1865.000000	23.959672
1864.000000	23.982984
1863.000000	24.009547
1862.000000	24.092128
1861.000000	24.130667
1860.000000	24.172848
1859.000000	24.214149
1858.000000	24.238318
1857.000000	24.254353
1856.000000	24.286449
1855.000000	24.332148
1854.000000	24.334854
1853.000000	24.375742
1852.000000	24.407657
1851.000000	24.385609
1850.000000	24.373790
1849.000000	24.378996
1848.000000	24.350640
1847.000000	24.360953
1846.000000	24.346861
1845.000000	24.358511
1844.000000	24.383248
1843.000000	24.368002
1842.000000	24.331730
1841.000000	24.298547
1840.000000	24.291686
1839.000000	24.272192
1838.000000	24.234185
1837.000000	24.198763
1836.000000	24.183587
1835.000000	24.137470
1834.000000	24.103878
1833.000000	24.085912
1832.000000	24.054383
1831.000000	24.004569
1830.000000	23.987602
1829.000000	23.948349
1828.000000	23.910752
1827.000000	23.876525
1826.000000	23.850599
1825.000000	23.844439
1824.000000	23.819675
1823.000000	23.811100
1822.000000	23.778009
1821.000000	23.758903
1820.000000	23.733435
1819.000000	23.690713
1818.000000	23.661257
1817.000000	23.651048
1816.000000	23.642841
1815.000000	23.633023
1814.000000	23.590728
1813.000000	23.567956
1812.000000	23.545396
1811.000000	23.521737
1810.000000	23.497599
1809.000000	23.480800
1808.000000	23.455948
1807.000000	23.433474
1806.000000	23.410347
1805.000000	23.380568
1804.000000	23.364393
1803.000000	23.354292
1802.000000	23.342040
1801.000000	23.309764
1800.000000	23.297822
1799.000000	23.302062
1798.000000	23.289003
1797.000000	23.266397
1796.000000	23.244631
1795.000000	23.245478
1794.000000	23.242670
1793.000000	23.219210
1792.000000	23.211160
1791.000000	23.200602
1790.000000	23.190153
1789.000000	23.181753
1788.000000	23.179777
1787.000000	23.159769
1786.000000	23.136736
1785.000000	23.140410
1784.000000	23.123295
1783.000000	23.104757
1782.000000	23.081946
1781.000000	23.051209
1780.000000	23.023560
1779.000000	22.980606
1778.000000	22.974045
1777.000000	22.947877
1776.000000	22.936614
1775.000000	22.903712
1774.000000	22.861040
1773.000000	22.848490
1772.000000	22.799459
1771.000000	22.750748
1770.000000	22.705531
1769.000000	22.675403
1768.000000	22.633116
1767.000000	22.612395
1766.000000	22.586016
1765.000000	22.542843
1764.000000	22.516622
1763.000000	22.473244
1762.000000	22.409584
1761.000000	22.377647
1760.000000	22.335669
1759.000000	22.285904
1758.000000	22.292955
1757.000000	22.267235
1756.000000	22.240722
1755.000000	22.203077
1754.000000	22.155044
1753.000000	22.110569
1752.000000	22.105130
1751.000000	22.066090
1750.000000	22.025570
1749.000000	22.004840
1748.000000	21.948476
1747.000000	21.937418
1746.000000	21.896682
1745.000000	21.831169
1744.000000	21.783825
1743.000000	21.779933
1742.000000	21.743491
1741.000000	21.708816
1740.000000	21.677381
1739.000000	21.650430
1738.000000	21.618491
1737.000000	21.592608
1736.000000	21.581181
1735.000000	21.572935
1734.000000	21.563963
1733.000000	21.542093
1732.000000	21.515611
1731.000000	21.553369
1730.000000	21.575278
1729.000000	21.549891
1728.000000	21.596877
1727.000000	21.632167
1726.000000	21.664180
1725.000000	21.718531
1724.000000	21.761388
1723.000000	21.799160
1722.000000	21.836865
1721.000000	21.910917
1720.000000	21.976992
1719.000000	22.001277
1718.000000	22.056878
1717.000000	22.109710
1716.000000	22.218957
1715.000000	22.217386
1714.000000	22.312968
1713.000000	22.341757
1712.000000	22.376464
1711.000000	22.415990
1710.000000	22.464708
1709.000000	22.487990
1708.000000	22.531487
1707.000000	22.547702
1706.000000	22.546777
1705.000000	22.570779
1704.000000	22.617841
1703.000000	22.570259
1702.000000	22.625259
1701.000000	22.642970
1700.000000	22.639361
1699.000000	22.611486
1698.000000	22.639793
1697.000000	22.656391
1696.000000	22.713200
1695.000000	22.701506
1694.000000	22.742865
1693.000000	22.755434
1692.000000	22.799518
1691.000000	22.818190
1690.000000	22.898687
1689.000000	22.929879
1688.000000	22.988872
1687.000000	23.047980
1686.000000	23.120717
1685.000000	23.206718
1684.000000	23.271783
1683.000000	23.371398
1682.000000	23.459214
1681.000000	23.562201
1680.000000	23.649525
1679.000000	23.740329
1678.000000	23.854626
1677.000000	23.937688
1676.000000	24.036485
1675.000000	24.133261
1674.000000	24.237396
1673.000000	24.338861
1672.000000	24.417418
1671.000000	24.540366
1670.000000	24.614681
1669.000000	24.715321
1668.000000	24.784565
1667.000000	24.863566
1666.000000	24.904930
1665.000000	24.959654
1664.000000	25.018420
1663.000000	25.062614
1662.000000	25.108002
1661.000000	25.152195
1660.000000	25.202281
1659.000000	25.267385
1658.000000	25.278575
1657.000000	25.292403
1656.000000	25.320945
1655.000000	25.344833
1654.000000	25.361175
1653.000000	25.359402
1652.000000	25.365281
1651.000000	25.367833
1650.000000	25.382561
1649.000000	25.350438
1648.000000	25.350886
1647.000000	25.359379
1646.000000	25.346935
1645.000000	25.338967
1644.000000	25.325202
1643.000000	25.301560
1642.000000	25.275480
1641.000000	25.260651
1640.000000	25.255427
1639.000000	25.241333
1638.000000	25.235162
1637.000000	25.221420
1636.000000	25.188598
1635.000000	25.160861
1634.000000	25.129291
1633.000000	25.108358
1632.000000	25.087857
1631.000000	25.063389
1630.000000	25.036960
1629.000000	24.998755
1628.000000	24.967151
1627.000000	24.932696
1626.000000	24.919340
1625.000000	24.893305
1624.000000	24.862323
1623.000000	24.841962
1622.000000	24.810126
1621.000000	24.774491
1620.000000	24.750316
1619.000000	24.717373
1618.000000	24.666051
1617.000000	24.625466
1616.000000	24.601078
1615.000000	24.575581
1614.000000	24.538759
1613.000000	24.510020
1612.000000	24.476255
1611.000000	24.438266
1610.000000	24.414346
1609.000000	24.385821
1608.000000	24.351134
1607.000000	24.300703
1606.000000	24.244659
1605.000000	24.212834
1604.000000	24.180754
1603.000000	24.141970
1602.000000	24.113603
1601.000000	24.074740
1600.000000	24.042145
1599.000000	23.993152
1598.000000	23.948709
1597.000000	23.922854
1596.000000	23.888234
1595.000000	23.856208
1594.000000	23.816682
1593.000000	23.779551
1592.000000	23.753166
1591.000000	23.726981
1590.000000	23.700692
1589.000000	23.672319
1588.000000	23.631632
1587.000000	23.602313
1586.000000	23.580497
1585.000000	23.553256
1584.000000	23.523968
1583.000000	23.500537
1582.000000	23.473862
1581.000000	23.440289
1580.000000	23.416174
1579.000000	23.388236
1578.000000	23.356511
1577.000000	23.329805
1576.000000	23.289345
1575.000000	23.251172
1574.000000	23.224565
1573.000000	23.190799
1572.000000	23.163751
1571.000000	23.143390
1570.000000	23.118226
1569.000000	23.081885
1568.000000	23.057421
1567.000000	23.044376
1566.000000	23.019991
1565.000000	22.997654
1564.000000	22.985126
1563.000000	22.974727
1562.000000	22.942287
1561.000000	22.914015
1560.000000	22.893693
1559.000000	22.889268
1558.000000	22.889457
1557.000000	22.863553
1556.000000	22.837554
1555.000000	22.818436
1554.000000	22.793023
1553.000000	22.779087
1552.000000	22.757497
1551.000000	22.729788
1550.000000	22.715185
1549.000000	22.688683
1548.000000	22.665850
1547.000000	22.613114
1546.000000	22.579551
1545.000000	22.538079
1544.000000	22.491643
1543.000000	22.448575
1542.000000	22.394535
1541.000000	22.354701
1540.000000	22.305163
1539.000000	22.261096
1538.000000	22.193947
1537.000000	22.129342
1536.000000	22.075794
1535.000000	22.013213
1534.000000	21.965574
1533.000000	21.915281
1532.000000	21.862564
1531.000000	21.800214
1530.000000	21.750503
1529.000000	21.712866
1528.000000	21.658894
1527.000000	21.614148
1526.000000	21.565485
1525.000000	21.522418
1524.000000	21.484640
1523.000000	21.452392
1522.000000	21.424125
1521.000000	21.388472
1520.000000	21.341386
1519.000000	21.321194
1518.000000	21.294324
1517.000000	21.270690
1516.000000	21.236078
1515.000000	21.219421
1514.000000	21.198862
1513.000000	21.181758
1512.000000	21.164671
1511.000000	21.160402
1510.000000	21.168439
1509.000000	21.187760
1508.000000	21.185545
1507.000000	21.174622
1506.000000	21.161096
1505.000000	21.140891
1504.000000	21.129502
1503.000000	21.104204
1502.000000	21.085366
1501.000000	21.081851
1500.000000	21.056550
1499.000000	21.059399
1498.000000	21.070101
1497.000000	21.061403
1496.000000	21.064916
1495.000000	21.066617
1494.000000	21.074491
1493.000000	21.099483
1492.000000	21.103399
1491.000000	21.125553
1490.000000	21.136835
1489.000000	21.186156
1488.000000	21.200175
1487.000000	21.226514
1486.000000	21.247683
1485.000000	21.263501
1484.000000	21.279667
1483.000000	21.347728
1482.000000	21.347253
1481.000000	21.411805
1480.000000	21.436932
1479.000000	21.469072
1478.000000	21.484952
1477.000000	21.529276
1476.000000	21.542937
1475.000000	21.581538
1474.000000	21.593446
1473.000000	21.627386
1472.000000	21.665188
1471.000000	21.690769
1470.000000	21.711085
1469.000000	21.731539
1468.000000	21.763351
1467.000000	21.789110
1466.000000	21.843392
1465.000000	21.895552
1464.000000	21.901975
1463.000000	21.914680
1462.000000	21.924527
1461.000000	22.003716
1460.000000	22.037372
1459.000000	22.044976
1458.000000	22.073442
1457.000000	22.095370
1456.000000	22.158935
1455.000000	22.182947
1454.000000	22.211194
1453.000000	22.253898
1452.000000	22.280896
1451.000000	22.350837
1450.000000	22.384194
1449.000000	22.416483
1448.000000	22.446111
1447.000000	22.476106
1446.000000	22.516176
1445.000000	22.599825
1444.000000	22.652836
1443.000000	22.693892
1442.000000	22.733463
1441.000000	22.790145
1440.000000	22.837005
1439.000000	22.892454
1438.000000	22.943506
1437.000000	22.996265
1436.000000	23.066400
1435.000000	23.144612
1434.000000	23.228178
1433.000000	23.304601
1432.000000	23.372953
1431.000000	23.436018
1430.000000	23.512687
1429.000000	23.582872
1428.000000	23.655202
1427.000000	23.746055
1426.000000	23.815243
1425.000000	23.895122
1424.000000	23.977611
1423.000000	24.063080
1422.000000	24.173127
1421.000000	24.282523
1420.000000	24.377542
1419.000000	24.458856
1418.000000	24.553213
1417.000000	24.674191
1416.000000	24.785750
1415.000000	24.893587
1414.000000	25.014765
1413.000000	25.125910
1412.000000	25.219048
1411.000000	25.338868
1410.000000	25.461720
1409.000000	25.572279
1408.000000	25.671137
1407.000000	25.779787
1406.000000	25.889110
1405.000000	26.010538
1404.000000	26.117144
1403.000000	26.212329
1402.000000	26.303628
1401.000000	26.414546
1400.000000	26.517924
1399.000000	26.619324
1398.000000	26.717302
1397.000000	26.823612
1396.000000	26.919164
1395.000000	27.004167
1394.000000	27.103771
1393.000000	27.184721
1392.000000	27.260679
1391.000000	27.331688
1390.000000	27.395259
1389.000000	27.470264
1388.000000	27.545405
1387.000000	27.604836
1386.000000	27.652753
1385.000000	27.730025
1384.000000	27.807655
1383.000000	27.847770
1382.000000	27.898934
1381.000000	27.959892
1380.000000	27.995258
1379.000000	28.023626
1378.000000	28.080611
1377.000000	28.137509
1376.000000	28.163569
1375.000000	28.190148
1374.000000	28.225713
1373.000000	28.267150
1372.000000	28.296539
1371.000000	28.309983
1370.000000	28.332129
1369.000000	28.358399
1368.000000	28.377639
1367.000000	28.397810
1366.000000	28.425347
1365.000000	28.451491
1364.000000	28.469655
1363.000000	28.505122
1362.000000	28.551302
1361.000000	28.583329
1360.000000	28.598149
1359.000000	28.603911
1358.000000	28.622044
1357.000000	28.661266
1356.000000	28.688312
1355.000000	28.717710
1354.000000	28.733073
1353.000000	28.739449
1352.000000	28.785536
1351.000000	28.823824
1350.000000	28.831352
1349.000000	28.841096
1348.000000	28.856729
1347.000000	28.881889
1346.000000	28.902339
1345.000000	28.937819
1344.000000	28.949608
1343.000000	28.971326
1342.000000	29.017525
1341.000000	29.033912
1340.000000	29.030951
1339.000000	29.045004
1338.000000	29.080978
1337.000000	29.124076
1336.000000	29.145391
1335.000000	29.141762
1334.000000	29.162602
1333.000000	29.185838
1332.000000	29.209283
1331.000000	29.215834
1330.000000	29.227069
1329.000000	29.238217
1328.000000	29.253157
1327.000000	29.286988
1326.000000	29.295356
1325.000000	29.281933
1324.000000	29.294257
1323.000000	29.314749
1322.000000	29.313517
1321.000000	29.328792
1320.000000	29.333133
1319.000000	29.335880
1318.000000	29.344553
1317.000000	29.371185
1316.000000	29.391837
1315.000000	29.389918
1314.000000	29.360909
1313.000000	29.349134
1312.000000	29.377707
1311.000000	29.394214
1310.000000	29.407778
1309.000000	29.431074
1308.000000	29.424195
1307.000000	29.404803
1306.000000	29.395659
1305.000000	29.436790
1304.000000	29.454371
1303.000000	29.450810
1302.000000	29.445595
1301.000000	29.444668
1300.000000	29.435450
1299.000000	29.435744
1298.000000	29.431841
1297.000000	29.425397
1296.000000	29.434098
1295.000000	29.440410
1294.000000	29.437823
1293.000000	29.432210
1292.000000	29.438770
1291.000000	29.461033
1290.000000	29.446202
1289.000000	29.431635
1288.000000	29.444810
1287.000000	29.445125
1286.000000	29.441600
1285.000000	29.419920
1284.000000	29.413242
1283.000000	29.395153
1282.000000	29.397928
1281.000000	29.387929
1280.000000	29.395119
1279.000000	29.388608
1278.000000	29.395325
1277.000000	29.390324
1276.000000	29.387079
1275.000000	29.402449
1274.000000	29.402287
1273.000000	29.395620
1272.000000	29.379727
1271.000000	29.379486
1270.000000	29.374113
1269.000000	29.400021
1268.000000	29.375767
1267.000000	29.388487
1266.000000	29.400312
1265.000000	29.394978
1264.000000	29.417144
1263.000000	29.413532
1262.000000	29.420889
1261.000000	29.414240
1260.000000	29.421851
1259.000000	29.436829
1258.000000	29.449354
1257.000000	29.445868
1256.000000	29.436951
1255.000000	29.457343
1254.000000	29.425265
1253.000000	29.421518
1252.000000	29.436455
1251.000000	29.435377
1250.000000	29.431595
1249.000000	29.423225
1248.000000	29.416775
1247.000000	29.429779
1246.000000	29.434392
1245.000000	29.411955
1244.000000	29.435655
1243.000000	29.411128
1242.000000	29.422325
1241.000000	29.412318
1240.000000	29.365057
1239.000000	29.359578
1238.000000	29.372040
1237.000000	29.357352
1236.000000	29.318783
1235.000000	29.306083
1234.000000	29.312100
1233.000000	29.306202
1232.000000	29.273417
1231.000000	29.269372
1230.000000	29.279489
1229.000000	29.270757
1228.000000	29.246421
1227.000000	29.216894
1226.000000	29.220485
1225.000000	29.211716
1224.000000	29.210908
1223.000000	29.190475
1222.000000	29.193965
1221.000000	29.191895
1220.000000	29.169556
1219.000000	29.141430
1218.000000	29.129405
1217.000000	29.132709
1216.000000	29.108599
1215.000000	29.095844
1214.000000	29.075194
1213.000000	29.072413
1212.000000	29.062605
1211.000000	29.035707
1210.000000	29.029837
1209.000000	29.028593
1208.000000	29.006549
1207.000000	28.993120
1206.000000	28.966812
1205.000000	28.938204
1204.000000	28.920796
1203.000000	28.914586
1202.000000	28.912377
1201.000000	28.880113
1200.000000	28.876451
1199.000000	28.857705
1198.000000	28.829856
1197.000000	28.804894
1196.000000	28.781655
1195.000000	28.770948
1194.000000	28.758372
1193.000000	28.747176
1192.000000	28.742906
1191.000000	28.731393
1190.000000	28.698997
1189.000000	28.662760
1188.000000	28.658289
1187.000000	28.667865
1186.000000	28.659201
1185.000000	28.655149
1184.000000	28.659299
1183.000000	28.655246
1182.000000	28.669502
1181.000000	28.678815
1180.000000	28.691618
1179.000000	28.718397
1178.000000	28.737943
1177.000000	28.757557
1176.000000	28.770397
1175.000000	28.766864
1174.000000	28.789924
1173.000000	28.824722
1172.000000	28.860022
1171.000000	28.893745
1170.000000	28.919560
1169.000000	28.947170
1168.000000	28.982641
1167.000000	29.021245
1166.000000	29.057945
1165.000000	29.089459
1164.000000	29.123480
1163.000000	29.159536
1162.000000	29.199815
1161.000000	29.238451
1160.000000	29.271309
1159.000000	29.293980
1158.000000	29.339455
1157.000000	29.385479
1156.000000	29.403683
1155.000000	29.430860
1154.000000	29.455738
1153.000000	29.456587
1152.000000	29.465891
1151.000000	29.501661
1150.000000	29.536019
1149.000000	29.567341
1148.000000	29.585719
1147.000000	29.605489
1146.000000	29.638420
1145.000000	29.670267
1144.000000	29.690802
1143.000000	29.705512
1142.000000	29.725756
1141.000000	29.752276
1140.000000	29.767567
1139.000000	29.777941
1138.000000	29.799801
1137.000000	29.799902
1136.000000	29.808993
1135.000000	29.830243
1134.000000	29.842493
1133.000000	29.866534
1132.000000	29.880957
1131.000000	29.901880
1130.000000	29.929739
1129.000000	29.943962
1128.000000	29.941709
1127.000000	29.954626
1126.000000	29.978371
1125.000000	29.994108
1124.000000	29.952747
1123.000000	29.952583
1122.000000	29.968631
1121.000000	29.970698
1120.000000	29.980099
1119.000000	29.988754
1118.000000	30.000140
1117.000000	30.003065
1116.000000	30.000951
1115.000000	30.003665
1114.000000	29.998709
1113.000000	30.009519
1112.000000	30.008788
1111.000000	30.001791
1110.000000	30.005284
1109.000000	30.009296
1108.000000	30.019890
1107.000000	30.017114
1106.000000	30.031917
1105.000000	30.038648
1104.000000	30.022548
1103.000000	30.036394
1102.000000	30.036247
1101.000000	30.003228
1100.000000	29.998921
1099.000000	30.007175
1098.000000	30.020781
1097.000000	30.005853
1096.000000	30.016541
1095.000000	30.011482
1094.000000	30.011720
1093.000000	29.996726
1092.000000	29.983683
1091.000000	30.002655
1090.000000	30.010647
1089.000000	30.010933
1088.000000	30.019272
1087.000000	30.018398
1086.000000	29.997418
1085.000000	29.994158
1084.000000	30.004236
1083.000000	29.991600
1082.000000	30.015307
1081.000000	30.020026
1080.000000	30.005408
1079.000000	29.965601
1078.000000	29.966683
1077.000000	29.973371
1076.000000	29.978141
1075.000000	29.975800
1074.000000	29.975803
1073.000000	29.984255
1072.000000	29.951738
1071.000000	29.943451
1070.000000	29.952548
1069.000000	29.959564
1068.000000	29.958878
1067.000000	29.961786
1066.000000	29.963939
1065.000000	29.942684
1064.000000	29.943263
1063.000000	29.937671
1062.000000	29.956713
1061.000000	29.954108
1060.000000	29.948363
1059.000000	29.942371
1058.000000	29.912251
1057.000000	29.900565
1056.000000	29.908087
1055.000000	29.915721
1054.000000	29.926559
1053.000000	29.889916
1052.000000	29.900574
1051.000000	29.888764
1050.000000	29.901951
1049.000000	29.928600
1048.000000	29.850783
1047.000000	29.878306
1046.000000	29.897635
1045.000000	29.897481
1044.000000	29.854328
1043.000000	29.845657
1042.000000	29.868011
1041.000000	29.866348
1040.000000	29.881299
1039.000000	29.852775
1038.000000	29.845052
1037.000000	29.867684
1036.000000	29.869602
1035.000000	29.851682
1034.000000	29.857228
1033.000000	29.858352
1032.000000	29.839507
1031.000000	29.840032
1030.000000	29.850855
1029.000000	29.870528
1028.000000	29.857727
1027.000000	29.823833
1026.000000	29.835064
1025.000000	29.833381
1024.000000	29.835220
1023.000000	29.839661
1022.000000	29.856151
1021.000000	29.865603
1020.000000	29.847065
1019.000000	29.828541
1018.000000	29.830250
1017.000000	29.841828
1016.000000	29.865898
1015.000000	29.880871
1014.000000	29.871920
1013.000000	29.878733
1012.000000	29.879268
1011.000000	29.866935
1010.000000	29.869188
1009.000000	29.860255
1008.000000	29.860478
1007.000000	29.879140
1006.000000	29.878409
1005.000000	29.883258
1004.000000	29.881424
1003.000000	29.900909
1002.000000	29.908790
1001.000000	29.917450
1000.000000	29.929301
999.000000	29.945164
998.000000	29.968177
997.000000	29.971086
996.000000	29.964303
995.000000	29.975865
994.000000	29.972839
993.000000	29.979331
992.000000	29.977008
991.000000	29.993011
990.000000	29.989790
989.000000	29.991105
988.000000	30.002825
987.000000	30.010307
986.000000	30.014037
985.000000	30.026530
984.000000	30.036679
983.000000	30.040500
982.000000	30.037569
981.000000	30.039949
980.000000	30.041997
979.000000	30.039969
978.000000	30.043899
977.000000	30.037983
976.000000	30.049755
975.000000	30.061941
974.000000	30.071733
973.000000	30.083379
972.000000	30.080986
971.000000	30.082308
970.000000	30.078624
969.000000	30.088954
968.000000	30.085553
967.000000	30.088978
966.000000	30.097944
965.000000	30.099705
964.000000	30.116024
963.000000	30.127599
962.000000	30.118317
961.000000	30.127401
960.000000	30.139609
959.000000	30.148625
958.000000	30.136417
957.000000	30.136107
956.000000	30.157470
955.000000	30.164562
954.000000	30.172351
953.000000	30.178771
952.000000	30.173180
951.000000	30.171047
950.000000	30.172346
949.000000	30.181612
948.000000	30.186768
947.000000	30.178983
946.000000	30.192019
945.000000	30.216723
944.000000	30.219641
943.000000	30.189836
942.000000	30.209414
941.000000	30.236196
940.000000	30.234396
939.000000	30.231636
938.000000	30.228583
937.000000	30.222084
936.000000	30.220674
935.000000	30.227456
934.000000	30.229297
933.000000	30.226818
932.000000	30.209135
931.000000	30.195496
930.000000	30.202978
929.000000	30.211081
928.000000	30.210756
927.000000	30.211364
926.000000	30.239815
925.000000	30.232135
924.000000	30.216746
923.000000	30.203661
922.000000	30.203599
921.000000	30.213150
920.000000	30.205374
919.000000	30.214535
918.000000	30.247247
917.000000	30.228774
916.000000	30.234509
915.000000	30.212369
914.000000	30.213955
913.000000	30.194237
912.000000	30.198506
911.000000	30.220892
910.000000	30.230331
909.000000	30.232689
908.000000	30.232676
907.000000	30.242917
906.000000	30.260672
905.000000	30.237078
904.000000	30.209785
903.000000	30.236582
902.000000	30.260690
901.000000	30.259744
900.000000	30.277805
899.000000	30.296133
898.000000	30.293406
897.000000	30.291100
896.000000	30.335077
895.000000	30.311293
894.000000	30.311358
893.000000	30.268371
892.000000	30.264955
891.000000	30.279466
890.000000	30.270366
889.000000	30.288243
888.000000	30.298317
887.000000	30.306061
886.000000	30.354462
885.000000	30.361608
884.000000	30.334401
883.000000	30.296223
882.000000	30.353373
881.000000	30.329982
880.000000	30.366078
879.000000	30.373422
878.000000	30.322801
877.000000	30.297409
876.000000	30.315659
875.000000	30.265943
874.000000	30.310353
873.000000	30.294281
872.000000	30.326915
871.000000	30.328724
870.000000	30.293325
869.000000	30.247553
868.000000	30.266846
867.000000	30.274683
866.000000	30.325336
865.000000	30.258999
864.000000	30.379296
863.000000	30.343998
862.000000	30.302182
861.000000	30.228507
860.000000	30.210920
859.000000	30.344748
858.000000	30.425921
857.000000	30.622058
856.000000	30.709282
855.000000	30.675056
854.000000	30.516197
853.000000	30.518260
852.000000	30.397215
851.000000	30.434709
850.000000	30.516767
849.000000	30.410122
848.000000	30.581590
847.000000	30.467930
846.000000	30.406088
845.000000	30.401022
844.000000	30.420477
843.000000	30.501795
842.000000	30.407995
841.000000	30.564772
840.000000	30.482503
839.000000	30.546478
838.000000	30.356097
837.000000	30.424365
836.000000	30.354091
835.000000	30.603704
834.000000	30.457670
833.000000	30.405233
832.000000	30.450565
831.000000	30.355415
830.000000	30.444864
829.000000	30.509199
828.000000	30.511293
827.000000	30.446193
826.000000	30.424237
825.000000	30.387005
824.000000	30.454038
823.000000	30.445791
822.000000	30.497985
821.000000	30.507067
820.000000	30.404924
819.000000	30.387033
818.000000	30.369945
817.000000	30.344511
816.000000	30.379381
815.000000	30.467615
814.000000	30.412874
813.000000	30.310261
812.000000	30.486257
811.000000	30.479497
810.000000	30.418726
809.000000	30.488838
808.000000	30.416276
807.000000	30.443984
806.000000	30.479538
805.000000	30.398411
804.000000	30.353547
803.000000	30.452733
802.000000	30.321078
801.000000	30.381875
800.000000	30.341929
799.000000	30.425461
798.000000	30.386959
797.000000	30.397919
796.000000	30.360912
795.000000	30.434833
794.000000	30.476696
793.000000	30.429525
792.000000	30.376250
791.000000	30.362641
790.000000	30.339481
789.000000	30.412150
788.000000	30.474099
787.000000	30.413818
786.000000	30.376542
785.000000	30.373250
784.000000	30.336491
783.000000	30.290957
782.000000	30.328429
781.000000	30.361513
780.000000	30.361947
779.000000	30.318893
778.000000	30.364924
777.000000	30.368151
776.000000	30.338632
775.000000	30.341282
774.000000	30.383694
773.000000	30.402365
772.000000	30.359851
771.000000	30.391398
770.000000	30.315580
769.000000	30.296363
768.000000	30.306848
767.000000	30.354949
766.000000	30.346533
765.000000	30.320141
764.000000	30.325259
763.000000	30.375590
762.000000	30.360195
761.000000	30.347785
760.000000	30.323157
759.000000	30.348382
758.000000	30.313704
757.000000	30.304448
756.000000	30.286223
755.000000	30.292281
754.000000	30.316666
753.000000	30.307081
752.000000	30.261572
751.000000	30.312587
750.000000	30.311589
749.000000	30.290540
748.000000	30.271002
747.000000	30.276203
746.000000	30.262727
745.000000	30.280503
744.000000	30.306913
743.000000	30.241652
742.000000	30.238665
741.000000	30.236652
740.000000	30.245010
739.000000	30.289429
738.000000	30.263997
737.000000	30.245483
736.000000	30.284488
735.000000	30.268282
734.000000	30.266155
733.000000	30.273107
732.000000	30.258527
731.000000	30.272120
730.000000	30.224171
729.000000	30.227387
728.000000	30.280468
727.000000	30.290714
726.000000	30.248636
725.000000	30.230810
724.000000	30.221861
723.000000	30.228147
722.000000	30.260996
721.000000	30.274360
720.000000	30.273885
719.000000	30.277948
718.000000	30.245683
717.000000	30.228229
716.000000	30.204522
715.000000	30.192042
714.000000	30.187357
713.000000	30.192531
712.000000	30.202071
711.000000	30.209402
710.000000	30.199526
709.000000	30.197065
708.000000	30.202011
707.000000	30.189976
706.000000	30.166933
705.000000	30.165238
704.000000	30.177321
703.000000	30.159330
702.000000	30.154860
701.000000	30.139058
700.000000	30.096127
699.000000	30.115805
698.000000	30.140172
697.000000	30.131375
696.000000	30.138904
695.000000	30.145192
694.000000	30.134750
693.000000	30.119592
692.000000	30.130810
691.000000	30.097848
690.000000	30.098970
689.000000	30.071339
688.000000	30.066249
687.000000	30.081819
686.000000	30.070272
685.000000	30.064632
684.000000	30.041193
683.000000	30.019543
682.000000	30.006353
681.000000	30.017828
680.000000	30.004666
679.000000	29.976926
678.000000	30.029608
677.000000	30.037216
676.000000	30.009230
675.000000	29.982418
674.000000	29.983909
673.000000	29.990688
672.000000	29.996484
671.000000	29.961044
670.000000	29.922245
669.000000	29.953784
668.000000	29.977224
667.000000	29.979462
666.000000	29.982386
665.000000	29.949319
664.000000	29.925015
663.000000	29.933455
662.000000	29.962374
661.000000	29.970133
660.000000	29.947337
659.000000	29.920674
658.000000	29.883652
657.000000	29.929603
656.000000	29.896786
655.000000	29.868651
654.000000	29.898572
653.000000	29.886163
652.000000	29.855075
651.000000	29.860960
650.000000	29.868654
649.000000	29.846216
648.000000	29.840284
647.000000	29.840435
646.000000	29.846987
645.000000	29.840612
644.000000	29.819272
643.000000	29.814331
642.000000	29.815184
641.000000	29.801945
640.000000	29.799078
639.000000	29.813899
638.000000	29.784968
637.000000	29.768282
636.000000	29.747848
635.000000	29.750782
634.000000	29.743997
633.000000	29.751990
632.000000	29.743720
631.000000	29.738591
630.000000	29.765570
629.000000	29.721148
628.000000	29.700524
627.000000	29.710277
626.000000	29.700247
625.000000	29.691470
624.000000	29.686883
623.000000	29.672170
622.000000	29.666656
621.000000	29.648279
620.000000	29.630718
619.000000	29.648029
618.000000	29.630217
617.000000	29.641674
616.000000	29.595400
615.000000	29.596518
614.000000	29.589772
613.000000	29.597906
612.000000	29.574102
611.000000	29.569712
610.000000	29.561597
609.000000	29.533483
608.000000	29.541027
607.000000	29.529195
606.000000	29.522538
605.000000	29.508606
604.000000	29.494877
603.000000	29.514570
602.000000	29.456489
601.000000	29.470061
600.000000	29.489425
599.000000	29.437214
598.000000	29.426969
597.000000	29.425504
596.000000	29.440881
595.000000	29.416147
594.000000	29.405494
593.000000	29.372595
592.000000	29.356622
591.000000	29.352873
590.000000	29.319484
589.000000	29.320921
588.000000	29.325228
587.000000	29.326455
586.000000	29.295503
585.000000	29.268329
584.000000	29.258516
583.000000	29.247467
582.000000	29.252906
581.000000	29.226958
580.000000	29.203495
579.000000	29.204038
578.000000	29.164295
577.000000	29.168795
576.000000	29.168882
575.000000	29.139073
574.000000	29.112915
573.000000	29.127128
572.000000	29.113296
571.000000	29.100430
570.000000	29.060583
569.000000	29.079665
568.000000	29.022829
567.000000	29.014861
566.000000	29.040283
565.000000	28.992475
564.000000	29.005312
563.000000	28.965019
562.000000	28.958187
561.000000	28.963032
560.000000	28.954695
559.000000	28.930967
558.000000	28.896186
557.000000	28.882477
556.000000	28.856618
555.000000	28.863152
554.000000	28.848147
553.000000	28.839147
552.000000	28.800081
551.000000	28.791641
550.000000	28.768760
549.000000	28.725616
548.000000	28.716029
547.000000	28.696521
546.000000	28.683177
545.000000	28.667833
544.000000	28.661690
543.000000	28.632169
542.000000	28.599718
541.000000	28.609721
540.000000	28.566469
539.000000	28.510478
538.000000	28.512696
537.000000	28.500703
536.000000	28.472539
535.000000	28.448181
534.000000	28.437062
533.000000	28.417185
532.000000	28.370802
531.000000	28.365990
530.000000	28.317480
529.000000	28.308736
528.000000	28.274954
527.000000	28.275765
526.000000	28.230004
525.000000	28.199600
524.000000	28.153103
523.000000	28.159328
522.000000	28.128537
521.000000	28.105322
520.000000	28.060163
519.000000	28.021559
518.000000	27.986026
517.000000	27.972210
516.000000	27.933234
515.000000	27.937870
514.000000	27.911618
513.000000	27.837499
512.000000	27.802442
511.000000	27.801622
510.000000	27.752494
509.000000	27.740097
508.000000	27.695343
507.000000	27.666783
506.000000	27.628104
505.000000	27.598516
504.000000	27.570593
503.000000	27.551438
502.000000	27.514831
501.000000	27.476601
500.000000	27.456760
499.000000	27.432667
498.000000	27.386250
497.000000	27.346862
496.000000	27.302105
495.000000	27.258634
494.000000	27.217703
493.000000	27.214424
492.000000	27.162157
491.000000	27.124970
490.000000	27.101379
489.000000	27.054747
488.000000	27.006756
487.000000	26.989226
486.000000	26.951248
485.000000	26.914945
484.000000	26.901480
483.000000	26.863075
482.000000	26.817642
481.000000	26.785281
480.000000	26.738182
479.000000	26.689399
478.000000	26.642240
477.000000	26.588373
476.000000	26.543868
475.000000	26.502150
474.000000	26.449577
473.000000	26.401451
472.000000	26.364735
471.000000	26.310300
470.000000	26.262261
469.000000	26.220148
468.000000	26.167782
467.000000	26.125188
466.000000	26.070695
465.000000	26.014926
464.000000	25.961408
463.000000	25.906450
462.000000	25.848662
461.000000	25.796309
460.000000	25.729146
459.000000	25.661625
458.000000	25.621606
457.000000	25.545168
456.000000	25.500190
455.000000	25.457802
454.000000	25.382023
453.000000	25.304540
452.000000	25.253919
451.000000	25.186773
450.000000	25.113248
449.000000	25.059735
448.000000	24.991440
447.000000	24.900668
446.000000	24.825316
445.000000	24.785050
444.000000	24.724652
443.000000	24.628103
442.000000	24.550093
441.000000	24.464259
440.000000	24.393166
439.000000	24.308105
438.000000	24.218692
437.000000	24.137661
436.000000	24.070430
435.000000	23.983677
434.000000	23.892277
433.000000	23.796326
432.000000	23.684506
431.000000	23.617300
430.000000	23.530033
429.000000	23.409975
428.000000	23.300390
427.000000	23.193800
426.000000	23.100772
425.000000	22.998352
424.000000	22.898314
423.000000	22.786595
422.000000	22.699006
421.000000	22.602890
420.000000	22.465345
419.000000	22.365710
418.000000	22.259015
417.000000	22.140572
416.000000	22.021864
415.000000	21.896711
414.000000	21.779616
413.000000	21.650186
412.000000	21.517568
411.000000	21.380754
410.000000	21.267720
409.000000	21.126260
408.000000	20.983781
407.000000	20.879606
406.000000	20.743363
405.000000	20.611028
404.000000	20.477408
403.000000	20.346944
402.000000	20.207679
401.000000	20.083678
400.000000	19.929572
399.000000	19.771026
398.000000	19.632836
397.000000	19.505156
396.000000	19.377048
395.000000	19.232454
394.000000	19.086773
393.000000	18.892031
392.000000	18.764611
391.000000	18.621406
390.000000	18.484750
389.000000	18.343084
388.000000	18.168597
387.000000	17.983200
386.000000	17.822901
385.000000	17.676256
384.000000	17.461615
383.000000	17.351198
382.000000	17.138653
381.000000	16.940762
380.000000	16.811779
379.000000	16.622416
378.000000	16.398503
377.000000	16.304536
376.000000	16.174425
375.000000	15.895947
374.000000	15.761032
373.000000	15.557062
372.000000	15.438921
371.000000	15.219652
370.000000	14.962760
369.000000	14.826602
368.000000	14.621072
367.000000	14.418258
366.000000	14.230397
365.000000	14.084782
364.000000	13.938814
363.000000	13.748540
362.000000	13.457508
361.000000	13.310247
360.000000	13.149509
359.000000	13.018182
358.000000	12.843575
357.000000	12.648789
356.000000	12.459670
355.000000	12.271655
354.000000	12.177587
353.000000	11.969423
352.000000	11.716808
351.000000	11.599949
350.000000	11.458124
349.000000	11.272246
348.000000	11.088041
347.000000	11.016601
346.000000	10.775278
345.000000	10.454036
344.000000	10.344795
343.000000	10.120754
342.000000	9.926328
341.000000	9.779571
340.000000	9.554032
339.000000	9.285108
338.000000	9.102609
337.000000	8.903362
336.000000	8.535985
335.000000	8.310794
334.000000	8.140275
333.000000	7.843255
332.000000	7.661961
331.000000	7.382506
330.000000	7.090873
329.000000	6.843005
328.000000	6.644767
327.000000	6.432816
326.000000	6.270039
325.000000	6.009935
324.000000	5.842758
323.000000	5.625745
322.000000	5.481739
321.000000	5.367101
320.000000	5.160798
319.000000	5.042708
318.000000	4.975380
317.000000	4.862662
316.000000	4.738771
315.000000	4.673006
314.000000	4.558618
313.000000	4.448804
312.000000	4.329300
311.000000	4.274627
310.000000	4.162937
309.000000	4.101455
308.000000	3.968183
307.000000	3.900866
306.000000	3.820644
305.000000	3.708896
304.000000	3.635723
303.000000	3.539221
302.000000	3.451841
301.000000	3.346524
300.000000	3.283762
299.000000	3.174370
298.000000	3.087862
297.000000	2.958769
296.000000	2.811628
295.000000	2.685570
294.000000	2.499725
293.000000	2.325112
292.000000	2.134922
291.000000	1.923091
290.000000	1.727286
289.000000	1.544643
288.000000	1.405407
287.000000	1.306634
286.000000	1.219497
285.000000	1.154983
284.000000	1.141015
283.000000	1.125677
282.000000	1.112637
281.000000	1.111155
280.000000	1.106477
279.000000	1.106493
278.000000	1.115822
277.000000	1.124702
276.000000	1.152927
275.000000	1.177400
274.000000	1.188631
273.000000	1.228264
272.000000	1.240560
271.000000	1.267694
270.000000	1.269777
269.000000	1.271450
268.000000	1.290783
267.000000	1.328648
266.000000	1.346731
265.000000	1.376042
264.000000	1.411187
263.000000	1.457488
262.000000	1.491200
261.000000	1.502486
260.000000	1.524534
259.000000	1.547510
258.000000	1.603426
257.000000	1.677841
256.000000	1.721238
255.000000	1.716114
254.000000	1.706532
253.000000	1.671855
252.000000	1.640927
251.000000	1.607251
250.000000	1.557970
249.000000	1.465650
248.000000	1.344168
247.000000	1.224902
246.000000	1.110080
245.000000	0.965706
244.000000	0.842883
243.000000	0.733064
242.000000	0.637646
241.000000	0.551898
240.000000	0.470537
239.000000	0.415748
238.000000	0.376817
237.000000	0.348198
236.000000	0.322735
235.000000	0.301893
234.000000	0.281872
233.000000	0.262043
232.000000	0.248389
231.000000	0.226058
230.000000	0.199025
229.000000	0.188879
228.000000	0.167500
227.000000	0.143160
226.000000	0.128554
225.000000	0.117363
224.000000	0.102211
223.000000	0.094504
222.000000	0.095414
221.000000	0.093166
220.000000	0.093878
219.000000	0.092807
218.000000	0.090669
217.000000	0.081959
216.000000	0.075098
215.000000	0.085902
214.000000	0.097456
213.000000	0.083075
212.000000	0.078810
211.000000	0.079001
210.000000	0.061163
209.000000	0.053140
208.000000	0.073909
207.000000	0.094129
206.000000	0.070731
205.000000	0.041925
204.000000	0.053655
203.000000	0.068816
202.000000	0.056944
201.000000	0.051980
200.000000	0.037255
