PE UV       SUBTECH     SPECTRUM    ASCII       PEDS        4.00        
   -1
TDgAgneauUK 42.Sample.asc
18/03/08
14:51:50.00
18/03/08
14:51:50.00
Administrator

200.000000
1
Lambda 750
750N8071901
PerkinElmer UV WinLab 6.0.4.0738 / 1.61.00 Lambda 900

0
0
3350/servo 860.8/2
0
0
UV/VIS
1
1
1
CommonBeamDepol,150mm sphere / downward view
0
0
0
0
Program
Program
3350/servo 860.8/2
3350/0.2 860.8/0.2
3350/0.2 860.8/0.2
0
1
 
 
 
0
 
860.8
319.2
860.8
Front
100
on
 
 
0
0
0
 
0
 
 
 
0
 
 
0
0
0
0
0
 
 
 
 
0
0


0
0
#HDR
-1
-1
#GR
nm
%T
1.0
0.0
2350.000000
-1.000000
2151
8
30.627873
0.005912
#DATA
2350.000000	9.791121
2349.000000	9.917997
2348.000000	10.145165
2347.000000	10.766678
2346.000000	10.712273
2345.000000	10.109903
2344.000000	9.958401
2343.000000	9.855002
2342.000000	9.956753
2341.000000	10.260165
2340.000000	9.825445
2339.000000	10.402524
2338.000000	10.408553
2337.000000	10.443122
2336.000000	10.724012
2335.000000	10.710551
2334.000000	10.455832
2333.000000	10.772367
2332.000000	10.904417
2331.000000	10.832015
2330.000000	10.515138
2329.000000	10.633627
2328.000000	10.568587
2327.000000	10.724408
2326.000000	10.768942
2325.000000	10.733881
2324.000000	10.839214
2323.000000	10.762370
2322.000000	10.522856
2321.000000	10.317417
2320.000000	10.616688
2319.000000	10.708521
2318.000000	10.404830
2317.000000	10.350932
2316.000000	10.245067
2315.000000	10.078939
2314.000000	10.103201
2313.000000	10.015125
2312.000000	9.948394
2311.000000	10.079854
2310.000000	10.076480
2309.000000	9.904552
2308.000000	9.628039
2307.000000	9.777972
2306.000000	9.996127
2305.000000	9.916970
2304.000000	9.850722
2303.000000	9.881544
2302.000000	9.790868
2301.000000	9.741226
2300.000000	9.571190
2299.000000	9.508049
2298.000000	9.527947
2297.000000	9.441064
2296.000000	9.460858
2295.000000	9.196698
2294.000000	9.059530
2293.000000	9.219812
2292.000000	9.216529
2291.000000	9.222834
2290.000000	9.077106
2289.000000	9.092982
2288.000000	9.165858
2287.000000	9.215224
2286.000000	8.978256
2285.000000	8.921570
2284.000000	9.059829
2283.000000	9.078380
2282.000000	8.915444
2281.000000	9.010870
2280.000000	9.127266
2279.000000	9.150327
2278.000000	9.137904
2277.000000	9.117667
2276.000000	9.101685
2275.000000	9.099625
2274.000000	9.107594
2273.000000	9.209991
2272.000000	9.161138
2271.000000	9.032163
2270.000000	8.989121
2269.000000	9.185250
2268.000000	9.283189
2267.000000	9.332592
2266.000000	9.422782
2265.000000	9.491177
2264.000000	9.507532
2263.000000	9.655811
2262.000000	9.831547
2261.000000	9.781437
2260.000000	9.890305
2259.000000	9.908273
2258.000000	9.999706
2257.000000	10.158792
2256.000000	10.312064
2255.000000	10.311886
2254.000000	10.222033
2253.000000	10.380580
2252.000000	10.555410
2251.000000	10.792001
2250.000000	10.975861
2249.000000	11.093234
2248.000000	11.200536
2247.000000	11.258785
2246.000000	11.397774
2245.000000	11.580125
2244.000000	11.719298
2243.000000	11.888425
2242.000000	11.920835
2241.000000	11.924219
2240.000000	11.931505
2239.000000	11.894557
2238.000000	12.008589
2237.000000	12.144698
2236.000000	12.287144
2235.000000	12.334520
2234.000000	12.347829
2233.000000	12.598605
2232.000000	12.621669
2231.000000	12.457703
2230.000000	12.495554
2229.000000	12.674647
2228.000000	12.667071
2227.000000	12.555926
2226.000000	12.555408
2225.000000	12.596697
2224.000000	12.499430
2223.000000	12.450439
2222.000000	12.434518
2221.000000	12.495395
2220.000000	12.425736
2219.000000	12.478355
2218.000000	12.452877
2217.000000	12.451653
2216.000000	12.486888
2215.000000	12.356972
2214.000000	12.417756
2213.000000	12.435237
2212.000000	12.346422
2211.000000	12.240096
2210.000000	12.203532
2209.000000	12.183573
2208.000000	12.099415
2207.000000	12.029525
2206.000000	12.065086
2205.000000	12.001262
2204.000000	11.940058
2203.000000	11.878566
2202.000000	11.897506
2201.000000	11.827732
2200.000000	11.701004
2199.000000	11.696424
2198.000000	11.702596
2197.000000	11.617716
2196.000000	11.427712
2195.000000	11.319893
2194.000000	11.305154
2193.000000	11.263681
2192.000000	11.261814
2191.000000	11.222337
2190.000000	11.263654
2189.000000	11.180477
2188.000000	11.056969
2187.000000	11.024189
2186.000000	11.012157
2185.000000	10.924865
2184.000000	11.135532
2183.000000	10.981746
2182.000000	10.988085
2181.000000	10.930104
2180.000000	10.943398
2179.000000	10.965113
2178.000000	10.791853
2177.000000	10.949573
2176.000000	10.967108
2175.000000	11.030636
2174.000000	11.018362
2173.000000	10.874635
2172.000000	10.996262
2171.000000	11.008506
2170.000000	11.067799
2169.000000	11.149450
2168.000000	11.313993
2167.000000	11.153071
2166.000000	11.134841
2165.000000	11.261221
2164.000000	11.315532
2163.000000	11.155307
2162.000000	11.314434
2161.000000	11.465852
2160.000000	11.675837
2159.000000	11.689843
2158.000000	11.474501
2157.000000	11.783038
2156.000000	11.926394
2155.000000	11.875022
2154.000000	11.943103
2153.000000	12.027028
2152.000000	12.285823
2151.000000	12.171813
2150.000000	12.284298
2149.000000	12.597125
2148.000000	12.641221
2147.000000	12.615854
2146.000000	12.584944
2145.000000	12.706671
2144.000000	12.663880
2143.000000	12.593694
2142.000000	12.783575
2141.000000	12.906987
2140.000000	13.065323
2139.000000	13.207827
2138.000000	13.278046
2137.000000	13.456969
2136.000000	13.252188
2135.000000	13.522601
2134.000000	13.401464
2133.000000	13.245399
2132.000000	13.650556
2131.000000	13.718211
2130.000000	13.885813
2129.000000	13.719954
2128.000000	13.780437
2127.000000	13.756449
2126.000000	13.759611
2125.000000	13.801671
2124.000000	13.897089
2123.000000	13.958367
2122.000000	14.023065
2121.000000	13.980664
2120.000000	13.823082
2119.000000	13.914464
2118.000000	14.035624
2117.000000	13.956600
2116.000000	14.079989
2115.000000	14.072124
2114.000000	14.037073
2113.000000	14.039839
2112.000000	14.128843
2111.000000	14.142159
2110.000000	14.172666
2109.000000	14.118262
2108.000000	14.140987
2107.000000	13.980553
2106.000000	14.136135
2105.000000	14.051731
2104.000000	14.169643
2103.000000	14.160293
2102.000000	14.303534
2101.000000	14.358019
2100.000000	14.341531
2099.000000	14.216725
2098.000000	14.086646
2097.000000	14.173322
2096.000000	14.176208
2095.000000	14.092747
2094.000000	14.107149
2093.000000	14.099084
2092.000000	14.103562
2091.000000	14.121909
2090.000000	14.116691
2089.000000	14.041814
2088.000000	14.052154
2087.000000	14.035609
2086.000000	13.959615
2085.000000	13.936349
2084.000000	14.038581
2083.000000	13.859789
2082.000000	13.919781
2081.000000	13.824288
2080.000000	13.750703
2079.000000	13.635835
2078.000000	13.602969
2077.000000	13.671970
2076.000000	13.593775
2075.000000	13.640154
2074.000000	13.500169
2073.000000	13.389803
2072.000000	13.375830
2071.000000	13.309268
2070.000000	13.227706
2069.000000	13.138390
2068.000000	12.990977
2067.000000	12.890783
2066.000000	12.751745
2065.000000	12.706435
2064.000000	12.583608
2063.000000	12.493566
2062.000000	12.501531
2061.000000	12.410859
2060.000000	12.242236
2059.000000	12.123807
2058.000000	12.066233
2057.000000	11.958827
2056.000000	11.855812
2055.000000	11.746105
2054.000000	11.673156
2053.000000	11.598577
2052.000000	11.549522
2051.000000	11.499711
2050.000000	11.410654
2049.000000	11.361220
2048.000000	11.367605
2047.000000	11.351551
2046.000000	11.213815
2045.000000	11.207040
2044.000000	11.251788
2043.000000	11.172896
2042.000000	11.131416
2041.000000	11.133822
2040.000000	11.174263
2039.000000	11.221743
2038.000000	11.235829
2037.000000	11.264086
2036.000000	11.304989
2035.000000	11.338352
2034.000000	11.362924
2033.000000	11.435751
2032.000000	11.545504
2031.000000	11.615971
2030.000000	11.731166
2029.000000	11.808875
2028.000000	11.842628
2027.000000	11.922063
2026.000000	12.017713
2025.000000	12.078958
2024.000000	12.113368
2023.000000	12.166749
2022.000000	12.216818
2021.000000	12.247418
2020.000000	12.271146
2019.000000	12.302471
2018.000000	12.372621
2017.000000	12.448881
2016.000000	12.403220
2015.000000	12.355768
2014.000000	12.339059
2013.000000	12.309307
2012.000000	12.334304
2011.000000	12.293878
2010.000000	12.255896
2009.000000	12.252716
2008.000000	12.181981
2007.000000	12.092232
2006.000000	12.087894
2005.000000	12.085458
2004.000000	12.000000
2003.000000	11.951557
2002.000000	11.921643
2001.000000	11.873917
2000.000000	11.839141
1999.000000	11.790786
1998.000000	11.714805
1997.000000	11.644484
1996.000000	11.591718
1995.000000	11.548819
1994.000000	11.498930
1993.000000	11.404967
1992.000000	11.288703
1991.000000	11.219145
1990.000000	11.160375
1989.000000	11.146282
1988.000000	11.078513
1987.000000	11.012626
1986.000000	10.922422
1985.000000	10.870177
1984.000000	10.796522
1983.000000	10.768884
1982.000000	10.716294
1981.000000	10.702537
1980.000000	10.579413
1979.000000	10.471053
1978.000000	10.457004
1977.000000	10.363508
1976.000000	10.297576
1975.000000	10.273797
1974.000000	10.222047
1973.000000	10.180956
1972.000000	10.105504
1971.000000	10.026371
1970.000000	9.980724
1969.000000	9.884481
1968.000000	9.824414
1967.000000	9.810418
1966.000000	9.744722
1965.000000	9.685703
1964.000000	9.607189
1963.000000	9.560285
1962.000000	9.504289
1961.000000	9.433366
1960.000000	9.406371
1959.000000	9.359842
1958.000000	9.321774
1957.000000	9.248684
1956.000000	9.183291
1955.000000	9.171519
1954.000000	9.114632
1953.000000	9.121750
1952.000000	9.068387
1951.000000	9.098761
1950.000000	9.056193
1949.000000	9.026288
1948.000000	8.973706
1947.000000	8.951007
1946.000000	8.924104
1945.000000	8.949953
1944.000000	8.933857
1943.000000	8.976549
1942.000000	8.981997
1941.000000	9.022533
1940.000000	8.998578
1939.000000	9.078952
1938.000000	9.086935
1937.000000	9.126777
1936.000000	9.154826
1935.000000	9.242672
1934.000000	9.348690
1933.000000	9.391199
1932.000000	9.417728
1931.000000	9.512343
1930.000000	9.573814
1929.000000	9.686085
1928.000000	9.804230
1927.000000	10.021137
1926.000000	10.048514
1925.000000	10.247301
1924.000000	10.352276
1923.000000	10.385958
1922.000000	10.664368
1921.000000	10.880686
1920.000000	11.006134
1919.000000	11.181109
1918.000000	11.409922
1917.000000	11.460322
1916.000000	11.632027
1915.000000	11.978513
1914.000000	12.129629
1913.000000	12.553705
1912.000000	12.653493
1911.000000	12.800899
1910.000000	13.125884
1909.000000	13.360192
1908.000000	13.638166
1907.000000	13.901323
1906.000000	14.108541
1905.000000	14.467824
1904.000000	14.705990
1903.000000	15.044745
1902.000000	15.335009
1901.000000	15.669608
1900.000000	15.953318
1899.000000	16.250965
1898.000000	16.623490
1897.000000	16.962222
1896.000000	17.201080
1895.000000	17.542898
1894.000000	17.827827
1893.000000	18.144113
1892.000000	18.451673
1891.000000	18.729395
1890.000000	19.052048
1889.000000	19.314050
1888.000000	19.607469
1887.000000	19.887789
1886.000000	20.169531
1885.000000	20.404564
1884.000000	20.588724
1883.000000	20.868151
1882.000000	21.102343
1881.000000	21.310081
1880.000000	21.584076
1879.000000	21.747335
1878.000000	21.980576
1877.000000	22.164116
1876.000000	22.316173
1875.000000	22.532017
1874.000000	22.628472
1873.000000	22.799588
1872.000000	22.914727
1871.000000	23.015153
1870.000000	23.139425
1869.000000	23.247584
1868.000000	23.367274
1867.000000	23.472948
1866.000000	23.481187
1865.000000	23.499195
1864.000000	23.547640
1863.000000	23.626754
1862.000000	23.661121
1861.000000	23.663624
1860.000000	23.743110
1859.000000	23.783191
1858.000000	23.793355
1857.000000	23.837808
1856.000000	23.864497
1855.000000	23.882116
1854.000000	23.937342
1853.000000	23.952052
1852.000000	23.945461
1851.000000	23.965574
1850.000000	23.932927
1849.000000	23.927458
1848.000000	23.914169
1847.000000	23.945904
1846.000000	23.964513
1845.000000	23.931611
1844.000000	23.910259
1843.000000	23.866681
1842.000000	23.872655
1841.000000	23.865349
1840.000000	23.814291
1839.000000	23.809606
1838.000000	23.824905
1837.000000	23.784901
1836.000000	23.693846
1835.000000	23.657762
1834.000000	23.609760
1833.000000	23.601666
1832.000000	23.558707
1831.000000	23.533852
1830.000000	23.545257
1829.000000	23.503621
1828.000000	23.460088
1827.000000	23.441501
1826.000000	23.410374
1825.000000	23.376734
1824.000000	23.356376
1823.000000	23.343875
1822.000000	23.308233
1821.000000	23.278115
1820.000000	23.252037
1819.000000	23.208238
1818.000000	23.182023
1817.000000	23.162848
1816.000000	23.142909
1815.000000	23.124252
1814.000000	23.101099
1813.000000	23.076540
1812.000000	23.047953
1811.000000	23.040795
1810.000000	23.035939
1809.000000	23.016528
1808.000000	22.988722
1807.000000	22.952358
1806.000000	22.935535
1805.000000	22.905955
1804.000000	22.878978
1803.000000	22.856594
1802.000000	22.826658
1801.000000	22.813461
1800.000000	22.807346
1799.000000	22.807210
1798.000000	22.788953
1797.000000	22.779683
1796.000000	22.752256
1795.000000	22.729551
1794.000000	22.730689
1793.000000	22.723745
1792.000000	22.710271
1791.000000	22.725612
1790.000000	22.724248
1789.000000	22.691855
1788.000000	22.670592
1787.000000	22.658047
1786.000000	22.645006
1785.000000	22.640490
1784.000000	22.634819
1783.000000	22.611784
1782.000000	22.585364
1781.000000	22.561336
1780.000000	22.539889
1779.000000	22.537396
1778.000000	22.489931
1777.000000	22.456079
1776.000000	22.433967
1775.000000	22.395324
1774.000000	22.354148
1773.000000	22.341732
1772.000000	22.283557
1771.000000	22.229511
1770.000000	22.204737
1769.000000	22.167850
1768.000000	22.118101
1767.000000	22.098206
1766.000000	22.079837
1765.000000	22.048691
1764.000000	22.024864
1763.000000	21.978298
1762.000000	21.918526
1761.000000	21.904726
1760.000000	21.880852
1759.000000	21.811730
1758.000000	21.795420
1757.000000	21.730609
1756.000000	21.718236
1755.000000	21.688905
1754.000000	21.655001
1753.000000	21.616721
1752.000000	21.573488
1751.000000	21.533614
1750.000000	21.517290
1749.000000	21.500751
1748.000000	21.447109
1747.000000	21.380599
1746.000000	21.376004
1745.000000	21.303294
1744.000000	21.254384
1743.000000	21.270177
1742.000000	21.229826
1741.000000	21.207707
1740.000000	21.193859
1739.000000	21.140711
1738.000000	21.113100
1737.000000	21.057170
1736.000000	21.047505
1735.000000	21.031992
1734.000000	21.049897
1733.000000	21.023072
1732.000000	21.017329
1731.000000	21.010787
1730.000000	21.027681
1729.000000	21.018272
1728.000000	21.093340
1727.000000	21.090010
1726.000000	21.147422
1725.000000	21.177015
1724.000000	21.190387
1723.000000	21.257242
1722.000000	21.326794
1721.000000	21.354087
1720.000000	21.424104
1719.000000	21.501634
1718.000000	21.532235
1717.000000	21.614596
1716.000000	21.667701
1715.000000	21.702812
1714.000000	21.757712
1713.000000	21.803952
1712.000000	21.872690
1711.000000	21.905791
1710.000000	21.924988
1709.000000	21.969438
1708.000000	21.996064
1707.000000	22.028389
1706.000000	22.059132
1705.000000	22.093512
1704.000000	22.112079
1703.000000	22.116640
1702.000000	22.138863
1701.000000	22.114400
1700.000000	22.121123
1699.000000	22.135334
1698.000000	22.152731
1697.000000	22.192808
1696.000000	22.221590
1695.000000	22.238533
1694.000000	22.243776
1693.000000	22.264511
1692.000000	22.284426
1691.000000	22.338500
1690.000000	22.371808
1689.000000	22.433150
1688.000000	22.504936
1687.000000	22.573684
1686.000000	22.638807
1685.000000	22.731186
1684.000000	22.820650
1683.000000	22.907854
1682.000000	23.008423
1681.000000	23.098726
1680.000000	23.196283
1679.000000	23.297417
1678.000000	23.387865
1677.000000	23.510395
1676.000000	23.613215
1675.000000	23.703374
1674.000000	23.811790
1673.000000	23.903167
1672.000000	24.001985
1671.000000	24.101245
1670.000000	24.224990
1669.000000	24.290055
1668.000000	24.355169
1667.000000	24.445144
1666.000000	24.499243
1665.000000	24.539734
1664.000000	24.577357
1663.000000	24.639532
1662.000000	24.700892
1661.000000	24.751321
1660.000000	24.803563
1659.000000	24.845383
1658.000000	24.887564
1657.000000	24.913879
1656.000000	24.915306
1655.000000	24.925394
1654.000000	24.959581
1653.000000	24.967789
1652.000000	24.964613
1651.000000	24.961952
1650.000000	24.952678
1649.000000	24.939879
1648.000000	24.952297
1647.000000	24.955062
1646.000000	24.928347
1645.000000	24.909905
1644.000000	24.906635
1643.000000	24.884918
1642.000000	24.880609
1641.000000	24.869293
1640.000000	24.834186
1639.000000	24.799969
1638.000000	24.801571
1637.000000	24.784271
1636.000000	24.756530
1635.000000	24.737826
1634.000000	24.698507
1633.000000	24.672589
1632.000000	24.661123
1631.000000	24.632395
1630.000000	24.596995
1629.000000	24.564614
1628.000000	24.531193
1627.000000	24.498392
1626.000000	24.480889
1625.000000	24.451084
1624.000000	24.429377
1623.000000	24.406031
1622.000000	24.368305
1621.000000	24.332260
1620.000000	24.301704
1619.000000	24.259621
1618.000000	24.225696
1617.000000	24.194699
1616.000000	24.165937
1615.000000	24.147632
1614.000000	24.097531
1613.000000	24.059943
1612.000000	24.034748
1611.000000	23.986501
1610.000000	23.948403
1609.000000	23.919694
1608.000000	23.886186
1607.000000	23.856754
1606.000000	23.813210
1605.000000	23.769743
1604.000000	23.719463
1603.000000	23.687191
1602.000000	23.653667
1601.000000	23.609519
1600.000000	23.571117
1599.000000	23.533380
1598.000000	23.498558
1597.000000	23.457654
1596.000000	23.422646
1595.000000	23.394212
1594.000000	23.356468
1593.000000	23.328282
1592.000000	23.311251
1591.000000	23.265109
1590.000000	23.224577
1589.000000	23.195862
1588.000000	23.170557
1587.000000	23.143216
1586.000000	23.110208
1585.000000	23.083097
1584.000000	23.056652
1583.000000	23.023387
1582.000000	22.986506
1581.000000	22.953642
1580.000000	22.921506
1579.000000	22.903709
1578.000000	22.886892
1577.000000	22.860806
1576.000000	22.827286
1575.000000	22.786565
1574.000000	22.748589
1573.000000	22.721373
1572.000000	22.683828
1571.000000	22.644062
1570.000000	22.617150
1569.000000	22.587716
1568.000000	22.580632
1567.000000	22.564598
1566.000000	22.538121
1565.000000	22.518306
1564.000000	22.487571
1563.000000	22.471850
1562.000000	22.468534
1561.000000	22.452342
1560.000000	22.420219
1559.000000	22.384811
1558.000000	22.368448
1557.000000	22.370681
1556.000000	22.355363
1555.000000	22.339229
1554.000000	22.310312
1553.000000	22.285291
1552.000000	22.264376
1551.000000	22.235265
1550.000000	22.205355
1549.000000	22.181087
1548.000000	22.157706
1547.000000	22.125642
1546.000000	22.081687
1545.000000	22.019053
1544.000000	21.977501
1543.000000	21.943977
1542.000000	21.901288
1541.000000	21.859378
1540.000000	21.812801
1539.000000	21.737470
1538.000000	21.678199
1537.000000	21.624517
1536.000000	21.554074
1535.000000	21.511139
1534.000000	21.455403
1533.000000	21.412644
1532.000000	21.350595
1531.000000	21.285742
1530.000000	21.239251
1529.000000	21.183841
1528.000000	21.134948
1527.000000	21.092970
1526.000000	21.036372
1525.000000	20.999232
1524.000000	20.964045
1523.000000	20.929524
1522.000000	20.903708
1521.000000	20.870034
1520.000000	20.835825
1519.000000	20.809473
1518.000000	20.787899
1517.000000	20.754972
1516.000000	20.721731
1515.000000	20.703543
1514.000000	20.679763
1513.000000	20.655464
1512.000000	20.645762
1511.000000	20.637857
1510.000000	20.638845
1509.000000	20.650972
1508.000000	20.641758
1507.000000	20.620584
1506.000000	20.602025
1505.000000	20.590040
1504.000000	20.576087
1503.000000	20.551483
1502.000000	20.536954
1501.000000	20.533896
1500.000000	20.520993
1499.000000	20.528958
1498.000000	20.532095
1497.000000	20.514828
1496.000000	20.527918
1495.000000	20.537006
1494.000000	20.541857
1493.000000	20.556942
1492.000000	20.572880
1491.000000	20.590257
1490.000000	20.621892
1489.000000	20.664342
1488.000000	20.677185
1487.000000	20.689596
1486.000000	20.719404
1485.000000	20.739132
1484.000000	20.765100
1483.000000	20.818076
1482.000000	20.823097
1481.000000	20.869139
1480.000000	20.907325
1479.000000	20.945520
1478.000000	20.963204
1477.000000	20.981917
1476.000000	21.014036
1475.000000	21.048059
1474.000000	21.077774
1473.000000	21.118739
1472.000000	21.124350
1471.000000	21.155425
1470.000000	21.196563
1469.000000	21.246507
1468.000000	21.278753
1467.000000	21.302239
1466.000000	21.339285
1465.000000	21.339906
1464.000000	21.365218
1463.000000	21.408910
1462.000000	21.441939
1461.000000	21.469710
1460.000000	21.486004
1459.000000	21.526737
1458.000000	21.563734
1457.000000	21.581271
1456.000000	21.614932
1455.000000	21.649023
1454.000000	21.699203
1453.000000	21.737723
1452.000000	21.773638
1451.000000	21.829667
1450.000000	21.847332
1449.000000	21.878289
1448.000000	21.938758
1447.000000	21.994069
1446.000000	22.032319
1445.000000	22.078333
1444.000000	22.113729
1443.000000	22.167361
1442.000000	22.225560
1441.000000	22.299749
1440.000000	22.364087
1439.000000	22.421624
1438.000000	22.464973
1437.000000	22.516787
1436.000000	22.570536
1435.000000	22.637750
1434.000000	22.711128
1433.000000	22.755586
1432.000000	22.834866
1431.000000	22.907901
1430.000000	22.982916
1429.000000	23.067838
1428.000000	23.152681
1427.000000	23.255748
1426.000000	23.332261
1425.000000	23.425313
1424.000000	23.517502
1423.000000	23.603164
1422.000000	23.682305
1421.000000	23.781103
1420.000000	23.897848
1419.000000	24.014221
1418.000000	24.108022
1417.000000	24.225489
1416.000000	24.343822
1415.000000	24.460440
1414.000000	24.552327
1413.000000	24.678186
1412.000000	24.794068
1411.000000	24.899940
1410.000000	25.016201
1409.000000	25.151023
1408.000000	25.281412
1407.000000	25.399181
1406.000000	25.491577
1405.000000	25.608296
1404.000000	25.724855
1403.000000	25.838161
1402.000000	25.958833
1401.000000	26.080992
1400.000000	26.180849
1399.000000	26.245899
1398.000000	26.337433
1397.000000	26.446976
1396.000000	26.558805
1395.000000	26.655085
1394.000000	26.748427
1393.000000	26.830556
1392.000000	26.908380
1391.000000	26.993152
1390.000000	27.076215
1389.000000	27.147558
1388.000000	27.231418
1387.000000	27.328999
1386.000000	27.397032
1385.000000	27.444753
1384.000000	27.501562
1383.000000	27.569194
1382.000000	27.621923
1381.000000	27.655408
1380.000000	27.699022
1379.000000	27.755189
1378.000000	27.803820
1377.000000	27.835403
1376.000000	27.870839
1375.000000	27.925891
1374.000000	27.955486
1373.000000	27.965831
1372.000000	27.990272
1371.000000	28.028075
1370.000000	28.058219
1369.000000	28.076410
1368.000000	28.115572
1367.000000	28.166993
1366.000000	28.194134
1365.000000	28.200775
1364.000000	28.210862
1363.000000	28.247535
1362.000000	28.286516
1361.000000	28.307232
1360.000000	28.321226
1359.000000	28.343068
1358.000000	28.387762
1357.000000	28.438732
1356.000000	28.452001
1355.000000	28.452409
1354.000000	28.468514
1353.000000	28.510010
1352.000000	28.540840
1351.000000	28.550238
1350.000000	28.576044
1349.000000	28.609163
1348.000000	28.634952
1347.000000	28.661285
1346.000000	28.666012
1345.000000	28.695498
1344.000000	28.735874
1343.000000	28.755124
1342.000000	28.769907
1341.000000	28.789160
1340.000000	28.829695
1339.000000	28.852451
1338.000000	28.867142
1337.000000	28.883394
1336.000000	28.906294
1335.000000	28.929965
1334.000000	28.969340
1333.000000	28.983890
1332.000000	28.996217
1331.000000	28.998607
1330.000000	29.032810
1329.000000	29.052468
1328.000000	29.058218
1327.000000	29.065409
1326.000000	29.082653
1325.000000	29.100343
1324.000000	29.094980
1323.000000	29.106931
1322.000000	29.126093
1321.000000	29.124450
1320.000000	29.133738
1319.000000	29.156597
1318.000000	29.152669
1317.000000	29.162134
1316.000000	29.186554
1315.000000	29.176423
1314.000000	29.186887
1313.000000	29.192849
1312.000000	29.173403
1311.000000	29.198377
1310.000000	29.209939
1309.000000	29.211328
1308.000000	29.202237
1307.000000	29.220093
1306.000000	29.246401
1305.000000	29.238713
1304.000000	29.225025
1303.000000	29.231040
1302.000000	29.219781
1301.000000	29.247576
1300.000000	29.268372
1299.000000	29.272400
1298.000000	29.285003
1297.000000	29.269239
1296.000000	29.260429
1295.000000	29.249716
1294.000000	29.247736
1293.000000	29.241049
1292.000000	29.242915
1291.000000	29.252300
1290.000000	29.229716
1289.000000	29.225714
1288.000000	29.197759
1287.000000	29.187849
1286.000000	29.192661
1285.000000	29.195597
1284.000000	29.200803
1283.000000	29.193858
1282.000000	29.217283
1281.000000	29.207902
1280.000000	29.211159
1279.000000	29.211929
1278.000000	29.169391
1277.000000	29.165621
1276.000000	29.146036
1275.000000	29.157348
1274.000000	29.172144
1273.000000	29.178140
1272.000000	29.188665
1271.000000	29.185610
1270.000000	29.176401
1269.000000	29.214950
1268.000000	29.224016
1267.000000	29.229736
1266.000000	29.220290
1265.000000	29.188104
1264.000000	29.202908
1263.000000	29.209854
1262.000000	29.228948
1261.000000	29.240842
1260.000000	29.236229
1259.000000	29.228334
1258.000000	29.219964
1257.000000	29.217525
1256.000000	29.258624
1255.000000	29.264874
1254.000000	29.245123
1253.000000	29.254694
1252.000000	29.260224
1251.000000	29.241653
1250.000000	29.242900
1249.000000	29.240435
1248.000000	29.244807
1247.000000	29.249492
1246.000000	29.240185
1245.000000	29.228877
1244.000000	29.232232
1243.000000	29.192664
1242.000000	29.193638
1241.000000	29.175862
1240.000000	29.183032
1239.000000	29.168373
1238.000000	29.127149
1237.000000	29.116140
1236.000000	29.124279
1235.000000	29.119470
1234.000000	29.091644
1233.000000	29.064299
1232.000000	29.086547
1231.000000	29.078285
1230.000000	29.037998
1229.000000	29.026881
1228.000000	29.010290
1227.000000	29.014402
1226.000000	29.026573
1225.000000	29.018506
1224.000000	29.004628
1223.000000	28.991088
1222.000000	28.971606
1221.000000	28.959153
1220.000000	28.949745
1219.000000	28.925710
1218.000000	28.903917
1217.000000	28.892434
1216.000000	28.877825
1215.000000	28.861355
1214.000000	28.826928
1213.000000	28.823412
1212.000000	28.833040
1211.000000	28.812675
1210.000000	28.777143
1209.000000	28.763352
1208.000000	28.753973
1207.000000	28.758026
1206.000000	28.754487
1205.000000	28.712634
1204.000000	28.683239
1203.000000	28.645948
1202.000000	28.615422
1201.000000	28.620064
1200.000000	28.609367
1199.000000	28.575088
1198.000000	28.557710
1197.000000	28.569137
1196.000000	28.556499
1195.000000	28.534998
1194.000000	28.512851
1193.000000	28.494392
1192.000000	28.473888
1191.000000	28.469435
1190.000000	28.440546
1189.000000	28.389356
1188.000000	28.378586
1187.000000	28.377288
1186.000000	28.381245
1185.000000	28.383760
1184.000000	28.378832
1183.000000	28.383514
1182.000000	28.399293
1181.000000	28.413561
1180.000000	28.428817
1179.000000	28.454272
1178.000000	28.477566
1177.000000	28.491213
1176.000000	28.513647
1175.000000	28.547202
1174.000000	28.582670
1173.000000	28.613858
1172.000000	28.640295
1171.000000	28.659207
1170.000000	28.692298
1169.000000	28.729011
1168.000000	28.762102
1167.000000	28.805530
1166.000000	28.839712
1165.000000	28.877307
1164.000000	28.918397
1163.000000	28.931225
1162.000000	28.947379
1161.000000	28.994189
1160.000000	29.032515
1159.000000	29.068211
1158.000000	29.110585
1157.000000	29.153300
1156.000000	29.192771
1155.000000	29.228224
1154.000000	29.249020
1153.000000	29.268582
1152.000000	29.308244
1151.000000	29.347752
1150.000000	29.366542
1149.000000	29.393655
1148.000000	29.422523
1147.000000	29.442717
1146.000000	29.472028
1145.000000	29.476064
1144.000000	29.473822
1143.000000	29.501132
1142.000000	29.530635
1141.000000	29.559363
1140.000000	29.590032
1139.000000	29.608184
1138.000000	29.631689
1137.000000	29.657404
1136.000000	29.671527
1135.000000	29.693903
1134.000000	29.718494
1133.000000	29.737923
1132.000000	29.725596
1131.000000	29.719861
1130.000000	29.741727
1129.000000	29.769502
1128.000000	29.788514
1127.000000	29.800638
1126.000000	29.803573
1125.000000	29.822253
1124.000000	29.829904
1123.000000	29.830659
1122.000000	29.843096
1121.000000	29.861803
1120.000000	29.864317
1119.000000	29.860172
1118.000000	29.877045
1117.000000	29.864657
1116.000000	29.868066
1115.000000	29.874805
1114.000000	29.854871
1113.000000	29.867881
1112.000000	29.865450
1111.000000	29.865294
1110.000000	29.864682
1109.000000	29.871108
1108.000000	29.872013
1107.000000	29.836971
1106.000000	29.839475
1105.000000	29.840908
1104.000000	29.854865
1103.000000	29.861024
1102.000000	29.862309
1101.000000	29.867504
1100.000000	29.881786
1099.000000	29.891254
1098.000000	29.898292
1097.000000	29.860122
1096.000000	29.846934
1095.000000	29.848731
1094.000000	29.879442
1093.000000	29.873753
1092.000000	29.867216
1091.000000	29.880797
1090.000000	29.888613
1089.000000	29.856611
1088.000000	29.851090
1087.000000	29.841596
1086.000000	29.873580
1085.000000	29.869833
1084.000000	29.870369
1083.000000	29.838240
1082.000000	29.839420
1081.000000	29.841686
1080.000000	29.830825
1079.000000	29.856251
1078.000000	29.842219
1077.000000	29.862476
1076.000000	29.820272
1075.000000	29.816791
1074.000000	29.823278
1073.000000	29.825905
1072.000000	29.816391
1071.000000	29.813411
1070.000000	29.824099
1069.000000	29.808577
1068.000000	29.799377
1067.000000	29.805193
1066.000000	29.805094
1065.000000	29.806918
1064.000000	29.814655
1063.000000	29.801104
1062.000000	29.781918
1061.000000	29.794021
1060.000000	29.783878
1059.000000	29.784265
1058.000000	29.785536
1057.000000	29.789729
1056.000000	29.766149
1055.000000	29.756081
1054.000000	29.770006
1053.000000	29.763220
1052.000000	29.763827
1051.000000	29.738185
1050.000000	29.736935
1049.000000	29.765689
1048.000000	29.739966
1047.000000	29.767226
1046.000000	29.731972
1045.000000	29.726633
1044.000000	29.725258
1043.000000	29.730048
1042.000000	29.710028
1041.000000	29.719767
1040.000000	29.725171
1039.000000	29.718818
1038.000000	29.736398
1037.000000	29.711390
1036.000000	29.701328
1035.000000	29.708305
1034.000000	29.699885
1033.000000	29.711185
1032.000000	29.708556
1031.000000	29.715016
1030.000000	29.736083
1029.000000	29.706865
1028.000000	29.674729
1027.000000	29.682824
1026.000000	29.713662
1025.000000	29.720092
1024.000000	29.724522
1023.000000	29.727421
1022.000000	29.687761
1021.000000	29.706004
1020.000000	29.694670
1019.000000	29.705846
1018.000000	29.708270
1017.000000	29.717923
1016.000000	29.708766
1015.000000	29.718110
1014.000000	29.723226
1013.000000	29.709623
1012.000000	29.718742
1011.000000	29.730923
1010.000000	29.722569
1009.000000	29.738159
1008.000000	29.738895
1007.000000	29.740398
1006.000000	29.746664
1005.000000	29.741191
1004.000000	29.742542
1003.000000	29.765195
1002.000000	29.772340
1001.000000	29.792274
1000.000000	29.808657
999.000000	29.821358
998.000000	29.829286
997.000000	29.829928
996.000000	29.828663
995.000000	29.848035
994.000000	29.847011
993.000000	29.844910
992.000000	29.846154
991.000000	29.857800
990.000000	29.859609
989.000000	29.858068
988.000000	29.863714
987.000000	29.876089
986.000000	29.884245
985.000000	29.885056
984.000000	29.894188
983.000000	29.898363
982.000000	29.913502
981.000000	29.915369
980.000000	29.899362
979.000000	29.912092
978.000000	29.934055
977.000000	29.944813
976.000000	29.937300
975.000000	29.934293
974.000000	29.928229
973.000000	29.950428
972.000000	29.945607
971.000000	29.943907
970.000000	29.957042
969.000000	29.942992
968.000000	29.957574
967.000000	29.983743
966.000000	29.978038
965.000000	29.976888
964.000000	29.988474
963.000000	29.995113
962.000000	29.995394
961.000000	29.996586
960.000000	30.008273
959.000000	30.006813
958.000000	30.011461
957.000000	30.027987
956.000000	30.043666
955.000000	30.037145
954.000000	30.040031
953.000000	30.052912
952.000000	30.038063
951.000000	30.045642
950.000000	30.062616
949.000000	30.065842
948.000000	30.080791
947.000000	30.083550
946.000000	30.074664
945.000000	30.081170
944.000000	30.071187
943.000000	30.077180
942.000000	30.101074
941.000000	30.098835
940.000000	30.104992
939.000000	30.105805
938.000000	30.088568
937.000000	30.083016
936.000000	30.091411
935.000000	30.089770
934.000000	30.079245
933.000000	30.095632
932.000000	30.111491
931.000000	30.104990
930.000000	30.099273
929.000000	30.099941
928.000000	30.095084
927.000000	30.087314
926.000000	30.086558
925.000000	30.112757
924.000000	30.136723
923.000000	30.120718
922.000000	30.109511
921.000000	30.085305
920.000000	30.076420
919.000000	30.086878
918.000000	30.107178
917.000000	30.118902
916.000000	30.112641
915.000000	30.070796
914.000000	30.077503
913.000000	30.113982
912.000000	30.132616
911.000000	30.122978
910.000000	30.092216
909.000000	30.098465
908.000000	30.110128
907.000000	30.126868
906.000000	30.100146
905.000000	30.109873
904.000000	30.123888
903.000000	30.150105
902.000000	30.174167
901.000000	30.161929
900.000000	30.175129
899.000000	30.139612
898.000000	30.144869
897.000000	30.161571
896.000000	30.215364
895.000000	30.238878
894.000000	30.163592
893.000000	30.142839
892.000000	30.158441
891.000000	30.123286
890.000000	30.153326
889.000000	30.161478
888.000000	30.147306
887.000000	30.119678
886.000000	30.162059
885.000000	30.167632
884.000000	30.156573
883.000000	30.214451
882.000000	30.222795
881.000000	30.224433
880.000000	30.243665
879.000000	30.191201
878.000000	30.207332
877.000000	30.219434
876.000000	30.141918
875.000000	30.143563
874.000000	30.152191
873.000000	30.199675
872.000000	30.119141
871.000000	30.187899
870.000000	30.154602
869.000000	30.244254
868.000000	30.258017
867.000000	30.151077
866.000000	30.208747
865.000000	30.176715
864.000000	30.195677
863.000000	30.227499
862.000000	30.180668
861.000000	30.184053
860.000000	30.155678
859.000000	30.471355
858.000000	30.569990
857.000000	30.455153
856.000000	30.481451
855.000000	30.501230
854.000000	30.627873
853.000000	30.585214
852.000000	30.538126
851.000000	30.392314
850.000000	30.570761
849.000000	30.414811
848.000000	30.579372
847.000000	30.530033
846.000000	30.433013
845.000000	30.451116
844.000000	30.421272
843.000000	30.393965
842.000000	30.419188
841.000000	30.626433
840.000000	30.522259
839.000000	30.523516
838.000000	30.412559
837.000000	30.460956
836.000000	30.508032
835.000000	30.533601
834.000000	30.442602
833.000000	30.448122
832.000000	30.433141
831.000000	30.423894
830.000000	30.403201
829.000000	30.468198
828.000000	30.521666
827.000000	30.450147
826.000000	30.302698
825.000000	30.438155
824.000000	30.551026
823.000000	30.473094
822.000000	30.535087
821.000000	30.419533
820.000000	30.453098
819.000000	30.507089
818.000000	30.393190
817.000000	30.414660
816.000000	30.478729
815.000000	30.392250
814.000000	30.362220
813.000000	30.347191
812.000000	30.458402
811.000000	30.442692
810.000000	30.371608
809.000000	30.489103
808.000000	30.420672
807.000000	30.541730
806.000000	30.418625
805.000000	30.395598
804.000000	30.442985
803.000000	30.467796
802.000000	30.413560
801.000000	30.469166
800.000000	30.408481
799.000000	30.365765
798.000000	30.403371
797.000000	30.434453
796.000000	30.373440
795.000000	30.451448
794.000000	30.407219
793.000000	30.454454
792.000000	30.410722
791.000000	30.417596
790.000000	30.413772
789.000000	30.450092
788.000000	30.429178
787.000000	30.429058
786.000000	30.413574
785.000000	30.423317
784.000000	30.437325
783.000000	30.334182
782.000000	30.342361
781.000000	30.387182
780.000000	30.363901
779.000000	30.354603
778.000000	30.419535
777.000000	30.366103
776.000000	30.370395
775.000000	30.334160
774.000000	30.383783
773.000000	30.415113
772.000000	30.383224
771.000000	30.386488
770.000000	30.314509
769.000000	30.360600
768.000000	30.349351
767.000000	30.354323
766.000000	30.360047
765.000000	30.333383
764.000000	30.275718
763.000000	30.369135
762.000000	30.354273
761.000000	30.338374
760.000000	30.309622
759.000000	30.300686
758.000000	30.322501
757.000000	30.328599
756.000000	30.322583
755.000000	30.319325
754.000000	30.311994
753.000000	30.293228
752.000000	30.276411
751.000000	30.291346
750.000000	30.274562
749.000000	30.310283
748.000000	30.321839
747.000000	30.331456
746.000000	30.320875
745.000000	30.294579
744.000000	30.319291
743.000000	30.269280
742.000000	30.258719
741.000000	30.294696
740.000000	30.263535
739.000000	30.294221
738.000000	30.299632
737.000000	30.268108
736.000000	30.284216
735.000000	30.262664
734.000000	30.251200
733.000000	30.296052
732.000000	30.295909
731.000000	30.297889
730.000000	30.284140
729.000000	30.283389
728.000000	30.296364
727.000000	30.283898
726.000000	30.270820
725.000000	30.254896
724.000000	30.251131
723.000000	30.265263
722.000000	30.285583
721.000000	30.280372
720.000000	30.268874
719.000000	30.282050
718.000000	30.285447
717.000000	30.255316
716.000000	30.211357
715.000000	30.201432
714.000000	30.246850
713.000000	30.229309
712.000000	30.205722
711.000000	30.230315
710.000000	30.199070
709.000000	30.192958
708.000000	30.208862
707.000000	30.209357
706.000000	30.218777
705.000000	30.231618
704.000000	30.233494
703.000000	30.225607
702.000000	30.201265
701.000000	30.153146
700.000000	30.140320
699.000000	30.181922
698.000000	30.195049
697.000000	30.174159
696.000000	30.170428
695.000000	30.202689
694.000000	30.207782
693.000000	30.167829
692.000000	30.156496
691.000000	30.164023
690.000000	30.146055
689.000000	30.110599
688.000000	30.097717
687.000000	30.086225
686.000000	30.074405
685.000000	30.089702
684.000000	30.100290
683.000000	30.069641
682.000000	30.041974
681.000000	30.050251
680.000000	30.040949
679.000000	30.039662
678.000000	30.083290
677.000000	30.073163
676.000000	30.036624
675.000000	30.029223
674.000000	30.026506
673.000000	30.026391
672.000000	30.031458
671.000000	30.021599
670.000000	30.009652
669.000000	30.002680
668.000000	29.980172
667.000000	29.994198
666.000000	29.994362
665.000000	29.994555
664.000000	29.979287
663.000000	29.976878
662.000000	29.977683
661.000000	29.981386
660.000000	29.951669
659.000000	29.948149
658.000000	29.938055
657.000000	29.946127
656.000000	29.921427
655.000000	29.905083
654.000000	29.914720
653.000000	29.938147
652.000000	29.912495
651.000000	29.892256
650.000000	29.906326
649.000000	29.876866
648.000000	29.853676
647.000000	29.860480
646.000000	29.857061
645.000000	29.862432
644.000000	29.858193
643.000000	29.845937
642.000000	29.846810
641.000000	29.861897
640.000000	29.829889
639.000000	29.838147
638.000000	29.811244
637.000000	29.790204
636.000000	29.784856
635.000000	29.775482
634.000000	29.795460
633.000000	29.796344
632.000000	29.759460
631.000000	29.778138
630.000000	29.818492
629.000000	29.760411
628.000000	29.749992
627.000000	29.747349
626.000000	29.729246
625.000000	29.704529
624.000000	29.723499
623.000000	29.703035
622.000000	29.695852
621.000000	29.686934
620.000000	29.647960
619.000000	29.659438
618.000000	29.674290
617.000000	29.699341
616.000000	29.615435
615.000000	29.662597
614.000000	29.628103
613.000000	29.631414
612.000000	29.599252
611.000000	29.606007
610.000000	29.607958
609.000000	29.552793
608.000000	29.586434
607.000000	29.593280
606.000000	29.554388
605.000000	29.557019
604.000000	29.528693
603.000000	29.545892
602.000000	29.486958
601.000000	29.498409
600.000000	29.510904
599.000000	29.480506
598.000000	29.485544
597.000000	29.483359
596.000000	29.479958
595.000000	29.464883
594.000000	29.461956
593.000000	29.420942
592.000000	29.397076
591.000000	29.402052
590.000000	29.369508
589.000000	29.364086
588.000000	29.370558
587.000000	29.369923
586.000000	29.332057
585.000000	29.324443
584.000000	29.282609
583.000000	29.307076
582.000000	29.304284
581.000000	29.291101
580.000000	29.254777
579.000000	29.263163
578.000000	29.210055
577.000000	29.214394
576.000000	29.205562
575.000000	29.188970
574.000000	29.135337
573.000000	29.152460
572.000000	29.151005
571.000000	29.140272
570.000000	29.099861
569.000000	29.119277
568.000000	29.084474
567.000000	29.052119
566.000000	29.071321
565.000000	29.052862
564.000000	29.007082
563.000000	29.019234
562.000000	28.979153
561.000000	29.019982
560.000000	28.987413
559.000000	28.956039
558.000000	28.953869
557.000000	28.940090
556.000000	28.919084
555.000000	28.881984
554.000000	28.886115
553.000000	28.878054
552.000000	28.861167
551.000000	28.849455
550.000000	28.816594
549.000000	28.766909
548.000000	28.744856
547.000000	28.745406
546.000000	28.703323
545.000000	28.687892
544.000000	28.696502
543.000000	28.652318
542.000000	28.641059
541.000000	28.638758
540.000000	28.595401
539.000000	28.577000
538.000000	28.575056
537.000000	28.567840
536.000000	28.509055
535.000000	28.504507
534.000000	28.447427
533.000000	28.442016
532.000000	28.435304
531.000000	28.419625
530.000000	28.367922
529.000000	28.348735
528.000000	28.318951
527.000000	28.293603
526.000000	28.274472
525.000000	28.229880
524.000000	28.190481
523.000000	28.191952
522.000000	28.153588
521.000000	28.119249
520.000000	28.093620
519.000000	28.048376
518.000000	28.022933
517.000000	27.995294
516.000000	27.954445
515.000000	27.929177
514.000000	27.897035
513.000000	27.849273
512.000000	27.833665
511.000000	27.802651
510.000000	27.766982
509.000000	27.758797
508.000000	27.724973
507.000000	27.700072
506.000000	27.649232
505.000000	27.634046
504.000000	27.611367
503.000000	27.574913
502.000000	27.543173
501.000000	27.498768
500.000000	27.469112
499.000000	27.420035
498.000000	27.389056
497.000000	27.378673
496.000000	27.325675
495.000000	27.273501
494.000000	27.221163
493.000000	27.190379
492.000000	27.151591
491.000000	27.129179
490.000000	27.102875
489.000000	27.054186
488.000000	27.017791
487.000000	26.965191
486.000000	26.949189
485.000000	26.933571
484.000000	26.892584
483.000000	26.867944
482.000000	26.823262
481.000000	26.787718
480.000000	26.737057
479.000000	26.677398
478.000000	26.632486
477.000000	26.593065
476.000000	26.540302
475.000000	26.492202
474.000000	26.438787
473.000000	26.384279
472.000000	26.339294
471.000000	26.272844
470.000000	26.219626
469.000000	26.194314
468.000000	26.139513
467.000000	26.083293
466.000000	26.038941
465.000000	25.988336
464.000000	25.932081
463.000000	25.865379
462.000000	25.808070
461.000000	25.772240
460.000000	25.708560
459.000000	25.620841
458.000000	25.565378
457.000000	25.504932
456.000000	25.462204
455.000000	25.431654
454.000000	25.354093
453.000000	25.253400
452.000000	25.195972
451.000000	25.142461
450.000000	25.081644
449.000000	25.008843
448.000000	24.922772
447.000000	24.859542
446.000000	24.789175
445.000000	24.730177
444.000000	24.652279
443.000000	24.565422
442.000000	24.483357
441.000000	24.382670
440.000000	24.321018
439.000000	24.240754
438.000000	24.126621
437.000000	24.044708
436.000000	23.971291
435.000000	23.890564
434.000000	23.791078
433.000000	23.683424
432.000000	23.607497
431.000000	23.531142
430.000000	23.419725
429.000000	23.280846
428.000000	23.193270
427.000000	23.091834
426.000000	22.972591
425.000000	22.876016
424.000000	22.765077
423.000000	22.650557
422.000000	22.531530
421.000000	22.422867
420.000000	22.317186
419.000000	22.206447
418.000000	22.091702
417.000000	21.957684
416.000000	21.842845
415.000000	21.702247
414.000000	21.557568
413.000000	21.442174
412.000000	21.310145
411.000000	21.168185
410.000000	21.028489
409.000000	20.882173
408.000000	20.736995
407.000000	20.613734
406.000000	20.466850
405.000000	20.335127
404.000000	20.185328
403.000000	20.037335
402.000000	19.900244
401.000000	19.764685
400.000000	19.663762
399.000000	19.485872
398.000000	19.289507
397.000000	19.171830
396.000000	19.031100
395.000000	18.864568
394.000000	18.710488
393.000000	18.527572
392.000000	18.387348
391.000000	18.280366
390.000000	18.135039
389.000000	17.970055
388.000000	17.765371
387.000000	17.578545
386.000000	17.424420
385.000000	17.243135
384.000000	17.088195
383.000000	16.939580
382.000000	16.750719
381.000000	16.542886
380.000000	16.406342
379.000000	16.206837
378.000000	15.994297
377.000000	15.844928
376.000000	15.725741
375.000000	15.530498
374.000000	15.265471
373.000000	15.081767
372.000000	14.994711
371.000000	14.776894
370.000000	14.497290
369.000000	14.357986
368.000000	14.154238
367.000000	13.945431
366.000000	13.782734
365.000000	13.610987
364.000000	13.418032
363.000000	13.238070
362.000000	13.010083
361.000000	12.819358
360.000000	12.662088
359.000000	12.497564
358.000000	12.347161
357.000000	12.157082
356.000000	11.923922
355.000000	11.780589
354.000000	11.647293
353.000000	11.561938
352.000000	11.258665
351.000000	11.127615
350.000000	10.967291
349.000000	10.726824
348.000000	10.527353
347.000000	10.377993
346.000000	10.212161
345.000000	9.984415
344.000000	9.882653
343.000000	9.633929
342.000000	9.453076
341.000000	9.212154
340.000000	9.014724
339.000000	8.814345
338.000000	8.622013
337.000000	8.351325
336.000000	8.146645
335.000000	7.852415
334.000000	7.603382
333.000000	7.384402
332.000000	7.051612
331.000000	6.784393
330.000000	6.573008
329.000000	6.348656
328.000000	6.070004
327.000000	5.869508
326.000000	5.641500
325.000000	5.424886
324.000000	5.226488
323.000000	5.058088
322.000000	4.990663
321.000000	4.773869
320.000000	4.672372
319.000000	4.496413
318.000000	4.433816
317.000000	4.351064
316.000000	4.250891
315.000000	4.144603
314.000000	4.031408
313.000000	3.902711
312.000000	3.837062
311.000000	3.781736
310.000000	3.677554
309.000000	3.582543
308.000000	3.470636
307.000000	3.393132
306.000000	3.276910
305.000000	3.193415
304.000000	3.131386
303.000000	3.026382
302.000000	2.947432
301.000000	2.862717
300.000000	2.761009
299.000000	2.679896
298.000000	2.584739
297.000000	2.430307
296.000000	2.306267
295.000000	2.166992
294.000000	2.011655
293.000000	1.824472
292.000000	1.618663
291.000000	1.444058
290.000000	1.289847
289.000000	1.135267
288.000000	1.019666
287.000000	0.932680
286.000000	0.871941
285.000000	0.837660
284.000000	0.822356
283.000000	0.801772
282.000000	0.801682
281.000000	0.798878
280.000000	0.796429
279.000000	0.802809
278.000000	0.804736
277.000000	0.823756
276.000000	0.839616
275.000000	0.856491
274.000000	0.873723
273.000000	0.899614
272.000000	0.911289
271.000000	0.921004
270.000000	0.928834
269.000000	0.931225
268.000000	0.957859
267.000000	0.987894
266.000000	0.996849
265.000000	1.007702
264.000000	1.035159
263.000000	1.080392
262.000000	1.104900
261.000000	1.122657
260.000000	1.141314
259.000000	1.160931
258.000000	1.191051
257.000000	1.229747
256.000000	1.258025
255.000000	1.266114
254.000000	1.256691
253.000000	1.236219
252.000000	1.203264
251.000000	1.184899
250.000000	1.137036
249.000000	1.062823
248.000000	0.995469
247.000000	0.905281
246.000000	0.813188
245.000000	0.730519
244.000000	0.646096
243.000000	0.572212
242.000000	0.517838
241.000000	0.459147
240.000000	0.405649
239.000000	0.367685
238.000000	0.344187
237.000000	0.322351
236.000000	0.307099
235.000000	0.276302
234.000000	0.258348
233.000000	0.244635
232.000000	0.214636
231.000000	0.190294
230.000000	0.178657
229.000000	0.163612
228.000000	0.151351
227.000000	0.136845
226.000000	0.120681
225.000000	0.110099
224.000000	0.101379
223.000000	0.093358
222.000000	0.089672
221.000000	0.080842
220.000000	0.072585
219.000000	0.068079
218.000000	0.067291
217.000000	0.066914
216.000000	0.057825
215.000000	0.047923
214.000000	0.049947
213.000000	0.052625
212.000000	0.056824
211.000000	0.060444
210.000000	0.063503
209.000000	0.060183
208.000000	0.044409
207.000000	0.042321
206.000000	0.033600
205.000000	0.005912
204.000000	0.035518
203.000000	0.054880
202.000000	0.024589
201.000000	0.086346
200.000000	0.124363
