PE UV       SUBTECH     SPECTRUM    ASCII       PEDS        4.00        
   -1
TDgChevreUK 42.Sample.asc
18/03/08
15:45:29.00
18/03/08
15:45:29.00
Administrator

200.000000
1
Lambda 750
750N8071901
PerkinElmer UV WinLab 6.0.4.0738 / 1.61.00 Lambda 900

0
0
3350/servo 860.8/2
0
0
UV/VIS
1
1
1
CommonBeamDepol,150mm sphere / downward view
0
0
0
0
Program
Program
3350/servo 860.8/2
3350/0.2 860.8/0.2
3350/0.2 860.8/0.2
0
1
 
 
 
0
 
860.8
319.2
860.8
Front
100
on
 
 
0
0
0
 
0
 
 
 
0
 
 
0
0
0
0
0
 
 
 
 
0
0


0
0
#HDR
-1
-1
#GR
nm
%T
1.0
0.0
2350.000000
-1.000000
2151
8
40.997839
0.080195
#DATA
2350.000000	10.127625
2349.000000	10.307381
2348.000000	10.172030
2347.000000	10.813729
2346.000000	10.926006
2345.000000	10.237507
2344.000000	10.621225
2343.000000	10.425425
2342.000000	10.480921
2341.000000	10.867038
2340.000000	10.429080
2339.000000	10.797247
2338.000000	10.757681
2337.000000	11.128496
2336.000000	11.072906
2335.000000	11.057332
2334.000000	10.954793
2333.000000	11.083262
2332.000000	11.468296
2331.000000	11.531902
2330.000000	11.147085
2329.000000	10.909562
2328.000000	10.636736
2327.000000	10.855566
2326.000000	11.003433
2325.000000	11.226342
2324.000000	11.148143
2323.000000	11.142612
2322.000000	10.718569
2321.000000	10.805337
2320.000000	10.748787
2319.000000	10.726737
2318.000000	10.731283
2317.000000	10.887088
2316.000000	10.586913
2315.000000	10.490382
2314.000000	10.369432
2313.000000	10.317110
2312.000000	10.057720
2311.000000	10.318086
2310.000000	10.429377
2309.000000	10.196578
2308.000000	10.331156
2307.000000	10.286740
2306.000000	10.295516
2305.000000	10.194176
2304.000000	10.086568
2303.000000	10.250401
2302.000000	9.988713
2301.000000	9.867005
2300.000000	9.766450
2299.000000	9.796621
2298.000000	9.694300
2297.000000	9.768829
2296.000000	9.531329
2295.000000	9.553911
2294.000000	9.479134
2293.000000	9.457383
2292.000000	9.656911
2291.000000	9.557393
2290.000000	9.395167
2289.000000	9.416226
2288.000000	9.567038
2287.000000	9.488575
2286.000000	9.366218
2285.000000	9.362052
2284.000000	9.370869
2283.000000	9.300377
2282.000000	9.289663
2281.000000	9.202295
2280.000000	9.121069
2279.000000	9.386912
2278.000000	9.462921
2277.000000	9.378152
2276.000000	9.421201
2275.000000	9.499632
2274.000000	9.487617
2273.000000	9.653713
2272.000000	9.593808
2271.000000	9.426940
2270.000000	9.410468
2269.000000	9.645426
2268.000000	9.858674
2267.000000	9.844289
2266.000000	9.844704
2265.000000	9.968721
2264.000000	10.014936
2263.000000	10.035292
2262.000000	10.099768
2261.000000	10.279100
2260.000000	10.488882
2259.000000	10.600099
2258.000000	10.832187
2257.000000	10.946917
2256.000000	10.994466
2255.000000	10.963501
2254.000000	11.005698
2253.000000	11.074874
2252.000000	11.359102
2251.000000	11.651438
2250.000000	11.691892
2249.000000	11.839530
2248.000000	11.989507
2247.000000	12.140063
2246.000000	12.388796
2245.000000	12.611788
2244.000000	12.713020
2243.000000	12.825616
2242.000000	13.009394
2241.000000	13.118090
2240.000000	13.107066
2239.000000	13.113151
2238.000000	13.163561
2237.000000	13.339422
2236.000000	13.351206
2235.000000	13.414783
2234.000000	13.610236
2233.000000	13.625858
2232.000000	13.535221
2231.000000	13.516791
2230.000000	13.631393
2229.000000	13.631511
2228.000000	13.688771
2227.000000	13.696627
2226.000000	13.576250
2225.000000	13.628948
2224.000000	13.636709
2223.000000	13.638391
2222.000000	13.722292
2221.000000	13.654949
2220.000000	13.612335
2219.000000	13.690483
2218.000000	13.590224
2217.000000	13.549087
2216.000000	13.558128
2215.000000	13.381839
2214.000000	13.455356
2213.000000	13.394932
2212.000000	13.351031
2211.000000	13.249933
2210.000000	13.151560
2209.000000	13.099086
2208.000000	13.025376
2207.000000	13.122473
2206.000000	13.000899
2205.000000	13.016874
2204.000000	12.906268
2203.000000	12.750964
2202.000000	12.771898
2201.000000	12.737495
2200.000000	12.632100
2199.000000	12.612887
2198.000000	12.595143
2197.000000	12.519149
2196.000000	12.480879
2195.000000	12.433166
2194.000000	12.305893
2193.000000	12.185822
2192.000000	12.117571
2191.000000	12.196214
2190.000000	12.209669
2189.000000	12.170249
2188.000000	12.014204
2187.000000	11.903062
2186.000000	11.776888
2185.000000	11.816102
2184.000000	11.953727
2183.000000	11.865805
2182.000000	11.735676
2181.000000	11.747874
2180.000000	11.659856
2179.000000	11.703154
2178.000000	11.607518
2177.000000	11.707905
2176.000000	11.719254
2175.000000	11.758150
2174.000000	11.867368
2173.000000	11.715342
2172.000000	11.741312
2171.000000	11.817873
2170.000000	11.764208
2169.000000	12.012635
2168.000000	12.051112
2167.000000	12.108984
2166.000000	12.145025
2165.000000	12.139931
2164.000000	12.237798
2163.000000	12.129082
2162.000000	12.354741
2161.000000	12.389261
2160.000000	12.533442
2159.000000	12.653487
2158.000000	12.617184
2157.000000	12.837571
2156.000000	12.906663
2155.000000	13.023124
2154.000000	13.176920
2153.000000	13.324305
2152.000000	13.306389
2151.000000	13.266114
2150.000000	13.455759
2149.000000	13.684060
2148.000000	13.681063
2147.000000	13.750924
2146.000000	13.706450
2145.000000	13.810056
2144.000000	14.154929
2143.000000	14.113679
2142.000000	14.197274
2141.000000	14.243512
2140.000000	14.452682
2139.000000	14.335369
2138.000000	14.447625
2137.000000	14.619207
2136.000000	14.595874
2135.000000	14.720278
2134.000000	14.894198
2133.000000	14.789734
2132.000000	15.102015
2131.000000	15.253282
2130.000000	15.286072
2129.000000	15.380121
2128.000000	15.138293
2127.000000	15.158472
2126.000000	15.216946
2125.000000	15.394101
2124.000000	15.368397
2123.000000	15.159430
2122.000000	15.368597
2121.000000	15.528447
2120.000000	15.521875
2119.000000	15.505260
2118.000000	15.517005
2117.000000	15.727565
2116.000000	15.850034
2115.000000	15.737321
2114.000000	15.677249
2113.000000	15.664124
2112.000000	15.687767
2111.000000	15.755555
2110.000000	15.761310
2109.000000	15.796713
2108.000000	15.690347
2107.000000	15.731610
2106.000000	15.742231
2105.000000	15.855092
2104.000000	15.758987
2103.000000	15.756732
2102.000000	15.726872
2101.000000	15.766452
2100.000000	15.912182
2099.000000	15.886222
2098.000000	15.780033
2097.000000	15.851032
2096.000000	15.758254
2095.000000	15.724610
2094.000000	15.746514
2093.000000	15.602568
2092.000000	15.714599
2091.000000	15.664480
2090.000000	15.686560
2089.000000	15.742642
2088.000000	15.702345
2087.000000	15.599336
2086.000000	15.609413
2085.000000	15.657062
2084.000000	15.586669
2083.000000	15.474798
2082.000000	15.402150
2081.000000	15.424913
2080.000000	15.270162
2079.000000	15.220495
2078.000000	15.091453
2077.000000	15.107952
2076.000000	15.039945
2075.000000	14.893656
2074.000000	14.748760
2073.000000	14.743609
2072.000000	14.649223
2071.000000	14.630409
2070.000000	14.551842
2069.000000	14.343435
2068.000000	14.244487
2067.000000	14.115197
2066.000000	13.976697
2065.000000	13.854355
2064.000000	13.759024
2063.000000	13.622133
2062.000000	13.566140
2061.000000	13.443021
2060.000000	13.298356
2059.000000	13.167211
2058.000000	13.071803
2057.000000	12.994026
2056.000000	12.886047
2055.000000	12.829034
2054.000000	12.698469
2053.000000	12.620479
2052.000000	12.563635
2051.000000	12.402618
2050.000000	12.317790
2049.000000	12.235768
2048.000000	12.174941
2047.000000	12.153299
2046.000000	12.099127
2045.000000	12.076372
2044.000000	12.065220
2043.000000	12.068085
2042.000000	12.044810
2041.000000	12.088124
2040.000000	12.077893
2039.000000	12.068948
2038.000000	12.099492
2037.000000	12.156325
2036.000000	12.231957
2035.000000	12.283789
2034.000000	12.353492
2033.000000	12.427963
2032.000000	12.505997
2031.000000	12.587797
2030.000000	12.627786
2029.000000	12.691025
2028.000000	12.798999
2027.000000	12.861995
2026.000000	12.927630
2025.000000	13.009319
2024.000000	13.069836
2023.000000	13.102083
2022.000000	13.132029
2021.000000	13.197588
2020.000000	13.218117
2019.000000	13.211536
2018.000000	13.241695
2017.000000	13.240905
2016.000000	13.217555
2015.000000	13.200779
2014.000000	13.209219
2013.000000	13.163215
2012.000000	13.086306
2011.000000	13.086943
2010.000000	13.057679
2009.000000	12.964296
2008.000000	12.904543
2007.000000	12.867294
2006.000000	12.827862
2005.000000	12.756872
2004.000000	12.666514
2003.000000	12.631066
2002.000000	12.534547
2001.000000	12.425648
2000.000000	12.360014
1999.000000	12.267667
1998.000000	12.246894
1997.000000	12.161014
1996.000000	12.091704
1995.000000	12.031815
1994.000000	11.931237
1993.000000	11.846751
1992.000000	11.741682
1991.000000	11.668411
1990.000000	11.546818
1989.000000	11.478274
1988.000000	11.415708
1987.000000	11.335023
1986.000000	11.271905
1985.000000	11.193583
1984.000000	11.101669
1983.000000	11.012896
1982.000000	10.948934
1981.000000	10.913637
1980.000000	10.848193
1979.000000	10.731010
1978.000000	10.654574
1977.000000	10.608597
1976.000000	10.501336
1975.000000	10.400081
1974.000000	10.302035
1973.000000	10.307923
1972.000000	10.260451
1971.000000	10.172967
1970.000000	10.140445
1969.000000	10.088936
1968.000000	10.014393
1967.000000	9.900588
1966.000000	9.897104
1965.000000	9.823954
1964.000000	9.767441
1963.000000	9.684067
1962.000000	9.598129
1961.000000	9.518340
1960.000000	9.483529
1959.000000	9.444651
1958.000000	9.376671
1957.000000	9.385884
1956.000000	9.288600
1955.000000	9.265628
1954.000000	9.234234
1953.000000	9.184337
1952.000000	9.173154
1951.000000	9.202309
1950.000000	9.147140
1949.000000	9.133380
1948.000000	9.091085
1947.000000	9.091140
1946.000000	9.044769
1945.000000	9.096155
1944.000000	9.092682
1943.000000	9.140432
1942.000000	9.206679
1941.000000	9.148853
1940.000000	9.182705
1939.000000	9.282935
1938.000000	9.302672
1937.000000	9.373077
1936.000000	9.452059
1935.000000	9.506307
1934.000000	9.552297
1933.000000	9.644706
1932.000000	9.748097
1931.000000	9.849162
1930.000000	10.000325
1929.000000	10.091523
1928.000000	10.218492
1927.000000	10.384650
1926.000000	10.538015
1925.000000	10.621219
1924.000000	10.894435
1923.000000	11.051265
1922.000000	11.273213
1921.000000	11.500797
1920.000000	11.676876
1919.000000	11.836537
1918.000000	12.043283
1917.000000	12.360001
1916.000000	12.537042
1915.000000	12.851380
1914.000000	13.138085
1913.000000	13.439565
1912.000000	13.760408
1911.000000	13.904028
1910.000000	14.317043
1909.000000	14.590424
1908.000000	14.928410
1907.000000	15.342801
1906.000000	15.703474
1905.000000	16.114014
1904.000000	16.440552
1903.000000	16.837291
1902.000000	17.272602
1901.000000	17.685060
1900.000000	18.098588
1899.000000	18.543757
1898.000000	18.963745
1897.000000	19.367238
1896.000000	19.851732
1895.000000	20.258161
1894.000000	20.663069
1893.000000	21.059596
1892.000000	21.583662
1891.000000	21.975944
1890.000000	22.402402
1889.000000	22.727254
1888.000000	23.128799
1887.000000	23.515994
1886.000000	23.940002
1885.000000	24.262475
1884.000000	24.634316
1883.000000	25.041822
1882.000000	25.370378
1881.000000	25.668874
1880.000000	25.949455
1879.000000	26.256755
1878.000000	26.600406
1877.000000	26.854889
1876.000000	27.152266
1875.000000	27.420472
1874.000000	27.639735
1873.000000	27.885953
1872.000000	28.089508
1871.000000	28.272425
1870.000000	28.449942
1869.000000	28.630042
1868.000000	28.805996
1867.000000	28.921647
1866.000000	29.014009
1865.000000	29.093113
1864.000000	29.193926
1863.000000	29.239431
1862.000000	29.310834
1861.000000	29.381526
1860.000000	29.462447
1859.000000	29.486195
1858.000000	29.569156
1857.000000	29.564365
1856.000000	29.599673
1855.000000	29.658138
1854.000000	29.668889
1853.000000	29.721530
1852.000000	29.738062
1851.000000	29.733951
1850.000000	29.756852
1849.000000	29.777687
1848.000000	29.757018
1847.000000	29.754560
1846.000000	29.736230
1845.000000	29.729867
1844.000000	29.732685
1843.000000	29.712354
1842.000000	29.649511
1841.000000	29.612249
1840.000000	29.616291
1839.000000	29.586865
1838.000000	29.518526
1837.000000	29.462578
1836.000000	29.419662
1835.000000	29.383732
1834.000000	29.323559
1833.000000	29.260745
1832.000000	29.211858
1831.000000	29.173130
1830.000000	29.125607
1829.000000	29.065209
1828.000000	29.010802
1827.000000	28.966351
1826.000000	28.947184
1825.000000	28.906678
1824.000000	28.838708
1823.000000	28.783256
1822.000000	28.756049
1821.000000	28.722986
1820.000000	28.686555
1819.000000	28.643313
1818.000000	28.599667
1817.000000	28.552255
1816.000000	28.517792
1815.000000	28.490326
1814.000000	28.446767
1813.000000	28.397658
1812.000000	28.353070
1811.000000	28.306868
1810.000000	28.272521
1809.000000	28.280852
1808.000000	28.254164
1807.000000	28.199189
1806.000000	28.160191
1805.000000	28.114493
1804.000000	28.072432
1803.000000	28.034687
1802.000000	27.994201
1801.000000	27.973648
1800.000000	27.955210
1799.000000	27.934406
1798.000000	27.910274
1797.000000	27.880422
1796.000000	27.848773
1795.000000	27.815405
1794.000000	27.823652
1793.000000	27.821205
1792.000000	27.790668
1791.000000	27.777919
1790.000000	27.741555
1789.000000	27.678824
1788.000000	27.656232
1787.000000	27.639660
1786.000000	27.628527
1785.000000	27.615677
1784.000000	27.600770
1783.000000	27.570309
1782.000000	27.534001
1781.000000	27.499631
1780.000000	27.454822
1779.000000	27.417795
1778.000000	27.384057
1777.000000	27.346388
1776.000000	27.296551
1775.000000	27.237218
1774.000000	27.180158
1773.000000	27.133956
1772.000000	27.057399
1771.000000	27.000991
1770.000000	26.935988
1769.000000	26.874258
1768.000000	26.815162
1767.000000	26.774210
1766.000000	26.705416
1765.000000	26.662334
1764.000000	26.596739
1763.000000	26.535339
1762.000000	26.483703
1761.000000	26.431251
1760.000000	26.383651
1759.000000	26.334392
1758.000000	26.304975
1757.000000	26.252568
1756.000000	26.184952
1755.000000	26.129704
1754.000000	26.089468
1753.000000	26.040299
1752.000000	25.985197
1751.000000	25.929622
1750.000000	25.863754
1749.000000	25.857893
1748.000000	25.786322
1747.000000	25.724928
1746.000000	25.651916
1745.000000	25.571153
1744.000000	25.518787
1743.000000	25.467216
1742.000000	25.393767
1741.000000	25.334174
1740.000000	25.284513
1739.000000	25.212061
1738.000000	25.200570
1737.000000	25.161821
1736.000000	25.127700
1735.000000	25.052299
1734.000000	25.069483
1733.000000	25.052700
1732.000000	25.065514
1731.000000	25.056659
1730.000000	25.080248
1729.000000	25.089103
1728.000000	25.156116
1727.000000	25.184974
1726.000000	25.232272
1725.000000	25.283447
1724.000000	25.341965
1723.000000	25.413506
1722.000000	25.503335
1721.000000	25.569872
1720.000000	25.670161
1719.000000	25.781036
1718.000000	25.878160
1717.000000	25.976347
1716.000000	26.079684
1715.000000	26.139740
1714.000000	26.240347
1713.000000	26.312916
1712.000000	26.387845
1711.000000	26.446841
1710.000000	26.527298
1709.000000	26.584231
1708.000000	26.636192
1707.000000	26.668348
1706.000000	26.729076
1705.000000	26.774782
1704.000000	26.787376
1703.000000	26.823119
1702.000000	26.823376
1701.000000	26.865323
1700.000000	26.874836
1699.000000	26.886485
1698.000000	26.936226
1697.000000	26.967203
1696.000000	27.030014
1695.000000	27.042304
1694.000000	27.086638
1693.000000	27.130427
1692.000000	27.216750
1691.000000	27.247730
1690.000000	27.335978
1689.000000	27.465623
1688.000000	27.562164
1687.000000	27.629854
1686.000000	27.766105
1685.000000	27.917917
1684.000000	28.060219
1683.000000	28.197190
1682.000000	28.372060
1681.000000	28.523081
1680.000000	28.682161
1679.000000	28.839613
1678.000000	29.010143
1677.000000	29.185377
1676.000000	29.366041
1675.000000	29.543555
1674.000000	29.704597
1673.000000	29.874385
1672.000000	30.031356
1671.000000	30.188347
1670.000000	30.351159
1669.000000	30.510726
1668.000000	30.615349
1667.000000	30.736607
1666.000000	30.832004
1665.000000	30.925431
1664.000000	31.027646
1663.000000	31.087261
1662.000000	31.184572
1661.000000	31.265998
1660.000000	31.343334
1659.000000	31.400952
1658.000000	31.440057
1657.000000	31.474383
1656.000000	31.523504
1655.000000	31.549534
1654.000000	31.558848
1653.000000	31.569214
1652.000000	31.596222
1651.000000	31.589145
1650.000000	31.594466
1649.000000	31.582386
1648.000000	31.583525
1647.000000	31.569134
1646.000000	31.529035
1645.000000	31.495297
1644.000000	31.488491
1643.000000	31.462594
1642.000000	31.438083
1641.000000	31.389381
1640.000000	31.365038
1639.000000	31.352244
1638.000000	31.310518
1637.000000	31.281247
1636.000000	31.231658
1635.000000	31.190350
1634.000000	31.139236
1633.000000	31.095815
1632.000000	31.057861
1631.000000	31.005838
1630.000000	30.953322
1629.000000	30.906502
1628.000000	30.854710
1627.000000	30.803264
1626.000000	30.755016
1625.000000	30.711262
1624.000000	30.666702
1623.000000	30.614033
1622.000000	30.543839
1621.000000	30.486210
1620.000000	30.444599
1619.000000	30.380589
1618.000000	30.322381
1617.000000	30.259476
1616.000000	30.197363
1615.000000	30.138921
1614.000000	30.072945
1613.000000	30.001372
1612.000000	29.942683
1611.000000	29.885449
1610.000000	29.835579
1609.000000	29.780215
1608.000000	29.700328
1607.000000	29.616822
1606.000000	29.546293
1605.000000	29.477708
1604.000000	29.400423
1603.000000	29.328092
1602.000000	29.289135
1601.000000	29.223867
1600.000000	29.153755
1599.000000	29.094733
1598.000000	29.023495
1597.000000	28.966921
1596.000000	28.914033
1595.000000	28.848981
1594.000000	28.777979
1593.000000	28.737827
1592.000000	28.691943
1591.000000	28.616161
1590.000000	28.554809
1589.000000	28.496832
1588.000000	28.453058
1587.000000	28.410390
1586.000000	28.346988
1585.000000	28.287760
1584.000000	28.239489
1583.000000	28.192904
1582.000000	28.141331
1581.000000	28.093851
1580.000000	28.050308
1579.000000	28.001605
1578.000000	27.942484
1577.000000	27.895871
1576.000000	27.847773
1575.000000	27.800136
1574.000000	27.740641
1573.000000	27.679194
1572.000000	27.641808
1571.000000	27.586963
1570.000000	27.551517
1569.000000	27.510305
1568.000000	27.474370
1567.000000	27.427581
1566.000000	27.369212
1565.000000	27.334234
1564.000000	27.297979
1563.000000	27.274629
1562.000000	27.229326
1561.000000	27.189950
1560.000000	27.159728
1559.000000	27.136173
1558.000000	27.112981
1557.000000	27.081859
1556.000000	27.042812
1555.000000	27.005378
1554.000000	26.963895
1553.000000	26.948783
1552.000000	26.916531
1551.000000	26.869059
1550.000000	26.818394
1549.000000	26.766710
1548.000000	26.717197
1547.000000	26.664818
1546.000000	26.602167
1545.000000	26.546187
1544.000000	26.468701
1543.000000	26.388483
1542.000000	26.308228
1541.000000	26.223760
1540.000000	26.161793
1539.000000	26.075560
1538.000000	25.966762
1537.000000	25.887403
1536.000000	25.797072
1535.000000	25.700849
1534.000000	25.606215
1533.000000	25.536603
1532.000000	25.445942
1531.000000	25.353997
1530.000000	25.279209
1529.000000	25.196874
1528.000000	25.131520
1527.000000	25.064157
1526.000000	24.994770
1525.000000	24.930641
1524.000000	24.866373
1523.000000	24.809954
1522.000000	24.766980
1521.000000	24.721971
1520.000000	24.667283
1519.000000	24.626923
1518.000000	24.593347
1517.000000	24.558674
1516.000000	24.505963
1515.000000	24.463559
1514.000000	24.422310
1513.000000	24.419767
1512.000000	24.367688
1511.000000	24.338315
1510.000000	24.320714
1509.000000	24.287422
1508.000000	24.273267
1507.000000	24.249509
1506.000000	24.232280
1505.000000	24.221616
1504.000000	24.214625
1503.000000	24.214726
1502.000000	24.226926
1501.000000	24.230816
1500.000000	24.203672
1499.000000	24.185271
1498.000000	24.197993
1497.000000	24.194610
1496.000000	24.193665
1495.000000	24.189839
1494.000000	24.184468
1493.000000	24.195583
1492.000000	24.232702
1491.000000	24.231915
1490.000000	24.243452
1489.000000	24.279967
1488.000000	24.304906
1487.000000	24.335504
1486.000000	24.366990
1485.000000	24.399463
1484.000000	24.419551
1483.000000	24.456284
1482.000000	24.453002
1481.000000	24.532363
1480.000000	24.561275
1479.000000	24.597590
1478.000000	24.624372
1477.000000	24.651037
1476.000000	24.686704
1475.000000	24.726891
1474.000000	24.764116
1473.000000	24.794679
1472.000000	24.818147
1471.000000	24.863855
1470.000000	24.897380
1469.000000	24.940894
1468.000000	24.980130
1467.000000	25.020096
1466.000000	25.058674
1465.000000	25.110566
1464.000000	25.141599
1463.000000	25.170163
1462.000000	25.200444
1461.000000	25.241364
1460.000000	25.289643
1459.000000	25.360077
1458.000000	25.375988
1457.000000	25.432898
1456.000000	25.501335
1455.000000	25.558509
1454.000000	25.589019
1453.000000	25.627814
1452.000000	25.694080
1451.000000	25.777568
1450.000000	25.824474
1449.000000	25.871863
1448.000000	25.933149
1447.000000	26.010095
1446.000000	26.078529
1445.000000	26.154554
1444.000000	26.237343
1443.000000	26.330383
1442.000000	26.405588
1441.000000	26.483546
1440.000000	26.557638
1439.000000	26.648844
1438.000000	26.725398
1437.000000	26.825085
1436.000000	26.927866
1435.000000	27.041681
1434.000000	27.140404
1433.000000	27.253852
1432.000000	27.369491
1431.000000	27.505005
1430.000000	27.632851
1429.000000	27.766149
1428.000000	27.902227
1427.000000	28.037585
1426.000000	28.176487
1425.000000	28.341618
1424.000000	28.495526
1423.000000	28.650778
1422.000000	28.819758
1421.000000	28.985326
1420.000000	29.161817
1419.000000	29.333717
1418.000000	29.534040
1417.000000	29.720906
1416.000000	29.897559
1415.000000	30.097238
1414.000000	30.293741
1413.000000	30.496163
1412.000000	30.697803
1411.000000	30.898700
1410.000000	31.098448
1409.000000	31.313951
1408.000000	31.517822
1407.000000	31.728782
1406.000000	31.941666
1405.000000	32.144755
1404.000000	32.343082
1403.000000	32.549313
1402.000000	32.754764
1401.000000	32.958063
1400.000000	33.148947
1399.000000	33.340987
1398.000000	33.529067
1397.000000	33.713914
1396.000000	33.904027
1395.000000	34.087050
1394.000000	34.269185
1393.000000	34.429296
1392.000000	34.579101
1391.000000	34.734074
1390.000000	34.884412
1389.000000	35.038594
1388.000000	35.180254
1387.000000	35.319785
1386.000000	35.453865
1385.000000	35.590474
1384.000000	35.720582
1383.000000	35.827712
1382.000000	35.944582
1381.000000	36.057609
1380.000000	36.156553
1379.000000	36.249751
1378.000000	36.343694
1377.000000	36.411754
1376.000000	36.464404
1375.000000	36.542875
1374.000000	36.618818
1373.000000	36.694268
1372.000000	36.765578
1371.000000	36.818847
1370.000000	36.865698
1369.000000	36.915706
1368.000000	36.972695
1367.000000	37.030925
1366.000000	37.083807
1365.000000	37.140056
1364.000000	37.220921
1363.000000	37.301201
1362.000000	37.351626
1361.000000	37.409859
1360.000000	37.453505
1359.000000	37.502717
1358.000000	37.560150
1357.000000	37.647290
1356.000000	37.713954
1355.000000	37.759913
1354.000000	37.799122
1353.000000	37.843856
1352.000000	37.933876
1351.000000	38.012948
1350.000000	38.056595
1349.000000	38.086403
1348.000000	38.156341
1347.000000	38.238005
1346.000000	38.280372
1345.000000	38.312566
1344.000000	38.360656
1343.000000	38.431347
1342.000000	38.493749
1341.000000	38.531696
1340.000000	38.573460
1339.000000	38.633148
1338.000000	38.687523
1337.000000	38.731277
1336.000000	38.778357
1335.000000	38.803890
1334.000000	38.860950
1333.000000	38.924004
1332.000000	38.946960
1331.000000	38.979628
1330.000000	39.018074
1329.000000	39.061938
1328.000000	39.084851
1327.000000	39.104408
1326.000000	39.146231
1325.000000	39.188687
1324.000000	39.195742
1323.000000	39.199659
1322.000000	39.211664
1321.000000	39.245131
1320.000000	39.276181
1319.000000	39.303245
1318.000000	39.312215
1317.000000	39.294837
1316.000000	39.317431
1315.000000	39.354309
1314.000000	39.389565
1313.000000	39.389547
1312.000000	39.386904
1311.000000	39.385521
1310.000000	39.397912
1309.000000	39.438145
1308.000000	39.446047
1307.000000	39.453225
1306.000000	39.482732
1305.000000	39.478878
1304.000000	39.467702
1303.000000	39.486435
1302.000000	39.485561
1301.000000	39.487521
1300.000000	39.513943
1299.000000	39.535402
1298.000000	39.529409
1297.000000	39.516792
1296.000000	39.511539
1295.000000	39.494629
1294.000000	39.498781
1293.000000	39.491412
1292.000000	39.483382
1291.000000	39.494603
1290.000000	39.446314
1289.000000	39.434157
1288.000000	39.423569
1287.000000	39.443838
1286.000000	39.427603
1285.000000	39.428063
1284.000000	39.411632
1283.000000	39.415657
1282.000000	39.424934
1281.000000	39.405142
1280.000000	39.382008
1279.000000	39.382483
1278.000000	39.376780
1277.000000	39.370810
1276.000000	39.373590
1275.000000	39.384577
1274.000000	39.390517
1273.000000	39.374702
1272.000000	39.391759
1271.000000	39.391315
1270.000000	39.376349
1269.000000	39.389417
1268.000000	39.394270
1267.000000	39.432440
1266.000000	39.450160
1265.000000	39.409484
1264.000000	39.407524
1263.000000	39.395965
1262.000000	39.438849
1261.000000	39.429142
1260.000000	39.457781
1259.000000	39.447047
1258.000000	39.433060
1257.000000	39.422488
1256.000000	39.437406
1255.000000	39.462079
1254.000000	39.466391
1253.000000	39.474054
1252.000000	39.477478
1251.000000	39.447233
1250.000000	39.460097
1249.000000	39.426098
1248.000000	39.405294
1247.000000	39.410213
1246.000000	39.379104
1245.000000	39.375855
1244.000000	39.379312
1243.000000	39.312506
1242.000000	39.313514
1241.000000	39.279971
1240.000000	39.271355
1239.000000	39.238960
1238.000000	39.189615
1237.000000	39.146540
1236.000000	39.144548
1235.000000	39.092266
1234.000000	39.075522
1233.000000	39.029701
1232.000000	39.017276
1231.000000	39.002790
1230.000000	38.947909
1229.000000	38.929815
1228.000000	38.889113
1227.000000	38.867355
1226.000000	38.849416
1225.000000	38.817792
1224.000000	38.736314
1223.000000	38.713439
1222.000000	38.694752
1221.000000	38.673232
1220.000000	38.650156
1219.000000	38.602322
1218.000000	38.575481
1217.000000	38.569531
1216.000000	38.544701
1215.000000	38.521426
1214.000000	38.479115
1213.000000	38.437371
1212.000000	38.398207
1211.000000	38.349382
1210.000000	38.341380
1209.000000	38.294199
1208.000000	38.251614
1207.000000	38.220587
1206.000000	38.175038
1205.000000	38.116284
1204.000000	38.090992
1203.000000	38.067122
1202.000000	38.029080
1201.000000	37.977001
1200.000000	37.954789
1199.000000	37.905857
1198.000000	37.872283
1197.000000	37.833661
1196.000000	37.797686
1195.000000	37.806678
1194.000000	37.787585
1193.000000	37.746328
1192.000000	37.723098
1191.000000	37.694867
1190.000000	37.656930
1189.000000	37.603283
1188.000000	37.594790
1187.000000	37.601818
1186.000000	37.594161
1185.000000	37.604116
1184.000000	37.622118
1183.000000	37.623603
1182.000000	37.646195
1181.000000	37.684321
1180.000000	37.711844
1179.000000	37.754208
1178.000000	37.812329
1177.000000	37.847806
1176.000000	37.877493
1175.000000	37.934700
1174.000000	37.998791
1173.000000	38.065167
1172.000000	38.132154
1171.000000	38.209254
1170.000000	38.276377
1169.000000	38.337344
1168.000000	38.396128
1167.000000	38.455310
1166.000000	38.524318
1165.000000	38.600644
1164.000000	38.680825
1163.000000	38.753951
1162.000000	38.831931
1161.000000	38.920055
1160.000000	38.999900
1159.000000	39.074369
1158.000000	39.151500
1157.000000	39.227249
1156.000000	39.293721
1155.000000	39.367455
1154.000000	39.432673
1153.000000	39.495726
1152.000000	39.561223
1151.000000	39.616625
1150.000000	39.670555
1149.000000	39.728313
1148.000000	39.778841
1147.000000	39.805357
1146.000000	39.841064
1145.000000	39.900638
1144.000000	39.953992
1143.000000	40.004760
1142.000000	40.058928
1141.000000	40.110626
1140.000000	40.166530
1139.000000	40.209109
1138.000000	40.244831
1137.000000	40.278372
1136.000000	40.333149
1135.000000	40.380847
1134.000000	40.421056
1133.000000	40.435671
1132.000000	40.448009
1131.000000	40.494390
1130.000000	40.542015
1129.000000	40.578806
1128.000000	40.604942
1127.000000	40.634217
1126.000000	40.643423
1125.000000	40.660924
1124.000000	40.682169
1123.000000	40.693836
1122.000000	40.700833
1121.000000	40.721488
1120.000000	40.729286
1119.000000	40.735604
1118.000000	40.738593
1117.000000	40.758019
1116.000000	40.756455
1115.000000	40.755819
1114.000000	40.755003
1113.000000	40.761724
1112.000000	40.764078
1111.000000	40.757160
1110.000000	40.736074
1109.000000	40.729082
1108.000000	40.739129
1107.000000	40.733954
1106.000000	40.750543
1105.000000	40.769972
1104.000000	40.771219
1103.000000	40.779567
1102.000000	40.776102
1101.000000	40.768111
1100.000000	40.770931
1099.000000	40.776509
1098.000000	40.787291
1097.000000	40.753408
1096.000000	40.746930
1095.000000	40.746258
1094.000000	40.746172
1093.000000	40.749277
1092.000000	40.754387
1091.000000	40.752284
1090.000000	40.729369
1089.000000	40.719918
1088.000000	40.718574
1087.000000	40.723164
1086.000000	40.720773
1085.000000	40.736195
1084.000000	40.724656
1083.000000	40.689632
1082.000000	40.695753
1081.000000	40.700209
1080.000000	40.686220
1079.000000	40.684767
1078.000000	40.693337
1077.000000	40.657007
1076.000000	40.656977
1075.000000	40.633688
1074.000000	40.635410
1073.000000	40.632065
1072.000000	40.630752
1071.000000	40.627691
1070.000000	40.618044
1069.000000	40.592677
1068.000000	40.579727
1067.000000	40.582672
1066.000000	40.572399
1065.000000	40.553712
1064.000000	40.577458
1063.000000	40.559867
1062.000000	40.532047
1061.000000	40.513588
1060.000000	40.503673
1059.000000	40.499613
1058.000000	40.496450
1057.000000	40.485278
1056.000000	40.455411
1055.000000	40.445724
1054.000000	40.449287
1053.000000	40.437999
1052.000000	40.431351
1051.000000	40.399484
1050.000000	40.408927
1049.000000	40.405575
1048.000000	40.402028
1047.000000	40.359809
1046.000000	40.360799
1045.000000	40.365604
1044.000000	40.366059
1043.000000	40.351669
1042.000000	40.339363
1041.000000	40.314221
1040.000000	40.342573
1039.000000	40.329198
1038.000000	40.308416
1037.000000	40.300845
1036.000000	40.301434
1035.000000	40.303242
1034.000000	40.271742
1033.000000	40.275705
1032.000000	40.284133
1031.000000	40.282304
1030.000000	40.284892
1029.000000	40.275784
1028.000000	40.267222
1027.000000	40.270465
1026.000000	40.251462
1025.000000	40.240994
1024.000000	40.254351
1023.000000	40.238907
1022.000000	40.242014
1021.000000	40.251115
1020.000000	40.228298
1019.000000	40.223658
1018.000000	40.241466
1017.000000	40.238941
1016.000000	40.222300
1015.000000	40.237670
1014.000000	40.239008
1013.000000	40.240575
1012.000000	40.248908
1011.000000	40.262604
1010.000000	40.249977
1009.000000	40.243487
1008.000000	40.257818
1007.000000	40.272812
1006.000000	40.261067
1005.000000	40.281067
1004.000000	40.299073
1003.000000	40.302750
1002.000000	40.311159
1001.000000	40.335643
1000.000000	40.335286
999.000000	40.331743
998.000000	40.354294
997.000000	40.351347
996.000000	40.351632
995.000000	40.355432
994.000000	40.368650
993.000000	40.369900
992.000000	40.359412
991.000000	40.363038
990.000000	40.368412
989.000000	40.368152
988.000000	40.371590
987.000000	40.381069
986.000000	40.405149
985.000000	40.410244
984.000000	40.406362
983.000000	40.408391
982.000000	40.407765
981.000000	40.401289
980.000000	40.421711
979.000000	40.438438
978.000000	40.445566
977.000000	40.441397
976.000000	40.445280
975.000000	40.442711
974.000000	40.449562
973.000000	40.476485
972.000000	40.474811
971.000000	40.476984
970.000000	40.483707
969.000000	40.485179
968.000000	40.480046
967.000000	40.491833
966.000000	40.499607
965.000000	40.493290
964.000000	40.505974
963.000000	40.515426
962.000000	40.530265
961.000000	40.543612
960.000000	40.557112
959.000000	40.555636
958.000000	40.549958
957.000000	40.559162
956.000000	40.567088
955.000000	40.578855
954.000000	40.579440
953.000000	40.569880
952.000000	40.554988
951.000000	40.589530
950.000000	40.615043
949.000000	40.607914
948.000000	40.617862
947.000000	40.617873
946.000000	40.609389
945.000000	40.617992
944.000000	40.615944
943.000000	40.619050
942.000000	40.625302
941.000000	40.619573
940.000000	40.610775
939.000000	40.618263
938.000000	40.610727
937.000000	40.600027
936.000000	40.601360
935.000000	40.587368
934.000000	40.593282
933.000000	40.597178
932.000000	40.593900
931.000000	40.582343
930.000000	40.544424
929.000000	40.534561
928.000000	40.547651
927.000000	40.547416
926.000000	40.547090
925.000000	40.538673
924.000000	40.533812
923.000000	40.518164
922.000000	40.501044
921.000000	40.517212
920.000000	40.514902
919.000000	40.491779
918.000000	40.497459
917.000000	40.514525
916.000000	40.493726
915.000000	40.484697
914.000000	40.491191
913.000000	40.488847
912.000000	40.477286
911.000000	40.457807
910.000000	40.459087
909.000000	40.482337
908.000000	40.486182
907.000000	40.448562
906.000000	40.468949
905.000000	40.481222
904.000000	40.470924
903.000000	40.472189
902.000000	40.506486
901.000000	40.488085
900.000000	40.499074
899.000000	40.490719
898.000000	40.505666
897.000000	40.504409
896.000000	40.511325
895.000000	40.491525
894.000000	40.472831
893.000000	40.473903
892.000000	40.460881
891.000000	40.506642
890.000000	40.481229
889.000000	40.483252
888.000000	40.503938
887.000000	40.551815
886.000000	40.546457
885.000000	40.534547
884.000000	40.476094
883.000000	40.522547
882.000000	40.521462
881.000000	40.564681
880.000000	40.535249
879.000000	40.503301
878.000000	40.497309
877.000000	40.499973
876.000000	40.475293
875.000000	40.524223
874.000000	40.510727
873.000000	40.460159
872.000000	40.501570
871.000000	40.590682
870.000000	40.450515
869.000000	40.482246
868.000000	40.501729
867.000000	40.494478
866.000000	40.538067
865.000000	40.442130
864.000000	40.468140
863.000000	40.453489
862.000000	40.303803
861.000000	40.396655
860.000000	40.408649
859.000000	40.577461
858.000000	40.589033
857.000000	40.481990
856.000000	40.709424
855.000000	40.843469
854.000000	40.997839
853.000000	40.586528
852.000000	40.553164
851.000000	40.550346
850.000000	40.674576
849.000000	40.448687
848.000000	40.549491
847.000000	40.465170
846.000000	40.472209
845.000000	40.532900
844.000000	40.544025
843.000000	40.665080
842.000000	40.524194
841.000000	40.548111
840.000000	40.544667
839.000000	40.576966
838.000000	40.325931
837.000000	40.524364
836.000000	40.484664
835.000000	40.478586
834.000000	40.544492
833.000000	40.371361
832.000000	40.432587
831.000000	40.443031
830.000000	40.494270
829.000000	40.466095
828.000000	40.335881
827.000000	40.411383
826.000000	40.360773
825.000000	40.365158
824.000000	40.357172
823.000000	40.284131
822.000000	40.433162
821.000000	40.345940
820.000000	40.381576
819.000000	40.284041
818.000000	40.283149
817.000000	40.239138
816.000000	40.272714
815.000000	40.258929
814.000000	40.302060
813.000000	40.183705
812.000000	40.273094
811.000000	40.251607
810.000000	40.277029
809.000000	40.341808
808.000000	40.265586
807.000000	40.226289
806.000000	40.103878
805.000000	40.132637
804.000000	40.225612
803.000000	40.162835
802.000000	40.168686
801.000000	40.124655
800.000000	40.091781
799.000000	40.044957
798.000000	40.211766
797.000000	40.172397
796.000000	40.097123
795.000000	40.119117
794.000000	40.082931
793.000000	39.989445
792.000000	39.986335
791.000000	39.952732
790.000000	39.959759
789.000000	40.073436
788.000000	40.029522
787.000000	39.972373
786.000000	39.913054
785.000000	39.907204
784.000000	39.841200
783.000000	39.817555
782.000000	39.922884
781.000000	39.911960
780.000000	39.792716
779.000000	39.816138
778.000000	39.820798
777.000000	39.829769
776.000000	39.782270
775.000000	39.818209
774.000000	39.801734
773.000000	39.810549
772.000000	39.784150
771.000000	39.815626
770.000000	39.743374
769.000000	39.695447
768.000000	39.677838
767.000000	39.720465
766.000000	39.722369
765.000000	39.672603
764.000000	39.611761
763.000000	39.646329
762.000000	39.689846
761.000000	39.587298
760.000000	39.491811
759.000000	39.506753
758.000000	39.553195
757.000000	39.559175
756.000000	39.534571
755.000000	39.502050
754.000000	39.457149
753.000000	39.464455
752.000000	39.460398
751.000000	39.441609
750.000000	39.457902
749.000000	39.434876
748.000000	39.384896
747.000000	39.331320
746.000000	39.317502
745.000000	39.365818
744.000000	39.366478
743.000000	39.285021
742.000000	39.240113
741.000000	39.233492
740.000000	39.241954
739.000000	39.246178
738.000000	39.191720
737.000000	39.187124
736.000000	39.208670
735.000000	39.213529
734.000000	39.186807
733.000000	39.139804
732.000000	39.091794
731.000000	39.071229
730.000000	39.056301
729.000000	39.040478
728.000000	39.045219
727.000000	39.043308
726.000000	39.012584
725.000000	38.955856
724.000000	38.936970
723.000000	38.962763
722.000000	38.949585
721.000000	38.914456
720.000000	38.880952
719.000000	38.881172
718.000000	38.895932
717.000000	38.864006
716.000000	38.775094
715.000000	38.735109
714.000000	38.765924
713.000000	38.738477
712.000000	38.704528
711.000000	38.688758
710.000000	38.593278
709.000000	38.562942
708.000000	38.565188
707.000000	38.565354
706.000000	38.567266
705.000000	38.522953
704.000000	38.503503
703.000000	38.521584
702.000000	38.503044
701.000000	38.422786
700.000000	38.377917
699.000000	38.379206
698.000000	38.357703
697.000000	38.344709
696.000000	38.294751
695.000000	38.279157
694.000000	38.284458
693.000000	38.207607
692.000000	38.189104
691.000000	38.160403
690.000000	38.118197
689.000000	38.068579
688.000000	38.037566
687.000000	38.017245
686.000000	37.986015
685.000000	37.943806
684.000000	37.910248
683.000000	37.885639
682.000000	37.837091
681.000000	37.810740
680.000000	37.782405
679.000000	37.729151
678.000000	37.716556
677.000000	37.709064
676.000000	37.668620
675.000000	37.646461
674.000000	37.618834
673.000000	37.564159
672.000000	37.542590
671.000000	37.500334
670.000000	37.457320
669.000000	37.446627
668.000000	37.408997
667.000000	37.373666
666.000000	37.372778
665.000000	37.342951
664.000000	37.292658
663.000000	37.259262
662.000000	37.214235
661.000000	37.194596
660.000000	37.123636
659.000000	37.061858
658.000000	37.020265
657.000000	37.068280
656.000000	37.001397
655.000000	36.952076
654.000000	36.921486
653.000000	36.914324
652.000000	36.894705
651.000000	36.823647
650.000000	36.781393
649.000000	36.747765
648.000000	36.738765
647.000000	36.654418
646.000000	36.647160
645.000000	36.633403
644.000000	36.576613
643.000000	36.553438
642.000000	36.508625
641.000000	36.445457
640.000000	36.421886
639.000000	36.409912
638.000000	36.322794
637.000000	36.286291
636.000000	36.259620
635.000000	36.230550
634.000000	36.157042
633.000000	36.162888
632.000000	36.088587
631.000000	36.074278
630.000000	36.081757
629.000000	35.978539
628.000000	35.959521
627.000000	35.919219
626.000000	35.864771
625.000000	35.840773
624.000000	35.794788
623.000000	35.771905
622.000000	35.723574
621.000000	35.659045
620.000000	35.613278
619.000000	35.578952
618.000000	35.565910
617.000000	35.584737
616.000000	35.447865
615.000000	35.389491
614.000000	35.373614
613.000000	35.334243
612.000000	35.268214
611.000000	35.263971
610.000000	35.196625
609.000000	35.115775
608.000000	35.107705
607.000000	35.080855
606.000000	34.997210
605.000000	34.982586
604.000000	34.913617
603.000000	34.896597
602.000000	34.830658
601.000000	34.805416
600.000000	34.751379
599.000000	34.670057
598.000000	34.661436
597.000000	34.628564
596.000000	34.594687
595.000000	34.547264
594.000000	34.506507
593.000000	34.416786
592.000000	34.381559
591.000000	34.331834
590.000000	34.284556
589.000000	34.238332
588.000000	34.213309
587.000000	34.157979
586.000000	34.101815
585.000000	34.041941
584.000000	33.985716
583.000000	33.944488
582.000000	33.907737
581.000000	33.857278
580.000000	33.803586
579.000000	33.774670
578.000000	33.662213
577.000000	33.655035
576.000000	33.604281
575.000000	33.548529
574.000000	33.488146
573.000000	33.445714
572.000000	33.367815
571.000000	33.335257
570.000000	33.248727
569.000000	33.237924
568.000000	33.147251
567.000000	33.085166
566.000000	33.067540
565.000000	32.989772
564.000000	32.954792
563.000000	32.866040
562.000000	32.816111
561.000000	32.816592
560.000000	32.769641
559.000000	32.716327
558.000000	32.653314
557.000000	32.616006
556.000000	32.563781
555.000000	32.512742
554.000000	32.459786
553.000000	32.369167
552.000000	32.291161
551.000000	32.255165
550.000000	32.207598
549.000000	32.122936
548.000000	32.065076
547.000000	32.023066
546.000000	31.929277
545.000000	31.875819
544.000000	31.830467
543.000000	31.757997
542.000000	31.696649
541.000000	31.625575
540.000000	31.546984
539.000000	31.455095
538.000000	31.421751
537.000000	31.371278
536.000000	31.293568
535.000000	31.237868
534.000000	31.131210
533.000000	31.070146
532.000000	30.993906
531.000000	30.956575
530.000000	30.872595
529.000000	30.804399
528.000000	30.720276
527.000000	30.638562
526.000000	30.595778
525.000000	30.539317
524.000000	30.436331
523.000000	30.365648
522.000000	30.299087
521.000000	30.226243
520.000000	30.146453
519.000000	30.075565
518.000000	29.960514
517.000000	29.901347
516.000000	29.818330
515.000000	29.750304
514.000000	29.696358
513.000000	29.583797
512.000000	29.513639
511.000000	29.456328
510.000000	29.340530
509.000000	29.273422
508.000000	29.183744
507.000000	29.112431
506.000000	28.991761
505.000000	28.916275
504.000000	28.844222
503.000000	28.748831
502.000000	28.677702
501.000000	28.605060
500.000000	28.511659
499.000000	28.419610
498.000000	28.321713
497.000000	28.227561
496.000000	28.112756
495.000000	27.999185
494.000000	27.902188
493.000000	27.806458
492.000000	27.716478
491.000000	27.640092
490.000000	27.533354
489.000000	27.417234
488.000000	27.312941
487.000000	27.207508
486.000000	27.108420
485.000000	26.996469
484.000000	26.918524
483.000000	26.814940
482.000000	26.725382
481.000000	26.626031
480.000000	26.478108
479.000000	26.347014
478.000000	26.225660
477.000000	26.114374
476.000000	26.004035
475.000000	25.887419
474.000000	25.746087
473.000000	25.629000
472.000000	25.531845
471.000000	25.406195
470.000000	25.287293
469.000000	25.169892
468.000000	25.043413
467.000000	24.929409
466.000000	24.797332
465.000000	24.648474
464.000000	24.517886
463.000000	24.390773
462.000000	24.257703
461.000000	24.136842
460.000000	23.993653
459.000000	23.840378
458.000000	23.723692
457.000000	23.577523
456.000000	23.439441
455.000000	23.307364
454.000000	23.143158
453.000000	22.999359
452.000000	22.877704
451.000000	22.730527
450.000000	22.573357
449.000000	22.411451
448.000000	22.263800
447.000000	22.119267
446.000000	21.969295
445.000000	21.821442
444.000000	21.640129
443.000000	21.493027
442.000000	21.360013
441.000000	21.193066
440.000000	21.045419
439.000000	20.883976
438.000000	20.697781
437.000000	20.529712
436.000000	20.393427
435.000000	20.230426
434.000000	20.049921
433.000000	19.892094
432.000000	19.736114
431.000000	19.583142
430.000000	19.419706
429.000000	19.236294
428.000000	19.058872
427.000000	18.907064
426.000000	18.736772
425.000000	18.556974
424.000000	18.413181
423.000000	18.248937
422.000000	18.067154
421.000000	17.914731
420.000000	17.747781
419.000000	17.603967
418.000000	17.444734
417.000000	17.288331
416.000000	17.138854
415.000000	16.988096
414.000000	16.855926
413.000000	16.729990
412.000000	16.594865
411.000000	16.475795
410.000000	16.347597
409.000000	16.250562
408.000000	16.109360
407.000000	16.007090
406.000000	15.889229
405.000000	15.786300
404.000000	15.680725
403.000000	15.560952
402.000000	15.456245
401.000000	15.345317
400.000000	15.236630
399.000000	15.113801
398.000000	14.979030
397.000000	14.890141
396.000000	14.744945
395.000000	14.602370
394.000000	14.482685
393.000000	14.364833
392.000000	14.234997
391.000000	14.111256
390.000000	13.954046
389.000000	13.821982
388.000000	13.666311
387.000000	13.519686
386.000000	13.403625
385.000000	13.244343
384.000000	13.085875
383.000000	12.935108
382.000000	12.771838
381.000000	12.617194
380.000000	12.467120
379.000000	12.328475
378.000000	12.133673
377.000000	11.939871
376.000000	11.822710
375.000000	11.718425
374.000000	11.570044
373.000000	11.397640
372.000000	11.284387
371.000000	11.115695
370.000000	10.930609
369.000000	10.790089
368.000000	10.643951
367.000000	10.504566
366.000000	10.347628
365.000000	10.233217
364.000000	10.076920
363.000000	9.967883
362.000000	9.759853
361.000000	9.586345
360.000000	9.500131
359.000000	9.380291
358.000000	9.224079
357.000000	9.098807
356.000000	8.916031
355.000000	8.823252
354.000000	8.716413
353.000000	8.531262
352.000000	8.376591
351.000000	8.285489
350.000000	8.109414
349.000000	8.003017
348.000000	7.839177
347.000000	7.771463
346.000000	7.649602
345.000000	7.526755
344.000000	7.414466
343.000000	7.228935
342.000000	7.070331
341.000000	6.954466
340.000000	6.859755
339.000000	6.697749
338.000000	6.615787
337.000000	6.487170
336.000000	6.304206
335.000000	6.156064
334.000000	6.075612
333.000000	5.925653
332.000000	5.831761
331.000000	5.729602
330.000000	5.605148
329.000000	5.454750
328.000000	5.347288
327.000000	5.275894
326.000000	5.172003
325.000000	5.093019
324.000000	4.965168
323.000000	4.870783
322.000000	4.763592
321.000000	4.669747
320.000000	4.571049
319.000000	4.460612
318.000000	4.404378
317.000000	4.314997
316.000000	4.241900
315.000000	4.111520
314.000000	4.048053
313.000000	3.943068
312.000000	3.798615
311.000000	3.713247
310.000000	3.593648
309.000000	3.489235
308.000000	3.367844
307.000000	3.242995
306.000000	3.093450
305.000000	2.955876
304.000000	2.828597
303.000000	2.647137
302.000000	2.498704
301.000000	2.360392
300.000000	2.205243
299.000000	2.088238
298.000000	1.958044
297.000000	1.828202
296.000000	1.740750
295.000000	1.648696
294.000000	1.546732
293.000000	1.454862
292.000000	1.399986
291.000000	1.326627
290.000000	1.273865
289.000000	1.208973
288.000000	1.174113
287.000000	1.145241
286.000000	1.141783
285.000000	1.140354
284.000000	1.144111
283.000000	1.156037
282.000000	1.182700
281.000000	1.189837
280.000000	1.203809
279.000000	1.202845
278.000000	1.237247
277.000000	1.263972
276.000000	1.281770
275.000000	1.317333
274.000000	1.369480
273.000000	1.397577
272.000000	1.425433
271.000000	1.454054
270.000000	1.494048
269.000000	1.514882
268.000000	1.553225
267.000000	1.586882
266.000000	1.629858
265.000000	1.665550
264.000000	1.717668
263.000000	1.775796
262.000000	1.807875
261.000000	1.832114
260.000000	1.869511
259.000000	1.913973
258.000000	1.939543
257.000000	1.982492
256.000000	2.026012
255.000000	2.036994
254.000000	2.042719
253.000000	2.016431
252.000000	2.004964
251.000000	1.984735
250.000000	1.931150
249.000000	1.875182
248.000000	1.792052
247.000000	1.692057
246.000000	1.576041
245.000000	1.440674
244.000000	1.314986
243.000000	1.211428
242.000000	1.090650
241.000000	0.974678
240.000000	0.893768
239.000000	0.818332
238.000000	0.754052
237.000000	0.696500
236.000000	0.649223
235.000000	0.602954
234.000000	0.550790
233.000000	0.513931
232.000000	0.489221
231.000000	0.445294
230.000000	0.397637
229.000000	0.364089
228.000000	0.331688
227.000000	0.297913
226.000000	0.287460
225.000000	0.272602
224.000000	0.241126
223.000000	0.225998
222.000000	0.196987
221.000000	0.170770
220.000000	0.174855
219.000000	0.171829
218.000000	0.156906
217.000000	0.145190
216.000000	0.136610
215.000000	0.137634
214.000000	0.138283
213.000000	0.139625
212.000000	0.137334
211.000000	0.121736
210.000000	0.101051
209.000000	0.096783
208.000000	0.109266
207.000000	0.112571
206.000000	0.087638
205.000000	0.080195
204.000000	0.095218
203.000000	0.102955
202.000000	0.085308
201.000000	0.117793
200.000000	0.149021
