PE UV       SUBTECH     SPECTRUM    ASCII       PEDS        4.00        
   -1
agneauUK_chair_1.Sample.asc
23/09/11
12:08:58.00
23/09/11
12:08:58.00
Administrator

250.000000
1
Lambda 750
750N8071901
PerkinElmer UV WinLab 6.0.4.0738 / 1.61.00 Lambda 900

0
0
3350/servo 860.8/2
0
0
UV/VIS
1
1
1
CommonBeamDepol,150mm sphere / downward view
0
0
0
0
Program
Program
3350/servo 860.8/2
3350/0.2 860.8/0.2
3350/0.2 860.8/0.2
0
1
 
 
 
0
 
860.8
319.2
860.8
Front
100
on
 
 
0
0
0
 
0
 
 
 
0
 
 
0
0
0
0
0
 
 
 
 
0
0


0
0
#HDR
-1
-1
#GR
nm
%R
1.0
0.0
2500.000000
-10.000000
226
8
69.591250
10.778671
#DATA
2500.000000	11.182867
2490.000000	21.256012
2480.000000	16.384827
2470.000000	17.371419
2460.000000	13.220185
2450.000000	23.445130
2440.000000	20.152608
2430.000000	18.212513
2420.000000	24.891393
2410.000000	20.668102
2400.000000	20.330588
2390.000000	25.118414
2380.000000	21.712912
2370.000000	24.688074
2360.000000	24.092852
2350.000000	21.118536
2340.000000	23.775641
2330.000000	23.860072
2320.000000	24.006110
2310.000000	20.021208
2300.000000	22.572070
2290.000000	21.714773
2280.000000	22.618104
2270.000000	23.956987
2260.000000	26.666225
2250.000000	28.234343
2240.000000	28.954968
2230.000000	29.585940
2220.000000	26.846010
2210.000000	25.857286
2200.000000	24.636646
2190.000000	24.666496
2180.000000	27.307014
2170.000000	28.396887
2160.000000	28.882335
2150.000000	30.217625
2140.000000	30.627215
2130.000000	30.756284
2120.000000	31.019500
2110.000000	30.636733
2100.000000	30.314430
2090.000000	28.967549
2080.000000	27.307719
2070.000000	25.454685
2060.000000	24.427633
2050.000000	24.741256
2040.000000	25.389376
2030.000000	25.206108
2020.000000	24.021716
2010.000000	22.528217
2000.000000	21.078998
1990.000000	19.447681
1980.000000	18.197239
1970.000000	17.123667
1960.000000	16.776472
1950.000000	17.328147
1940.000000	19.483647
1930.000000	23.102979
1920.000000	28.776255
1910.000000	35.791231
1900.000000	42.264315
1890.000000	47.439574
1880.000000	50.633216
1870.000000	51.796998
1860.000000	52.085289
1850.000000	51.906313
1840.000000	51.448767
1830.000000	50.981432
1820.000000	50.550989
1810.000000	50.047285
1800.000000	49.735908
1790.000000	49.386637
1780.000000	48.970936
1770.000000	48.574921
1760.000000	48.229213
1750.000000	47.684049
1740.000000	48.441848
1730.000000	49.289142
1720.000000	50.299909
1710.000000	50.434691
1700.000000	51.292765
1690.000000	52.981384
1680.000000	54.512447
1670.000000	55.082294
1660.000000	55.037188
1650.000000	54.836354
1640.000000	54.083653
1630.000000	53.397755
1620.000000	52.465900
1610.000000	51.641412
1600.000000	50.807212
1590.000000	50.224594
1580.000000	49.426827
1570.000000	48.985583
1560.000000	48.346982
1550.000000	47.213745
1540.000000	46.161807
1530.000000	45.398897
1520.000000	44.911230
1510.000000	44.517688
1500.000000	44.281504
1490.000000	44.242859
1480.000000	44.348029
1470.000000	44.831008
1460.000000	45.867705
1450.000000	46.998328
1440.000000	49.029895
1430.000000	51.772471
1420.000000	55.034717
1410.000000	58.188483
1400.000000	60.479826
1390.000000	61.840700
1380.000000	62.576879
1370.000000	63.238831
1360.000000	63.836327
1350.000000	64.514927
1340.000000	64.925038
1330.000000	65.415519
1320.000000	65.806978
1310.000000	65.917755
1300.000000	65.938116
1290.000000	65.900615
1280.000000	65.832513
1270.000000	65.831264
1260.000000	65.806147
1250.000000	65.673507
1240.000000	65.588297
1230.000000	65.391279
1220.000000	65.032620
1210.000000	64.760938
1200.000000	64.707838
1190.000000	64.959914
1180.000000	65.490395
1170.000000	66.222383
1160.000000	66.837212
1150.000000	67.300138
1140.000000	67.609802
1130.000000	67.758687
1120.000000	67.825286
1110.000000	67.862118
1100.000000	67.930318
1090.000000	67.908887
1080.000000	67.869199
1070.000000	67.824098
1060.000000	67.802071
1050.000000	67.759079
1040.000000	67.731801
1030.000000	67.659003
1020.000000	67.697951
1010.000000	67.775847
1000.000000	67.877200
990.000000	67.983018
980.000000	68.138582
970.000000	68.340151
960.000000	68.546246
950.000000	68.548165
940.000000	68.685973
930.000000	68.809150
920.000000	68.892164
910.000000	69.103050
900.000000	69.222702
890.000000	69.171533
880.000000	69.408680
870.000000	69.591250
860.000000	69.498210
850.000000	68.451493
840.000000	68.974156
830.000000	68.742822
820.000000	68.773251
810.000000	68.892013
800.000000	68.697016
790.000000	68.852360
780.000000	68.920192
770.000000	68.792469
760.000000	68.840303
750.000000	68.975798
740.000000	68.882051
730.000000	69.015152
720.000000	68.938977
710.000000	69.051294
700.000000	68.994191
690.000000	69.055556
680.000000	69.000094
670.000000	69.111134
660.000000	69.170407
650.000000	69.092580
640.000000	69.069709
630.000000	69.035517
620.000000	69.019736
610.000000	68.941965
600.000000	68.869673
590.000000	68.787990
580.000000	68.753461
570.000000	68.571023
560.000000	68.381285
550.000000	68.151210
540.000000	67.931017
530.000000	67.607222
520.000000	67.280801
510.000000	66.892595
500.000000	66.453003
490.000000	65.955360
480.000000	65.434145
470.000000	64.756234
460.000000	63.896852
450.000000	62.953202
440.000000	61.758659
430.000000	60.124055
420.000000	58.131863
410.000000	55.780304
400.000000	53.048240
390.000000	50.347818
380.000000	47.210799
370.000000	43.573293
360.000000	39.803575
350.000000	36.324127
340.000000	32.551687
330.000000	27.174144
320.000000	21.936032
310.000000	19.778099
300.000000	17.371900
290.000000	13.367642
280.000000	10.778671
270.000000	11.428211
260.000000	12.395871
250.000000	13.324119
