PE UV       SUBTECH     SPECTRUM    ASCII       PEDS        4.00        
   -1
chevreUK_chair_1.Sample.asc
23/09/11
11:33:01.00
23/09/11
11:33:01.00
Administrator

250.000000
1
Lambda 750
750N8071901
PerkinElmer UV WinLab 6.0.4.0738 / 1.61.00 Lambda 900

0
0
3350/servo 860.8/2
0
0
UV/VIS
1
1
1
CommonBeamDepol,150mm sphere / downward view
0
0
0
0
Program
Program
3350/servo 860.8/2
3350/0.2 860.8/0.2
3350/0.2 860.8/0.2
0
1
 
 
 
0
 
860.8
319.2
860.8
Front
100
on
 
 
0
0
0
 
0
 
 
 
0
 
 
0
0
0
0
0
 
 
 
 
0
0


0
0
#HDR
-1
-1
#GR
nm
%R
1.0
0.0
2500.000000
-10.000000
226
8
62.134972
17.883947
#DATA
2500.000000	17.883947
2490.000000	26.118129
2480.000000	22.999724
2470.000000	22.879494
2460.000000	19.392924
2450.000000	28.297492
2440.000000	24.717718
2430.000000	23.761926
2420.000000	29.301581
2410.000000	24.934845
2400.000000	24.434530
2390.000000	29.368034
2380.000000	25.898444
2370.000000	28.804069
2360.000000	28.094703
2350.000000	24.738944
2340.000000	28.339412
2330.000000	27.539096
2320.000000	28.067713
2310.000000	24.761630
2300.000000	27.531952
2290.000000	26.150383
2280.000000	26.695701
2270.000000	27.447919
2260.000000	29.239212
2250.000000	30.449508
2240.000000	30.775223
2230.000000	32.001537
2220.000000	29.516429
2210.000000	29.205073
2200.000000	28.382750
2190.000000	28.493567
2180.000000	30.635299
2170.000000	31.271654
2160.000000	31.449862
2150.000000	32.052729
2140.000000	32.573601
2130.000000	32.773417
2120.000000	32.917187
2110.000000	32.444485
2100.000000	32.373103
2090.000000	31.354419
2080.000000	30.444843
2070.000000	29.393091
2060.000000	28.865852
2050.000000	29.185010
2040.000000	29.350042
2030.000000	29.090016
2020.000000	28.295641
2010.000000	27.348879
2000.000000	26.423124
1990.000000	25.433926
1980.000000	24.801123
1970.000000	24.250523
1960.000000	24.094968
1950.000000	24.473243
1940.000000	25.864691
1930.000000	28.120764
1920.000000	31.505092
1910.000000	35.709851
1900.000000	39.704715
1890.000000	43.206026
1880.000000	45.108527
1870.000000	45.959799
1860.000000	46.200512
1850.000000	45.980050
1840.000000	45.697194
1830.000000	45.414570
1820.000000	45.159469
1810.000000	44.877060
1800.000000	44.759079
1790.000000	44.615733
1780.000000	44.388103
1770.000000	44.180188
1760.000000	43.988412
1750.000000	43.671843
1740.000000	44.351919
1730.000000	44.679741
1720.000000	45.469142
1710.000000	45.597087
1700.000000	46.142763
1690.000000	47.342923
1680.000000	48.403050
1670.000000	48.821709
1660.000000	48.757744
1650.000000	48.683090
1640.000000	48.104520
1630.000000	47.642973
1620.000000	46.996296
1610.000000	46.439658
1600.000000	45.882026
1590.000000	45.571254
1580.000000	44.977667
1570.000000	44.678309
1560.000000	44.242041
1550.000000	43.518585
1540.000000	42.838025
1530.000000	42.341004
1520.000000	42.058860
1510.000000	41.868139
1500.000000	41.737237
1490.000000	41.652711
1480.000000	41.665901
1470.000000	41.968037
1460.000000	42.681353
1450.000000	43.344129
1440.000000	44.694043
1430.000000	46.653182
1420.000000	48.982788
1410.000000	51.336072
1400.000000	53.098034
1390.000000	54.272201
1380.000000	54.920720
1370.000000	55.440576
1360.000000	56.004972
1350.000000	56.675070
1340.000000	57.052175
1330.000000	57.463056
1320.000000	57.804497
1310.000000	57.922278
1300.000000	57.915535
1290.000000	57.875114
1280.000000	57.799818
1270.000000	57.811969
1260.000000	57.812540
1250.000000	57.720373
1240.000000	57.621823
1230.000000	57.403516
1220.000000	57.081496
1210.000000	56.885116
1200.000000	56.896657
1190.000000	57.135723
1180.000000	57.650215
1170.000000	58.340992
1160.000000	58.948726
1150.000000	59.416119
1140.000000	59.713778
1130.000000	59.864453
1120.000000	59.959916
1110.000000	60.043915
1100.000000	60.064344
1090.000000	60.072276
1080.000000	60.054965
1070.000000	60.055092
1060.000000	60.064191
1050.000000	60.052467
1040.000000	60.031304
1030.000000	59.983473
1020.000000	60.064731
1010.000000	60.136337
1000.000000	60.280970
990.000000	60.383179
980.000000	60.550129
970.000000	60.759579
960.000000	60.939267
950.000000	60.989888
940.000000	61.140437
930.000000	61.317285
920.000000	61.371957
910.000000	61.683545
900.000000	61.782991
890.000000	61.674113
880.000000	62.107195
870.000000	62.134972
860.000000	62.058381
850.000000	60.684651
840.000000	61.043371
830.000000	61.053931
820.000000	61.189713
810.000000	61.097582
800.000000	61.000354
790.000000	61.085533
780.000000	61.082068
770.000000	60.856381
760.000000	60.740949
750.000000	60.884170
740.000000	60.921292
730.000000	60.999744
720.000000	60.763523
710.000000	60.820619
700.000000	60.726745
690.000000	60.797679
680.000000	60.606571
670.000000	60.490320
660.000000	60.423565
650.000000	60.279310
640.000000	60.126139
630.000000	60.053789
620.000000	59.940139
610.000000	59.737966
600.000000	59.631605
590.000000	59.464108
580.000000	59.374242
570.000000	59.165122
560.000000	58.886431
550.000000	58.623788
540.000000	58.307847
530.000000	57.987166
520.000000	57.621627
510.000000	57.167612
500.000000	56.686428
490.000000	56.183765
480.000000	55.667306
470.000000	54.965977
460.000000	54.064522
450.000000	53.350878
440.000000	52.424394
430.000000	51.266356
420.000000	50.121502
410.000000	48.884672
400.000000	47.556036
390.000000	46.086767
380.000000	44.440882
370.000000	42.287996
360.000000	40.563318
350.000000	38.900808
340.000000	37.046088
330.000000	34.877990
320.000000	33.102106
310.000000	31.391065
300.000000	28.600435
290.000000	23.328451
280.000000	19.034605
270.000000	19.538601
260.000000	20.275028
250.000000	19.593975
