PE UV       SUBTECH     SPECTRUM    ASCII       PEDS        4.00        
   -1
chevreUK_fleur_1.Sample.asc
23/09/11
11:39:30.00
23/09/11
11:39:30.00
Administrator

250.000000
1
Lambda 750
750N8071901
PerkinElmer UV WinLab 6.0.4.0738 / 1.61.00 Lambda 900

0
0
3350/servo 860.8/2
0
0
UV/VIS
1
1
1
CommonBeamDepol,150mm sphere / downward view
0
0
0
0
Program
Program
3350/servo 860.8/2
3350/0.2 860.8/0.2
3350/0.2 860.8/0.2
0
1
 
 
 
0
 
860.8
319.2
860.8
Front
100
on
 
 
0
0
0
 
0
 
 
 
0
 
 
0
0
0
0
0
 
 
 
 
0
0


0
0
#HDR
-1
-1
#GR
nm
%R
1.0
0.0
2500.000000
-10.000000
226
8
60.325488
-3.855481
#DATA
2500.000000	-3.795716
2490.000000	6.431780
2480.000000	1.722589
2470.000000	1.241301
2460.000000	-3.855481
2450.000000	7.354917
2440.000000	3.116515
2430.000000	0.738586
2420.000000	8.255224
2410.000000	2.952554
2400.000000	1.851474
2390.000000	8.449481
2380.000000	3.842331
2370.000000	6.948525
2360.000000	5.698548
2350.000000	1.923601
2340.000000	5.555640
2330.000000	5.846976
2320.000000	6.123402
2310.000000	2.684670
2300.000000	5.940256
2290.000000	5.351643
2280.000000	5.354926
2270.000000	6.183072
2260.000000	8.344030
2250.000000	9.332300
2240.000000	9.884215
2230.000000	11.220844
2220.000000	7.912063
2210.000000	7.785688
2200.000000	6.440516
2190.000000	6.453144
2180.000000	9.188521
2170.000000	9.879224
2160.000000	9.707651
2150.000000	10.292970
2140.000000	10.803725
2130.000000	11.230095
2120.000000	11.470095
2110.000000	11.296577
2100.000000	10.918348
2090.000000	9.740791
2080.000000	8.302214
2070.000000	7.502786
2060.000000	7.125592
2050.000000	7.425152
2040.000000	7.777795
2030.000000	7.503765
2020.000000	6.727820
2010.000000	5.803246
2000.000000	4.941114
1990.000000	4.042124
1980.000000	3.494322
1970.000000	2.927665
1960.000000	2.881860
1950.000000	3.166345
1940.000000	4.314631
1930.000000	6.496829
1920.000000	10.426376
1910.000000	15.829722
1900.000000	21.502554
1890.000000	26.712482
1880.000000	30.129124
1870.000000	31.536389
1860.000000	31.830381
1850.000000	31.667595
1840.000000	31.145462
1830.000000	30.549098
1820.000000	30.083781
1810.000000	29.602916
1800.000000	29.241314
1790.000000	28.881744
1780.000000	28.319000
1770.000000	27.833814
1760.000000	27.430209
1750.000000	26.661363
1740.000000	27.600483
1730.000000	28.434644
1720.000000	29.760771
1710.000000	30.141156
1700.000000	31.371561
1690.000000	33.601745
1680.000000	35.623910
1670.000000	36.382056
1660.000000	36.280717
1650.000000	36.008866
1640.000000	35.053455
1630.000000	34.185029
1620.000000	33.023452
1610.000000	32.014775
1600.000000	30.997538
1590.000000	30.318669
1580.000000	29.357353
1570.000000	28.816210
1560.000000	28.033246
1550.000000	26.789614
1540.000000	25.670048
1530.000000	24.824502
1520.000000	24.327864
1510.000000	23.925473
1500.000000	23.632221
1490.000000	23.519649
1480.000000	23.502103
1470.000000	23.963207
1460.000000	25.008736
1450.000000	26.087476
1440.000000	28.321433
1430.000000	31.556003
1420.000000	35.761263
1410.000000	40.239347
1400.000000	43.906300
1390.000000	46.321669
1380.000000	47.721041
1370.000000	49.006791
1360.000000	50.275957
1350.000000	51.588031
1340.000000	52.470196
1330.000000	53.292517
1320.000000	53.976255
1310.000000	54.254548
1300.000000	54.284071
1290.000000	54.236574
1280.000000	54.187276
1270.000000	54.232579
1260.000000	54.108848
1250.000000	53.764163
1240.000000	53.392556
1230.000000	52.810623
1220.000000	52.135287
1210.000000	51.622445
1200.000000	51.548936
1190.000000	52.176968
1180.000000	53.383178
1170.000000	54.908101
1160.000000	56.215938
1150.000000	57.289833
1140.000000	58.014421
1130.000000	58.304329
1120.000000	58.458030
1110.000000	58.585510
1100.000000	58.638602
1090.000000	58.569859
1080.000000	58.452520
1070.000000	58.340127
1060.000000	58.236990
1050.000000	58.122782
1040.000000	58.029484
1030.000000	57.927838
1020.000000	58.013102
1010.000000	58.087404
1000.000000	58.262545
990.000000	58.420966
980.000000	58.649679
970.000000	58.968836
960.000000	59.228164
950.000000	59.372458
940.000000	59.472312
930.000000	59.658134
920.000000	59.651360
910.000000	59.933708
900.000000	60.075327
890.000000	60.127833
880.000000	60.270318
870.000000	60.245393
860.000000	60.325488
850.000000	59.391983
840.000000	59.636677
830.000000	59.428814
820.000000	59.244728
810.000000	59.388159
800.000000	58.972525
790.000000	59.020672
780.000000	58.860660
770.000000	58.627697
760.000000	58.422116
750.000000	58.390997
740.000000	58.170019
730.000000	57.852690
720.000000	57.615385
710.000000	57.405026
700.000000	57.066565
690.000000	56.744660
680.000000	56.257621
670.000000	55.918400
660.000000	55.472328
650.000000	54.993792
640.000000	54.476651
630.000000	53.868488
620.000000	53.248818
610.000000	52.555514
600.000000	51.936980
590.000000	51.186031
580.000000	50.444519
570.000000	49.514386
560.000000	48.591676
550.000000	47.565388
540.000000	46.400315
530.000000	45.206854
520.000000	43.948067
510.000000	42.566472
500.000000	41.002959
490.000000	39.137091
480.000000	37.183381
470.000000	35.132764
460.000000	32.894103
450.000000	30.505891
440.000000	27.941347
430.000000	25.330579
420.000000	22.515643
410.000000	20.266604
400.000000	18.340310
390.000000	16.457205
380.000000	14.404962
370.000000	12.485791
360.000000	10.689397
350.000000	9.366404
340.000000	8.173559
330.000000	6.967096
320.000000	5.641990
310.000000	5.647220
300.000000	4.573293
290.000000	4.481761
280.000000	4.782205
270.000000	4.843582
260.000000	5.120532
250.000000	5.394308
