PE UV       SUBTECH     SPECTRUM    ASCII       PEDS        4.00        
   -1
chevreUK_chair_2.Sample.asc
23/09/11
11:36:38.00
23/09/11
11:36:38.00
Administrator

250.000000
1
Lambda 750
750N8071901
PerkinElmer UV WinLab 6.0.4.0738 / 1.61.00 Lambda 900

0
0
3350/servo 860.8/2
0
0
UV/VIS
1
1
1
CommonBeamDepol,150mm sphere / downward view
0
0
0
0
Program
Program
3350/servo 860.8/2
3350/0.2 860.8/0.2
3350/0.2 860.8/0.2
0
1
 
 
 
0
 
860.8
319.2
860.8
Front
100
on
 
 
0
0
0
 
0
 
 
 
0
 
 
0
0
0
0
0
 
 
 
 
0
0


0
0
#HDR
-1
-1
#GR
nm
%R
1.0
0.0
2500.000000
-10.000000
226
8
61.712666
13.389788
#DATA
2500.000000	13.389788
2490.000000	23.068284
2480.000000	19.724151
2470.000000	19.257324
2460.000000	15.660418
2450.000000	24.291044
2440.000000	21.066681
2430.000000	20.378827
2420.000000	25.721290
2410.000000	20.209078
2400.000000	20.925748
2390.000000	25.271063
2380.000000	21.688697
2370.000000	25.687583
2360.000000	23.875663
2350.000000	20.295205
2340.000000	24.340437
2330.000000	24.401280
2320.000000	24.625397
2310.000000	21.087836
2300.000000	23.603459
2290.000000	22.883699
2280.000000	23.449561
2270.000000	23.972829
2260.000000	26.048438
2250.000000	26.830795
2240.000000	26.365841
2230.000000	28.162185
2220.000000	25.659920
2210.000000	25.476354
2200.000000	24.595783
2190.000000	24.332580
2180.000000	27.248194
2170.000000	27.514976
2160.000000	27.286653
2150.000000	28.374577
2140.000000	28.637006
2130.000000	28.868830
2120.000000	29.131890
2110.000000	28.362423
2100.000000	28.290509
2090.000000	27.825555
2080.000000	26.268616
2070.000000	25.681973
2060.000000	25.192485
2050.000000	25.425841
2040.000000	25.643376
2030.000000	25.266129
2020.000000	24.621272
2010.000000	23.520944
2000.000000	22.907780
1990.000000	21.983903
1980.000000	21.132322
1970.000000	20.689473
1960.000000	20.528951
1950.000000	21.100435
1940.000000	22.360830
1930.000000	24.551783
1920.000000	27.860667
1910.000000	31.849730
1900.000000	36.223991
1890.000000	39.878900
1880.000000	42.255631
1870.000000	43.104560
1860.000000	43.429511
1850.000000	43.289440
1840.000000	42.945356
1830.000000	42.580393
1820.000000	42.224824
1810.000000	41.911632
1800.000000	41.745269
1790.000000	41.559390
1780.000000	41.277269
1770.000000	41.050755
1760.000000	40.892967
1750.000000	40.475355
1740.000000	41.225757
1730.000000	41.717419
1720.000000	42.571648
1710.000000	42.669588
1700.000000	43.290354
1690.000000	44.636324
1680.000000	45.962790
1670.000000	46.365699
1660.000000	46.310225
1650.000000	46.177948
1640.000000	45.545145
1630.000000	44.985001
1620.000000	44.241414
1610.000000	43.591277
1600.000000	42.901376
1590.000000	42.570963
1580.000000	41.869040
1570.000000	41.551284
1560.000000	41.120203
1550.000000	40.251233
1540.000000	39.571703
1530.000000	38.990347
1520.000000	38.675098
1510.000000	38.364726
1500.000000	38.231819
1490.000000	38.173403
1480.000000	38.204681
1470.000000	38.518063
1460.000000	39.273132
1450.000000	39.986291
1440.000000	41.486015
1430.000000	43.630362
1420.000000	46.277891
1410.000000	49.134737
1400.000000	51.334938
1390.000000	52.703385
1380.000000	53.485508
1370.000000	54.194447
1360.000000	54.879192
1350.000000	55.644240
1340.000000	56.147269
1330.000000	56.713781
1320.000000	57.227979
1310.000000	57.456009
1300.000000	57.447303
1290.000000	57.446199
1280.000000	57.343619
1270.000000	57.376898
1260.000000	57.310032
1250.000000	57.193830
1240.000000	57.057991
1230.000000	56.835770
1220.000000	56.411645
1210.000000	56.166762
1200.000000	56.140919
1190.000000	56.455473
1180.000000	57.024807
1170.000000	57.868278
1160.000000	58.602356
1150.000000	59.185956
1140.000000	59.552014
1130.000000	59.721998
1120.000000	59.811686
1110.000000	59.879001
1100.000000	59.898543
1090.000000	59.882398
1080.000000	59.837405
1070.000000	59.730036
1060.000000	59.703245
1050.000000	59.660506
1040.000000	59.620211
1030.000000	59.512341
1020.000000	59.550623
1010.000000	59.623568
1000.000000	59.773897
990.000000	59.893766
980.000000	60.021007
970.000000	60.273036
960.000000	60.429414
950.000000	60.556465
940.000000	60.654033
930.000000	60.829952
920.000000	60.858995
910.000000	61.120841
900.000000	61.285585
890.000000	61.321146
880.000000	61.599184
870.000000	61.597072
860.000000	61.712666
850.000000	60.779471
840.000000	60.854617
830.000000	60.842159
820.000000	60.852103
810.000000	60.762597
800.000000	60.654470
790.000000	60.686294
780.000000	60.805938
770.000000	60.578657
760.000000	60.461035
750.000000	60.621245
740.000000	60.447127
730.000000	60.568327
720.000000	60.444312
710.000000	60.278507
700.000000	60.314753
690.000000	60.352407
680.000000	60.025767
670.000000	60.061055
660.000000	59.894013
650.000000	59.797207
640.000000	59.645191
630.000000	59.489105
620.000000	59.315483
610.000000	59.003533
600.000000	58.892903
590.000000	58.698562
580.000000	58.489745
570.000000	58.275152
560.000000	57.950316
550.000000	57.573187
540.000000	57.231726
530.000000	56.827104
520.000000	56.397264
510.000000	55.826810
500.000000	55.267097
490.000000	54.588305
480.000000	53.941051
470.000000	53.039801
460.000000	52.063660
450.000000	51.085589
440.000000	49.917429
430.000000	48.670989
420.000000	47.257656
410.000000	45.934296
400.000000	44.424009
390.000000	42.933962
380.000000	41.113874
370.000000	39.011088
360.000000	37.186999
350.000000	35.578848
340.000000	33.794657
330.000000	32.270632
320.000000	30.461180
310.000000	28.387994
300.000000	25.030185
290.000000	20.652134
280.000000	17.155489
270.000000	17.713701
260.000000	18.506880
250.000000	17.990625
