PE UV       SUBTECH     SPECTRUM    ASCII       PEDS        4.00        
   -1
veauAl_chair_1.Sample.asc
23/09/11
11:57:02.00
23/09/11
11:57:02.00
Administrator

250.000000
1
Lambda 750
750N8071901
PerkinElmer UV WinLab 6.0.4.0738 / 1.61.00 Lambda 900

0
0
3350/servo 860.8/2
0
0
UV/VIS
1
1
1
CommonBeamDepol,150mm sphere / downward view
0
0
0
0
Program
Program
3350/servo 860.8/2
3350/0.2 860.8/0.2
3350/0.2 860.8/0.2
0
1
 
 
 
0
 
860.8
319.2
860.8
Front
100
on
 
 
0
0
0
 
0
 
 
 
0
 
 
0
0
0
0
0
 
 
 
 
0
0


0
0
#HDR
-1
-1
#GR
nm
%R
1.0
0.0
2500.000000
-10.000000
226
8
64.243687
8.565995
#DATA
2500.000000	14.248416
2490.000000	23.121873
2480.000000	19.823150
2470.000000	20.192329
2460.000000	16.738288
2450.000000	25.257653
2440.000000	22.726830
2430.000000	20.818340
2420.000000	27.090579
2410.000000	23.026222
2400.000000	22.257353
2390.000000	27.000281
2380.000000	23.892750
2370.000000	26.931872
2360.000000	25.664256
2350.000000	22.545325
2340.000000	25.047845
2330.000000	25.481432
2320.000000	25.514888
2310.000000	22.065856
2300.000000	24.756144
2290.000000	24.096329
2280.000000	24.523795
2270.000000	25.326766
2260.000000	27.809086
2250.000000	28.741279
2240.000000	29.243863
2230.000000	30.264010
2220.000000	27.633684
2210.000000	27.024629
2200.000000	26.074944
2190.000000	26.128257
2180.000000	28.845168
2170.000000	29.610258
2160.000000	29.864428
2150.000000	30.721887
2140.000000	30.982699
2130.000000	31.407500
2120.000000	31.357994
2110.000000	31.004663
2100.000000	30.695397
2090.000000	29.827970
2080.000000	28.364038
2070.000000	26.887412
2060.000000	26.208571
2050.000000	26.710679
2040.000000	27.045778
2030.000000	26.754036
2020.000000	25.839265
2010.000000	24.457237
2000.000000	23.375802
1990.000000	22.083901
1980.000000	21.168124
1970.000000	20.209327
1960.000000	19.904205
1950.000000	20.463262
1940.000000	22.092425
1930.000000	24.904766
1920.000000	29.344314
1910.000000	34.608879
1900.000000	39.621377
1890.000000	43.872525
1880.000000	46.350043
1870.000000	47.278295
1860.000000	47.481371
1850.000000	47.392856
1840.000000	47.007817
1830.000000	46.649412
1820.000000	46.297869
1810.000000	45.872827
1800.000000	45.672809
1790.000000	45.464312
1780.000000	45.110370
1770.000000	44.838903
1760.000000	44.607759
1750.000000	44.184028
1740.000000	44.889893
1730.000000	45.453770
1720.000000	46.351203
1710.000000	46.513873
1700.000000	47.197604
1690.000000	48.563019
1680.000000	49.875449
1670.000000	50.314000
1660.000000	50.296381
1650.000000	50.143047
1640.000000	49.510712
1630.000000	48.925441
1620.000000	48.135408
1610.000000	47.421862
1600.000000	46.759785
1590.000000	46.314157
1580.000000	45.636448
1570.000000	45.289619
1560.000000	44.759081
1550.000000	43.858094
1540.000000	43.002927
1530.000000	42.410135
1520.000000	42.056298
1510.000000	41.773680
1500.000000	41.552130
1490.000000	41.475327
1480.000000	41.515209
1470.000000	41.891411
1460.000000	42.732970
1450.000000	43.556059
1440.000000	45.210048
1430.000000	47.494408
1420.000000	50.293052
1410.000000	53.027595
1400.000000	55.080239
1390.000000	56.333005
1380.000000	57.032709
1370.000000	57.628014
1360.000000	58.165324
1350.000000	58.862721
1340.000000	59.272358
1330.000000	59.772907
1320.000000	60.178925
1310.000000	60.284730
1300.000000	60.287799
1290.000000	60.239149
1280.000000	60.164580
1270.000000	60.179678
1260.000000	60.194640
1250.000000	60.098223
1240.000000	60.013826
1230.000000	59.785324
1220.000000	59.442222
1210.000000	59.183974
1200.000000	59.157977
1190.000000	59.399395
1180.000000	59.934728
1170.000000	60.658610
1160.000000	61.261529
1150.000000	61.775392
1140.000000	62.057370
1130.000000	62.203752
1120.000000	62.259100
1110.000000	62.323556
1100.000000	62.393878
1090.000000	62.400649
1080.000000	62.366213
1070.000000	62.311370
1060.000000	62.309027
1050.000000	62.262374
1040.000000	62.237131
1030.000000	62.165262
1020.000000	62.243125
1010.000000	62.295331
1000.000000	62.441905
990.000000	62.567448
980.000000	62.698155
970.000000	62.944939
960.000000	63.137002
950.000000	63.217330
940.000000	63.328655
930.000000	63.512263
920.000000	63.548859
910.000000	63.836902
900.000000	63.996892
890.000000	63.973863
880.000000	64.193514
870.000000	64.228238
860.000000	64.243687
850.000000	62.886539
840.000000	63.067946
830.000000	63.092568
820.000000	63.322822
810.000000	63.333171
800.000000	63.178724
790.000000	63.386291
780.000000	63.468186
770.000000	63.360646
760.000000	63.321826
750.000000	63.504096
740.000000	63.472941
730.000000	63.596592
720.000000	63.433462
710.000000	63.652846
700.000000	63.552531
690.000000	63.782658
680.000000	63.537489
670.000000	63.711393
660.000000	63.686541
650.000000	63.777707
640.000000	63.811552
630.000000	63.748042
620.000000	63.744983
610.000000	63.656035
600.000000	63.656955
590.000000	63.578858
580.000000	63.589227
570.000000	63.426276
560.000000	63.257703
550.000000	63.006659
540.000000	62.828710
530.000000	62.510160
520.000000	62.303428
510.000000	61.917571
500.000000	61.541672
490.000000	61.173461
480.000000	60.699874
470.000000	60.026325
460.000000	59.234013
450.000000	58.262435
440.000000	57.147656
430.000000	55.969521
420.000000	54.635108
410.000000	53.043408
400.000000	51.166820
390.000000	49.187485
380.000000	47.204387
370.000000	44.650446
360.000000	41.927712
350.000000	39.065677
340.000000	36.101273
330.000000	32.607485
320.000000	29.248618
310.000000	25.589835
300.000000	19.791214
290.000000	12.524885
280.000000	8.855306
270.000000	8.565995
260.000000	9.171899
250.000000	9.888479
