PE UV       SUBTECH     SPECTRUM    ASCII       PEDS        4.00        
   -1
veauUK_chair_2.Sample.asc
23/09/11
11:48:55.00
23/09/11
11:48:55.00
Administrator

250.000000
1
Lambda 750
750N8071901
PerkinElmer UV WinLab 6.0.4.0738 / 1.61.00 Lambda 900

0
0
3350/servo 860.8/2
0
0
UV/VIS
1
1
1
CommonBeamDepol,150mm sphere / downward view
0
0
0
0
Program
Program
3350/servo 860.8/2
3350/0.2 860.8/0.2
3350/0.2 860.8/0.2
0
1
 
 
 
0
 
860.8
319.2
860.8
Front
100
on
 
 
0
0
0
 
0
 
 
 
0
 
 
0
0
0
0
0
 
 
 
 
0
0


0
0
#HDR
-1
-1
#GR
nm
%R
1.0
0.0
2500.000000
-10.000000
226
8
50.334009
3.809824
#DATA
2500.000000	5.718715
2490.000000	14.842129
2480.000000	10.300610
2470.000000	11.590264
2460.000000	3.809824
2450.000000	14.764127
2440.000000	11.747562
2430.000000	8.145739
2420.000000	17.492892
2410.000000	11.353097
2400.000000	10.085017
2390.000000	16.374809
2380.000000	12.372281
2370.000000	15.823370
2360.000000	14.317038
2350.000000	10.696149
2340.000000	14.482245
2330.000000	15.174371
2320.000000	14.914530
2310.000000	10.757333
2300.000000	14.628552
2290.000000	14.049243
2280.000000	13.424761
2270.000000	14.253701
2260.000000	15.583783
2250.000000	17.017978
2240.000000	16.892355
2230.000000	18.238356
2220.000000	16.084649
2210.000000	14.850897
2200.000000	14.892832
2190.000000	14.008429
2180.000000	16.672233
2170.000000	17.262631
2160.000000	17.052195
2150.000000	17.756677
2140.000000	17.923106
2130.000000	18.124136
2120.000000	18.300208
2110.000000	18.176146
2100.000000	17.865069
2090.000000	17.363397
2080.000000	16.445698
2070.000000	15.670809
2060.000000	15.294115
2050.000000	15.405422
2040.000000	15.605957
2030.000000	15.364852
2020.000000	14.999898
2010.000000	14.203229
2000.000000	13.471004
1990.000000	12.757674
1980.000000	12.264526
1970.000000	11.750860
1960.000000	11.708706
1950.000000	12.182728
1940.000000	13.137571
1930.000000	14.868978
1920.000000	17.698278
1910.000000	21.289286
1900.000000	24.960374
1890.000000	28.269938
1880.000000	30.296745
1870.000000	31.217173
1860.000000	31.563504
1850.000000	31.588737
1840.000000	31.231808
1830.000000	30.811028
1820.000000	30.522666
1810.000000	30.202284
1800.000000	30.067425
1790.000000	29.952055
1780.000000	29.616518
1770.000000	29.510111
1760.000000	29.330775
1750.000000	28.834992
1740.000000	29.808950
1730.000000	29.957433
1720.000000	30.854084
1710.000000	30.955073
1700.000000	31.537770
1690.000000	32.781257
1680.000000	34.002544
1670.000000	34.428552
1660.000000	34.344208
1650.000000	34.282868
1640.000000	33.670858
1630.000000	33.181023
1620.000000	32.447952
1610.000000	31.827730
1600.000000	31.218077
1590.000000	30.891977
1580.000000	30.262707
1570.000000	29.994637
1560.000000	29.571621
1550.000000	28.859703
1540.000000	28.171135
1530.000000	27.668697
1520.000000	27.388671
1510.000000	27.177279
1500.000000	27.016508
1490.000000	26.949038
1480.000000	26.970158
1470.000000	27.274636
1460.000000	28.006993
1450.000000	28.584800
1440.000000	29.992409
1430.000000	31.976936
1420.000000	34.544529
1410.000000	37.272335
1400.000000	39.427015
1390.000000	40.841065
1380.000000	41.647841
1370.000000	42.380689
1360.000000	43.023347
1350.000000	43.852533
1340.000000	44.363213
1330.000000	44.873590
1320.000000	45.367886
1310.000000	45.588861
1300.000000	45.656495
1290.000000	45.650078
1280.000000	45.538601
1270.000000	45.549357
1260.000000	45.544344
1250.000000	45.387806
1240.000000	45.315620
1230.000000	45.087856
1220.000000	44.659232
1210.000000	44.348194
1200.000000	44.281881
1190.000000	44.611624
1180.000000	45.286386
1170.000000	46.201192
1160.000000	46.947531
1150.000000	47.578530
1140.000000	47.944198
1130.000000	48.108888
1120.000000	48.192539
1110.000000	48.281315
1100.000000	48.368515
1090.000000	48.362727
1080.000000	48.347230
1070.000000	48.251919
1060.000000	48.247266
1050.000000	48.193207
1040.000000	48.140391
1030.000000	48.078916
1020.000000	48.175523
1010.000000	48.237797
1000.000000	48.368771
990.000000	48.526896
980.000000	48.689682
970.000000	48.891646
960.000000	49.061467
950.000000	49.251466
940.000000	49.366679
930.000000	49.519461
920.000000	49.551936
910.000000	49.814975
900.000000	50.054597
890.000000	50.018790
880.000000	50.135644
870.000000	50.266867
860.000000	50.334009
850.000000	49.191295
840.000000	49.658323
830.000000	49.364546
820.000000	49.451544
810.000000	49.392824
800.000000	49.381612
790.000000	49.353435
780.000000	49.397751
770.000000	49.161519
760.000000	49.071288
750.000000	49.174028
740.000000	49.002827
730.000000	49.095800
720.000000	48.818985
710.000000	48.800398
700.000000	48.564282
690.000000	48.342508
680.000000	47.961729
670.000000	47.856793
660.000000	47.488953
650.000000	47.046844
640.000000	46.548365
630.000000	46.205447
620.000000	45.722564
610.000000	45.321644
600.000000	44.986367
590.000000	44.663196
580.000000	44.274693
570.000000	43.916779
560.000000	43.532871
550.000000	43.070497
540.000000	42.586369
530.000000	42.176551
520.000000	41.800965
510.000000	41.307085
500.000000	40.682320
490.000000	39.961605
480.000000	39.130215
470.000000	38.023930
460.000000	36.806667
450.000000	35.343064
440.000000	33.651417
430.000000	31.918550
420.000000	29.945294
410.000000	28.499704
400.000000	28.141049
390.000000	27.875585
380.000000	27.348826
370.000000	26.312777
360.000000	25.342985
350.000000	24.460371
340.000000	23.420683
330.000000	22.905168
320.000000	21.779676
310.000000	21.309320
300.000000	18.866568
290.000000	15.530616
280.000000	13.203555
270.000000	13.977203
260.000000	14.790665
250.000000	14.446681
