PE UV       SUBTECH     SPECTRUM    ASCII       PEDS        4.00        
   -1
veauUK_fleur_2.Sample.asc
23/09/11
11:54:21.00
23/09/11
11:54:21.00
Administrator

250.000000
1
Lambda 750
750N8071901
PerkinElmer UV WinLab 6.0.4.0738 / 1.61.00 Lambda 900

0
0
3350/servo 860.8/2
0
0
UV/VIS
1
1
1
CommonBeamDepol,150mm sphere / downward view
0
0
0
0
Program
Program
3350/servo 860.8/2
3350/0.2 860.8/0.2
3350/0.2 860.8/0.2
0
1
 
 
 
0
 
860.8
319.2
860.8
Front
100
on
 
 
0
0
0
 
0
 
 
 
0
 
 
0
0
0
0
0
 
 
 
 
0
0


0
0
#HDR
-1
-1
#GR
nm
%R
1.0
0.0
2500.000000
-10.000000
226
8
57.097568
-5.036806
#DATA
2500.000000	-5.036806
2490.000000	5.853763
2480.000000	1.119019
2470.000000	1.343912
2460.000000	-4.039141
2450.000000	7.329337
2440.000000	2.415200
2430.000000	-0.957541
2420.000000	7.714663
2410.000000	2.661446
2400.000000	0.944728
2390.000000	7.718493
2380.000000	3.484977
2370.000000	7.005636
2360.000000	5.460949
2350.000000	1.231876
2340.000000	5.054275
2330.000000	5.553162
2320.000000	5.986697
2310.000000	2.224418
2300.000000	5.777740
2290.000000	4.137170
2280.000000	4.514638
2270.000000	5.020011
2260.000000	6.879450
2250.000000	8.075787
2240.000000	8.552917
2230.000000	9.893470
2220.000000	6.751153
2210.000000	6.681454
2200.000000	5.361108
2190.000000	5.223696
2180.000000	7.819610
2170.000000	8.294136
2160.000000	7.752078
2150.000000	8.784646
2140.000000	8.934736
2130.000000	9.098150
2120.000000	9.607514
2110.000000	9.226468
2100.000000	8.969451
2090.000000	8.229937
2080.000000	7.184720
2070.000000	6.222196
2060.000000	5.740502
2050.000000	5.975862
2040.000000	6.136416
2030.000000	5.942127
2020.000000	5.269228
2010.000000	4.506658
2000.000000	3.814796
1990.000000	3.130484
1980.000000	2.618261
1970.000000	2.232465
1960.000000	2.019683
1950.000000	2.368036
1940.000000	3.491660
1930.000000	5.291904
1920.000000	8.639090
1910.000000	13.466750
1900.000000	18.796172
1890.000000	23.814725
1880.000000	27.284102
1870.000000	28.499814
1860.000000	28.953186
1850.000000	28.934449
1840.000000	28.358914
1830.000000	27.820700
1820.000000	27.272542
1810.000000	26.761007
1800.000000	26.401027
1790.000000	26.111590
1780.000000	25.619275
1770.000000	25.257546
1760.000000	24.951743
1750.000000	24.318481
1740.000000	25.311014
1730.000000	26.036105
1720.000000	27.265805
1710.000000	27.408214
1700.000000	28.416010
1690.000000	30.483076
1680.000000	32.448470
1670.000000	33.141555
1660.000000	33.001432
1650.000000	32.746027
1640.000000	31.741379
1630.000000	30.887911
1620.000000	29.676364
1610.000000	28.617028
1600.000000	27.605402
1590.000000	26.935744
1580.000000	25.974780
1570.000000	25.477227
1560.000000	24.811170
1550.000000	23.619005
1540.000000	22.502197
1530.000000	21.708590
1520.000000	21.223939
1510.000000	20.786783
1500.000000	20.452234
1490.000000	20.317883
1480.000000	20.307023
1470.000000	20.754194
1460.000000	21.809426
1450.000000	22.811510
1440.000000	24.992362
1430.000000	28.175668
1420.000000	32.427014
1410.000000	36.967769
1400.000000	40.682689
1390.000000	43.037216
1380.000000	44.332496
1370.000000	45.765858
1360.000000	46.931176
1350.000000	48.221082
1340.000000	49.140028
1330.000000	49.945305
1320.000000	50.617087
1310.000000	50.927177
1300.000000	50.992704
1290.000000	50.990443
1280.000000	50.923281
1270.000000	50.976741
1260.000000	50.875318
1250.000000	50.539656
1240.000000	50.321608
1230.000000	49.971159
1220.000000	49.294338
1210.000000	48.674714
1200.000000	48.483264
1190.000000	49.021818
1180.000000	50.169062
1170.000000	51.648308
1160.000000	52.944878
1150.000000	54.013255
1140.000000	54.688855
1130.000000	54.987878
1120.000000	55.133840
1110.000000	55.247985
1100.000000	55.273176
1090.000000	55.221916
1080.000000	55.107734
1070.000000	54.976943
1060.000000	54.890247
1050.000000	54.774101
1040.000000	54.667100
1030.000000	54.546869
1020.000000	54.588846
1010.000000	54.678874
1000.000000	54.840081
990.000000	55.024567
980.000000	55.225857
970.000000	55.535721
960.000000	55.815508
950.000000	56.006531
940.000000	56.149717
930.000000	56.239965
920.000000	56.238791
910.000000	56.502157
900.000000	56.741134
890.000000	56.755614
880.000000	57.049811
870.000000	57.077199
860.000000	57.097568
850.000000	56.193463
840.000000	56.630104
830.000000	56.516973
820.000000	56.404661
810.000000	56.309083
800.000000	56.225640
790.000000	56.161128
780.000000	56.258585
770.000000	55.910529
760.000000	55.743942
750.000000	55.775403
740.000000	55.629707
730.000000	55.585833
720.000000	55.217455
710.000000	54.973809
700.000000	54.756200
690.000000	54.331518
680.000000	53.951441
670.000000	53.607105
660.000000	53.102899
650.000000	52.575482
640.000000	51.887082
630.000000	51.262827
620.000000	50.607824
610.000000	50.036659
600.000000	49.424757
590.000000	48.799869
580.000000	48.205928
570.000000	47.454729
560.000000	46.788856
550.000000	45.983991
540.000000	45.136607
530.000000	44.214452
520.000000	43.337614
510.000000	42.259704
500.000000	40.989751
490.000000	39.694710
480.000000	37.988363
470.000000	36.074565
460.000000	33.826198
450.000000	31.442760
440.000000	28.844125
430.000000	25.942801
420.000000	22.980398
410.000000	20.608635
400.000000	19.404245
390.000000	18.453867
380.000000	17.266192
370.000000	15.744841
360.000000	14.594464
350.000000	13.163555
340.000000	11.809068
330.000000	10.808118
320.000000	9.632979
310.000000	9.112484
300.000000	7.279651
290.000000	5.503622
280.000000	5.218092
270.000000	5.627224
260.000000	6.135692
250.000000	6.397777
