PE UV       SUBTECH     SPECTRUM    ASCII       PEDS        4.00        
   -1
veauUK_chair_1.Sample.asc
23/09/11
11:45:01.00
23/09/11
11:45:01.00
Administrator

250.000000
1
Lambda 750
750N8071901
PerkinElmer UV WinLab 6.0.4.0738 / 1.61.00 Lambda 900

0
0
3350/servo 860.8/2
0
0
UV/VIS
1
1
1
CommonBeamDepol,150mm sphere / downward view
0
0
0
0
Program
Program
3350/servo 860.8/2
3350/0.2 860.8/0.2
3350/0.2 860.8/0.2
0
1
 
 
 
0
 
860.8
319.2
860.8
Front
100
on
 
 
0
0
0
 
0
 
 
 
0
 
 
0
0
0
0
0
 
 
 
 
0
0


0
0
#HDR
-1
-1
#GR
nm
%R
1.0
0.0
2500.000000
-10.000000
226
8
55.975601
5.138046
#DATA
2500.000000	5.138046
2490.000000	18.326617
2480.000000	14.836847
2470.000000	14.194333
2460.000000	16.014202
2450.000000	17.626890
2440.000000	13.537621
2430.000000	12.882971
2420.000000	18.996735
2410.000000	11.853036
2400.000000	15.576360
2390.000000	20.710030
2380.000000	16.539017
2370.000000	19.566164
2360.000000	18.026283
2350.000000	14.556625
2340.000000	18.865498
2330.000000	18.164850
2320.000000	18.397355
2310.000000	14.834859
2300.000000	17.824428
2290.000000	16.846468
2280.000000	17.060629
2270.000000	17.634610
2260.000000	19.318978
2250.000000	20.767160
2240.000000	21.000616
2230.000000	22.320892
2220.000000	19.444311
2210.000000	19.336047
2200.000000	18.458176
2190.000000	18.204016
2180.000000	20.694291
2170.000000	21.354869
2160.000000	21.098858
2150.000000	22.103732
2140.000000	22.299886
2130.000000	22.442393
2120.000000	22.618058
2110.000000	22.377669
2100.000000	22.254796
2090.000000	21.390211
2080.000000	20.472940
2070.000000	19.419934
2060.000000	19.023120
2050.000000	19.143535
2040.000000	19.440487
2030.000000	19.247464
2020.000000	18.629815
2010.000000	17.651769
2000.000000	16.919935
1990.000000	16.047010
1980.000000	15.384226
1970.000000	14.789403
1960.000000	14.676924
1950.000000	15.212335
1940.000000	16.491325
1930.000000	18.584156
1920.000000	21.749545
1910.000000	25.907625
1900.000000	30.032475
1890.000000	33.605045
1880.000000	36.054420
1870.000000	37.077656
1860.000000	37.248632
1850.000000	37.127459
1840.000000	36.799547
1830.000000	36.369209
1820.000000	36.089975
1810.000000	35.783382
1800.000000	35.583270
1790.000000	35.419310
1780.000000	35.164815
1770.000000	34.888392
1760.000000	34.691204
1750.000000	34.348888
1740.000000	35.126543
1730.000000	35.482753
1720.000000	36.342342
1710.000000	36.354529
1700.000000	37.140199
1690.000000	38.470851
1680.000000	39.718807
1670.000000	40.213016
1660.000000	40.090316
1650.000000	39.992301
1640.000000	39.344213
1630.000000	38.829066
1620.000000	38.061913
1610.000000	37.408818
1600.000000	36.725649
1590.000000	36.379492
1580.000000	35.736269
1570.000000	35.398923
1560.000000	34.979337
1550.000000	34.188592
1540.000000	33.421089
1530.000000	32.888025
1520.000000	32.573441
1510.000000	32.326266
1500.000000	32.143855
1490.000000	32.126027
1480.000000	32.144741
1470.000000	32.496382
1460.000000	33.242419
1450.000000	33.938600
1440.000000	35.436710
1430.000000	37.559932
1420.000000	40.250782
1410.000000	43.047683
1400.000000	45.274297
1390.000000	46.685110
1380.000000	47.461980
1370.000000	48.205791
1360.000000	48.854282
1350.000000	49.652785
1340.000000	50.128465
1330.000000	50.697639
1320.000000	51.164975
1310.000000	51.349707
1300.000000	51.371359
1290.000000	51.351774
1280.000000	51.262696
1270.000000	51.281566
1260.000000	51.258488
1250.000000	51.152916
1240.000000	51.093891
1230.000000	50.837962
1220.000000	50.402762
1210.000000	50.106902
1200.000000	50.045458
1190.000000	50.351239
1180.000000	51.003394
1170.000000	51.863893
1160.000000	52.601654
1150.000000	53.240327
1140.000000	53.589843
1130.000000	53.776849
1120.000000	53.897997
1110.000000	53.968862
1100.000000	53.999609
1090.000000	54.035721
1080.000000	53.980069
1070.000000	53.938748
1060.000000	53.906354
1050.000000	53.873711
1040.000000	53.821837
1030.000000	53.745710
1020.000000	53.795755
1010.000000	53.890494
1000.000000	54.050024
990.000000	54.178508
980.000000	54.326836
970.000000	54.559511
960.000000	54.741822
950.000000	54.850438
940.000000	55.005871
930.000000	55.164145
920.000000	55.190265
910.000000	55.480509
900.000000	55.704723
890.000000	55.640294
880.000000	55.897854
870.000000	55.863024
860.000000	55.975601
850.000000	54.839310
840.000000	55.104747
830.000000	55.235767
820.000000	55.162954
810.000000	54.975771
800.000000	54.861923
790.000000	55.045037
780.000000	54.917556
770.000000	54.800378
760.000000	54.745907
750.000000	54.822205
740.000000	54.693564
730.000000	54.753646
720.000000	54.533634
710.000000	54.490672
700.000000	54.405233
690.000000	54.266895
680.000000	54.041702
670.000000	53.858157
660.000000	53.646392
650.000000	53.377511
640.000000	53.069940
630.000000	52.718588
620.000000	52.414175
610.000000	52.025889
600.000000	51.871712
590.000000	51.582470
580.000000	51.318192
570.000000	50.987364
560.000000	50.636417
550.000000	50.218787
540.000000	49.841206
530.000000	49.384234
520.000000	48.969339
510.000000	48.449333
500.000000	47.817069
490.000000	47.184640
480.000000	46.353817
470.000000	45.316183
460.000000	44.088894
450.000000	42.750139
440.000000	41.337362
430.000000	39.593388
420.000000	37.740708
410.000000	36.163493
400.000000	35.281263
390.000000	34.650630
380.000000	33.736399
370.000000	32.530760
360.000000	31.455016
350.000000	30.343794
340.000000	29.205483
330.000000	28.205830
320.000000	26.836174
310.000000	26.209621
300.000000	23.466172
290.000000	19.216508
280.000000	16.032474
270.000000	16.750020
260.000000	17.614637
250.000000	17.137775
