PE UV       SUBTECH     SPECTRUM    ASCII       PEDS        4.00        
   -1
veauUK_fleur_1.Sample.asc
23/09/11
11:51:41.00
23/09/11
11:51:41.00
Administrator

250.000000
1
Lambda 750
750N8071901
PerkinElmer UV WinLab 6.0.4.0738 / 1.61.00 Lambda 900

0
0
3350/servo 860.8/2
0
0
UV/VIS
1
1
1
CommonBeamDepol,150mm sphere / downward view
0
0
0
0
Program
Program
3350/servo 860.8/2
3350/0.2 860.8/0.2
3350/0.2 860.8/0.2
0
1
 
 
 
0
 
860.8
319.2
860.8
Front
100
on
 
 
0
0
0
 
0
 
 
 
0
 
 
0
0
0
0
0
 
 
 
 
0
0


0
0
#HDR
-1
-1
#GR
nm
%R
1.0
0.0
2500.000000
-10.000000
226
8
50.693445
-6.927634
#DATA
2500.000000	-6.927634
2490.000000	3.577791
2480.000000	-0.545802
2470.000000	-1.344789
2460.000000	-6.314069
2450.000000	3.712749
2440.000000	0.162852
2430.000000	-3.399123
2420.000000	5.817480
2410.000000	-0.516193
2400.000000	-1.634787
2390.000000	4.900910
2380.000000	0.404345
2370.000000	4.088454
2360.000000	2.572439
2350.000000	-1.607520
2340.000000	2.770217
2330.000000	2.288579
2320.000000	3.041821
2310.000000	-0.198424
2300.000000	2.972012
2290.000000	1.978684
2280.000000	1.984945
2270.000000	1.838719
2260.000000	3.973006
2250.000000	4.631935
2240.000000	5.201301
2230.000000	6.299425
2220.000000	3.532436
2210.000000	3.443264
2200.000000	2.371784
2190.000000	2.354326
2180.000000	5.261803
2170.000000	5.399834
2160.000000	4.600725
2150.000000	5.361019
2140.000000	5.428407
2130.000000	5.861492
2120.000000	6.007825
2110.000000	5.899471
2100.000000	5.588491
2090.000000	4.856263
2080.000000	4.178284
2070.000000	3.385356
2060.000000	2.847682
2050.000000	3.174464
2040.000000	3.252385
2030.000000	3.146702
2020.000000	2.565132
2010.000000	1.910352
2000.000000	1.444020
1990.000000	0.975138
1980.000000	0.480626
1970.000000	0.147080
1960.000000	0.180292
1950.000000	0.367383
1940.000000	1.125580
1930.000000	2.619573
1920.000000	5.296675
1910.000000	9.526441
1900.000000	14.340126
1890.000000	18.781292
1880.000000	21.883781
1870.000000	23.261668
1860.000000	23.597238
1850.000000	23.505764
1840.000000	23.027396
1830.000000	22.522841
1820.000000	21.940476
1810.000000	21.487850
1800.000000	21.402319
1790.000000	21.081999
1780.000000	20.674985
1770.000000	20.317833
1760.000000	20.054776
1750.000000	19.467889
1740.000000	20.439786
1730.000000	21.029756
1720.000000	22.171053
1710.000000	22.295435
1700.000000	23.209173
1690.000000	25.153345
1680.000000	26.925715
1670.000000	27.568176
1660.000000	27.424546
1650.000000	27.238832
1640.000000	26.322535
1630.000000	25.504733
1620.000000	24.399843
1610.000000	23.436997
1600.000000	22.478332
1590.000000	21.880404
1580.000000	20.965489
1570.000000	20.525283
1560.000000	19.898862
1550.000000	18.814667
1540.000000	17.789244
1530.000000	17.050003
1520.000000	16.651138
1510.000000	16.252955
1500.000000	15.934163
1490.000000	15.791764
1480.000000	15.756248
1470.000000	16.164958
1460.000000	17.132868
1450.000000	18.010349
1440.000000	20.050760
1430.000000	23.021266
1420.000000	26.936688
1410.000000	31.195618
1400.000000	34.709350
1390.000000	36.998012
1380.000000	38.281219
1370.000000	39.549543
1360.000000	40.721517
1350.000000	42.021858
1340.000000	42.900832
1330.000000	43.681796
1320.000000	44.363072
1310.000000	44.670230
1300.000000	44.728018
1290.000000	44.700292
1280.000000	44.668669
1270.000000	44.716352
1260.000000	44.654122
1250.000000	44.345824
1240.000000	44.082251
1230.000000	43.699179
1220.000000	43.049445
1210.000000	42.507637
1200.000000	42.334137
1190.000000	42.876181
1180.000000	43.954060
1170.000000	45.418371
1160.000000	46.703929
1150.000000	47.744247
1140.000000	48.431788
1130.000000	48.732771
1120.000000	48.874836
1110.000000	48.994796
1100.000000	48.999162
1090.000000	48.950011
1080.000000	48.858045
1070.000000	48.741363
1060.000000	48.654799
1050.000000	48.564506
1040.000000	48.462557
1030.000000	48.343819
1020.000000	48.409320
1010.000000	48.474852
1000.000000	48.575872
990.000000	48.769525
980.000000	48.987603
970.000000	49.282433
960.000000	49.547496
950.000000	49.751222
940.000000	49.852285
930.000000	49.952645
920.000000	49.960568
910.000000	50.176756
900.000000	50.376489
890.000000	50.317192
880.000000	50.607632
870.000000	50.623755
860.000000	50.693445
850.000000	49.519185
840.000000	49.613628
830.000000	49.510571
820.000000	49.412080
810.000000	49.434041
800.000000	49.229228
790.000000	49.186022
780.000000	49.123853
770.000000	48.737390
760.000000	48.643278
750.000000	48.584707
740.000000	48.416899
730.000000	48.194825
720.000000	47.851569
710.000000	47.531341
700.000000	47.109226
690.000000	46.753468
680.000000	46.114220
670.000000	45.568050
660.000000	44.834270
650.000000	44.004851
640.000000	43.024168
630.000000	42.047051
620.000000	41.136611
610.000000	40.315479
600.000000	39.576301
590.000000	38.815900
580.000000	38.001842
570.000000	37.173640
560.000000	36.444867
550.000000	35.534859
540.000000	34.617103
530.000000	33.760421
520.000000	33.018421
510.000000	32.070782
500.000000	30.891913
490.000000	29.489220
480.000000	27.863416
470.000000	25.890101
460.000000	23.588962
450.000000	21.014764
440.000000	18.319706
430.000000	15.441363
420.000000	12.648312
410.000000	10.897569
400.000000	10.651372
390.000000	10.570578
380.000000	10.181262
370.000000	9.321572
360.000000	8.420200
350.000000	7.581182
340.000000	6.946571
330.000000	6.430295
320.000000	5.827822
310.000000	5.872168
300.000000	4.944486
290.000000	4.215290
280.000000	4.417296
270.000000	4.792643
260.000000	5.306656
250.000000	5.709276
