PE UV       SUBTECH     SPECTRUM    ASCII       PEDS        4.00        
   -1
blanc.Sample.asc
23/09/11
11:30:06.00
23/09/11
11:30:06.00
Administrator

250.000000
1
Lambda 750
750N8071901
PerkinElmer UV WinLab 6.0.4.0738 / 1.61.00 Lambda 900

0
0
3350/servo 860.8/2
0
0
UV/VIS
1
1
1
CommonBeamDepol,150mm sphere / downward view
0
0
0
0
Program
Program
3350/servo 860.8/2
3350/0.2 860.8/0.2
3350/0.2 860.8/0.2
0
1
 
 
 
0
 
860.8
319.2
860.8
Front
100
on
 
 
0
0
0
 
0
 
 
 
0
 
 
0
0
0
0
0
 
 
 
 
0
0


0
0
#HDR
-1
-1
#GR
nm
%R
1.0
0.0
2500.000000
-10.000000
226
8
101.334861
99.656396
#DATA
2500.000000	99.727889
2490.000000	99.669719
2480.000000	100.173956
2470.000000	100.721781
2460.000000	99.817717
2450.000000	100.238468
2440.000000	100.154644
2430.000000	100.362598
2420.000000	100.206836
2410.000000	100.458016
2400.000000	100.578579
2390.000000	100.205360
2380.000000	99.989938
2370.000000	100.109847
2360.000000	100.225484
2350.000000	100.317442
2340.000000	100.270342
2330.000000	99.688308
2320.000000	100.110198
2310.000000	99.984899
2300.000000	100.429432
2290.000000	100.171885
2280.000000	100.414475
2270.000000	100.095820
2260.000000	100.210639
2250.000000	100.084020
2240.000000	99.953257
2230.000000	100.045750
2220.000000	100.110205
2210.000000	99.987943
2200.000000	99.837536
2190.000000	100.175526
2180.000000	100.423913
2170.000000	100.343871
2160.000000	100.265693
2150.000000	100.123182
2140.000000	100.303268
2130.000000	100.130764
2120.000000	100.028930
2110.000000	100.016926
2100.000000	100.194218
2090.000000	100.169918
2080.000000	100.177136
2070.000000	99.902822
2060.000000	100.297130
2050.000000	100.026131
2040.000000	100.184825
2030.000000	100.140122
2020.000000	100.111560
2010.000000	100.115674
2000.000000	100.194487
1990.000000	100.140925
1980.000000	100.083681
1970.000000	100.014913
1960.000000	100.060819
1950.000000	100.000976
1940.000000	100.180280
1930.000000	100.054824
1920.000000	100.128951
1910.000000	100.062526
1900.000000	100.148180
1890.000000	100.128123
1880.000000	100.084026
1870.000000	100.089488
1860.000000	100.061768
1850.000000	99.988000
1840.000000	100.052708
1830.000000	100.134823
1820.000000	100.172683
1810.000000	100.151075
1800.000000	100.185320
1790.000000	100.121824
1780.000000	100.133015
1770.000000	100.086055
1760.000000	100.103458
1750.000000	100.110964
1740.000000	100.153431
1730.000000	100.135520
1720.000000	100.085918
1710.000000	100.117809
1700.000000	100.083910
1690.000000	100.091738
1680.000000	100.145641
1670.000000	100.119379
1660.000000	100.119070
1650.000000	100.086321
1640.000000	100.038075
1630.000000	100.131683
1620.000000	100.109553
1610.000000	100.125089
1600.000000	100.094991
1590.000000	100.132787
1580.000000	100.112284
1570.000000	100.107588
1560.000000	100.061792
1550.000000	100.048960
1540.000000	100.099539
1530.000000	100.115610
1520.000000	100.100643
1510.000000	100.113650
1500.000000	100.126035
1490.000000	100.102718
1480.000000	100.093876
1470.000000	100.085578
1460.000000	100.097393
1450.000000	100.110123
1440.000000	100.097410
1430.000000	100.110553
1420.000000	100.114089
1410.000000	100.095803
1400.000000	100.136810
1390.000000	100.125573
1380.000000	100.098392
1370.000000	100.107408
1360.000000	100.111464
1350.000000	100.102249
1340.000000	100.088812
1330.000000	100.095571
1320.000000	100.121072
1310.000000	100.114019
1300.000000	100.107152
1290.000000	100.129207
1280.000000	100.110520
1270.000000	100.115857
1260.000000	100.124834
1250.000000	100.111252
1240.000000	100.121878
1230.000000	100.107349
1220.000000	100.102334
1210.000000	100.160510
1200.000000	100.142477
1190.000000	100.107036
1180.000000	100.108086
1170.000000	100.114244
1160.000000	100.124685
1150.000000	100.136947
1140.000000	100.134490
1130.000000	100.134941
1120.000000	100.122501
1110.000000	100.131181
1100.000000	100.125443
1090.000000	100.143161
1080.000000	100.119912
1070.000000	100.120785
1060.000000	100.140895
1050.000000	100.117599
1040.000000	100.115697
1030.000000	100.101681
1020.000000	100.141689
1010.000000	100.138928
1000.000000	100.111485
990.000000	100.126078
980.000000	100.096140
970.000000	100.136176
960.000000	100.171492
950.000000	100.066634
940.000000	100.132166
930.000000	100.198245
920.000000	100.078370
910.000000	100.218348
900.000000	100.135389
890.000000	100.001074
880.000000	100.039518
870.000000	100.070544
860.000000	99.656396
850.000000	99.783506
840.000000	99.930279
830.000000	100.061426
820.000000	100.134492
810.000000	100.047198
800.000000	100.291494
790.000000	100.073851
780.000000	100.245159
770.000000	99.869147
760.000000	99.965104
750.000000	99.959601
740.000000	100.007086
730.000000	100.070400
720.000000	99.953652
710.000000	99.843273
700.000000	99.882056
690.000000	99.969556
680.000000	99.993587
670.000000	100.073895
660.000000	100.007691
650.000000	100.213188
640.000000	100.131150
630.000000	100.098034
620.000000	99.970966
610.000000	99.956492
600.000000	100.112384
590.000000	100.026172
580.000000	100.083695
570.000000	100.087538
560.000000	100.050006
550.000000	99.965488
540.000000	99.872984
530.000000	99.941516
520.000000	99.970414
510.000000	99.885885
500.000000	100.045081
490.000000	99.947670
480.000000	99.995143
470.000000	100.098172
460.000000	100.032464
450.000000	100.126867
440.000000	100.061634
430.000000	100.023226
420.000000	100.147368
410.000000	100.158003
400.000000	100.051236
390.000000	100.192053
380.000000	100.213335
370.000000	100.165997
360.000000	100.283816
350.000000	100.271050
340.000000	100.237149
330.000000	99.661964
320.000000	100.490475
310.000000	101.334861
300.000000	100.443453
290.000000	100.286447
280.000000	100.275594
270.000000	100.331176
260.000000	100.128910
250.000000	100.628604
