PE UV       SUBTECH     SPECTRUM    ASCII       PEDS        4.00        
   -1
006-2S-XXX-NR004-F002.Sample.asc
24/01/11
11:13:36.00
24/01/11
11:13:36.00
Administrator

250.000000
1
Lambda 750
750N8071901
PerkinElmer UV WinLab 6.0.4.0738 / 1.61.00 Lambda 900

0
0
3350/servo 860.8/2
0
0
UV/VIS
1
1
1
CommonBeamDepol,150mm sphere / downward view
0
0
0
0
Program
Program
3350/servo 860.8/2
3350/0.2 860.8/0.2
3350/0.2 860.8/0.2
0
1
 
 
 
0
 
860.8
319.2
860.8
Front
100
on
 
 
0
0
0
 
0
 
 
 
0
 
 
0
0
0
0
0
 
 
 
 
0
0


0
0
#HDR
-1
-1
#GR
nm
%R
1.0
0.0
2500.000000
-10.000000
226
8
62.906151
10.042908
#DATA
2500.000000	20.484384
2490.000000	21.115263
2480.000000	23.552226
2470.000000	20.948781
2460.000000	24.247703
2450.000000	22.665978
2440.000000	23.642273
2430.000000	24.712848
2420.000000	25.078458
2410.000000	27.810609
2400.000000	25.366405
2390.000000	26.821276
2380.000000	27.822590
2370.000000	26.065915
2360.000000	27.122157
2350.000000	25.951486
2340.000000	25.953517
2330.000000	26.309842
2320.000000	24.637919
2310.000000	25.502814
2300.000000	24.253707
2290.000000	25.373045
2280.000000	26.860323
2270.000000	29.492143
2260.000000	30.775396
2250.000000	31.723731
2240.000000	33.127421
2230.000000	32.438980
2220.000000	31.335840
2210.000000	30.252279
2200.000000	30.054863
2190.000000	30.393480
2180.000000	31.209425
2170.000000	32.620186
2160.000000	33.675502
2150.000000	35.238756
2140.000000	36.004597
2130.000000	36.442036
2120.000000	37.015102
2110.000000	37.095610
2100.000000	36.437343
2090.000000	35.424832
2080.000000	33.422163
2070.000000	32.175878
2060.000000	31.567507
2050.000000	31.857441
2040.000000	33.477709
2030.000000	33.708921
2020.000000	33.179256
2010.000000	31.938663
2000.000000	30.804561
1990.000000	29.514316
1980.000000	28.152476
1970.000000	27.391497
1960.000000	26.824594
1950.000000	27.954178
1940.000000	30.331550
1930.000000	33.593622
1920.000000	38.632184
1910.000000	43.646071
1900.000000	47.685710
1890.000000	50.052951
1880.000000	51.242728
1870.000000	51.724213
1860.000000	51.761204
1850.000000	51.445035
1840.000000	50.873552
1830.000000	50.660758
1820.000000	50.393831
1810.000000	50.185530
1800.000000	49.893675
1790.000000	49.246139
1780.000000	48.617588
1770.000000	48.129961
1760.000000	47.537237
1750.000000	46.928320
1740.000000	47.275758
1730.000000	48.312463
1720.000000	49.154297
1710.000000	49.803016
1700.000000	51.034969
1690.000000	52.623290
1680.000000	53.759391
1670.000000	54.202397
1660.000000	54.429311
1650.000000	54.119494
1640.000000	53.830498
1630.000000	53.518758
1620.000000	53.005264
1610.000000	52.605866
1600.000000	52.174159
1590.000000	51.725988
1580.000000	51.471274
1570.000000	51.286242
1560.000000	50.874535
1550.000000	50.187692
1540.000000	49.453359
1530.000000	49.013107
1520.000000	48.867991
1510.000000	48.910125
1500.000000	49.201649
1490.000000	49.695101
1480.000000	50.144910
1470.000000	50.612551
1460.000000	51.257669
1450.000000	51.979581
1440.000000	52.841723
1430.000000	54.094413
1420.000000	55.616238
1410.000000	57.117027
1400.000000	58.233105
1390.000000	58.931926
1380.000000	59.354644
1370.000000	59.826219
1360.000000	60.400667
1350.000000	60.935143
1340.000000	61.199406
1330.000000	61.178340
1320.000000	61.063685
1310.000000	61.066086
1300.000000	61.139144
1290.000000	61.082162
1280.000000	61.161304
1270.000000	61.168078
1260.000000	61.217066
1250.000000	61.011050
1240.000000	60.565735
1230.000000	60.201018
1220.000000	59.996043
1210.000000	60.010645
1200.000000	60.143793
1190.000000	60.536168
1180.000000	60.904425
1170.000000	61.413202
1160.000000	61.758979
1150.000000	62.093189
1140.000000	62.252847
1130.000000	62.234385
1120.000000	62.232688
1110.000000	62.398852
1100.000000	62.396963
1090.000000	62.341670
1080.000000	62.232525
1070.000000	62.175238
1060.000000	62.099224
1050.000000	62.158462
1040.000000	62.112931
1030.000000	62.017438
1020.000000	61.925814
1010.000000	62.094115
1000.000000	62.179155
990.000000	62.186696
980.000000	62.258591
970.000000	62.328539
960.000000	62.404186
950.000000	62.379327
940.000000	62.440220
930.000000	62.364491
920.000000	62.401470
910.000000	62.493115
900.000000	62.548921
890.000000	62.484499
880.000000	62.281527
870.000000	62.366923
860.000000	62.230215
850.000000	62.906151
840.000000	62.683908
830.000000	62.432522
820.000000	62.464098
810.000000	62.299170
800.000000	62.249675
790.000000	62.070161
780.000000	61.876119
770.000000	61.904510
760.000000	61.629942
750.000000	61.627293
740.000000	61.451404
730.000000	61.129909
720.000000	61.109722
710.000000	60.897973
700.000000	60.532257
690.000000	60.247622
680.000000	59.729284
670.000000	59.349656
660.000000	59.058950
650.000000	58.396878
640.000000	57.712506
630.000000	57.131902
620.000000	56.496445
610.000000	55.880217
600.000000	55.377172
590.000000	54.912166
580.000000	54.400318
570.000000	53.778987
560.000000	53.496078
550.000000	52.998211
540.000000	52.495546
530.000000	52.036397
520.000000	51.608129
510.000000	51.145586
500.000000	50.318140
490.000000	49.413851
480.000000	48.261115
470.000000	46.972036
460.000000	45.276194
450.000000	43.200205
440.000000	40.660615
430.000000	37.522083
420.000000	33.689244
410.000000	31.574764
400.000000	31.572127
390.000000	31.852795
380.000000	31.820028
370.000000	30.984173
360.000000	28.074701
350.000000	26.375205
340.000000	25.113954
330.000000	23.813189
320.000000	22.122552
310.000000	20.350688
300.000000	24.278119
290.000000	14.550688
280.000000	10.983167
270.000000	10.806856
260.000000	10.693891
250.000000	10.042908
