PE UV       SUBTECH     SPECTRUM    ASCII       PEDS        4.00        
   -1
006-1S-XXX-NR004-F001.Sample.asc
24/01/11
10:37:57.00
24/01/11
10:37:57.00
Administrator

250.000000
1
Lambda 750
750N8071901
PerkinElmer UV WinLab 6.0.4.0738 / 1.61.00 Lambda 900

0
0
3350/servo 860.8/2
0
0
UV/VIS
1
1
1
CommonBeamDepol,150mm sphere / downward view
0
0
0
0
Program
Program
3350/servo 860.8/2
3350/0.2 860.8/0.2
3350/0.2 860.8/0.2
0
1
 
 
 
0
 
860.8
319.2
860.8
Front
100
on
 
 
0
0
0
 
0
 
 
 
0
 
 
0
0
0
0
0
 
 
 
 
0
0


0
0
#HDR
-1
-1
#GR
nm
%R
1.0
0.0
2500.000000
-10.000000
226
8
58.312763
10.433392
#DATA
2500.000000	26.981694
2490.000000	26.831560
2480.000000	27.045238
2470.000000	28.315979
2460.000000	31.665812
2450.000000	29.115733
2440.000000	30.642779
2430.000000	32.211739
2420.000000	31.525842
2410.000000	32.444160
2400.000000	32.479162
2390.000000	32.104875
2380.000000	32.361081
2370.000000	32.478587
2360.000000	31.695457
2350.000000	31.695934
2340.000000	32.672561
2330.000000	32.136592
2320.000000	29.565612
2310.000000	29.790770
2300.000000	28.768616
2290.000000	29.706727
2280.000000	30.910646
2270.000000	32.532606
2260.000000	33.700707
2250.000000	35.619560
2240.000000	35.835241
2230.000000	35.615617
2220.000000	34.181147
2210.000000	34.172087
2200.000000	33.504638
2190.000000	33.918766
2180.000000	34.163334
2170.000000	35.761225
2160.000000	36.835740
2150.000000	37.698578
2140.000000	39.324184
2130.000000	39.926806
2120.000000	39.409068
2110.000000	39.629747
2100.000000	39.501418
2090.000000	38.013455
2080.000000	37.017056
2070.000000	35.262125
2060.000000	34.714554
2050.000000	35.199038
2040.000000	36.356918
2030.000000	36.612121
2020.000000	35.751100
2010.000000	34.801321
2000.000000	33.592969
1990.000000	32.609543
1980.000000	31.240158
1970.000000	30.563676
1960.000000	29.775356
1950.000000	31.071187
1940.000000	32.961782
1930.000000	36.506950
1920.000000	40.292929
1910.000000	44.866591
1900.000000	48.016439
1890.000000	49.741202
1880.000000	50.912165
1870.000000	51.322276
1860.000000	51.483233
1850.000000	51.204892
1840.000000	50.767225
1830.000000	50.631019
1820.000000	50.353188
1810.000000	50.419470
1800.000000	50.047812
1790.000000	49.804153
1780.000000	49.479260
1770.000000	48.993098
1760.000000	48.771597
1750.000000	48.569381
1740.000000	48.718656
1730.000000	49.433615
1720.000000	49.689891
1710.000000	49.910167
1700.000000	50.583621
1690.000000	51.585752
1680.000000	52.365486
1670.000000	52.704700
1660.000000	52.701674
1650.000000	52.559884
1640.000000	52.270534
1630.000000	52.077128
1620.000000	51.627105
1610.000000	51.326486
1600.000000	51.017998
1590.000000	50.626554
1580.000000	50.357076
1570.000000	50.294029
1560.000000	49.935274
1550.000000	49.395245
1540.000000	48.895562
1530.000000	48.536184
1520.000000	48.432149
1510.000000	48.408283
1500.000000	48.695547
1490.000000	49.001259
1480.000000	49.347366
1470.000000	49.702383
1460.000000	50.189460
1450.000000	50.754215
1440.000000	51.450681
1430.000000	52.368585
1420.000000	53.500720
1410.000000	54.565660
1400.000000	55.268020
1390.000000	55.708678
1380.000000	55.942325
1370.000000	56.204084
1360.000000	56.635418
1350.000000	57.004127
1340.000000	57.254061
1330.000000	57.147290
1320.000000	57.036246
1310.000000	57.031136
1300.000000	57.105671
1290.000000	57.072710
1280.000000	57.131267
1270.000000	57.131491
1260.000000	57.324238
1250.000000	57.249986
1240.000000	56.998032
1230.000000	56.797373
1220.000000	56.616346
1210.000000	56.590804
1200.000000	56.629655
1190.000000	56.813940
1180.000000	56.970479
1170.000000	57.235771
1160.000000	57.414781
1150.000000	57.670472
1140.000000	57.748894
1130.000000	57.659158
1120.000000	57.681278
1110.000000	57.695391
1100.000000	57.699896
1090.000000	57.699949
1080.000000	57.650892
1070.000000	57.636766
1060.000000	57.586905
1050.000000	57.596516
1040.000000	57.573746
1030.000000	57.451054
1020.000000	57.358882
1010.000000	57.528251
1000.000000	57.584118
990.000000	57.622726
980.000000	57.660175
970.000000	57.686770
960.000000	57.846828
950.000000	57.851184
940.000000	57.979619
930.000000	57.966685
920.000000	58.012109
910.000000	58.019624
900.000000	58.312763
890.000000	58.118687
880.000000	58.276538
870.000000	57.968951
860.000000	58.114518
850.000000	58.052283
840.000000	57.642412
830.000000	57.849452
820.000000	57.993267
810.000000	57.729320
800.000000	58.064395
790.000000	57.917622
780.000000	58.021752
770.000000	58.029395
760.000000	57.747628
750.000000	57.608072
740.000000	57.668011
730.000000	57.594462
720.000000	57.697744
710.000000	57.624699
700.000000	57.457220
690.000000	57.392468
680.000000	57.273653
670.000000	57.152181
660.000000	57.051868
650.000000	56.713167
640.000000	56.407362
630.000000	56.028259
620.000000	55.818526
610.000000	55.511957
600.000000	55.386056
590.000000	55.247748
580.000000	55.095803
570.000000	54.899004
560.000000	54.831061
550.000000	54.643676
540.000000	54.602111
530.000000	54.327249
520.000000	54.124126
510.000000	53.858105
500.000000	53.391401
490.000000	52.854093
480.000000	52.169066
470.000000	51.525584
460.000000	50.577020
450.000000	49.231109
440.000000	47.568189
430.000000	45.390863
420.000000	42.177102
410.000000	39.767096
400.000000	38.793738
390.000000	39.172997
380.000000	39.415362
370.000000	39.385359
360.000000	38.450636
350.000000	37.095504
340.000000	35.820795
330.000000	35.119587
320.000000	32.771151
310.000000	32.163078
300.000000	25.720672
290.000000	16.782847
280.000000	12.190236
270.000000	11.817225
260.000000	11.549932
250.000000	10.433392
