PE UV       SUBTECH     SPECTRUM    ASCII       PEDS        4.00        
   -1
014-3C-XXX-NR003-C001.Sample.asc
24/01/09
15:16:34.00
24/01/09
15:16:34.00
Administrator

250.000000
1
Lambda 750
750N8071901
PerkinElmer UV WinLab 6.0.4.0738 / 1.61.00 Lambda 900

0
0
3350/servo 860.8/2
0
0
UV/VIS
1
1
1
CommonBeamDepol,150mm sphere / downward view
0
0
0
0
Program
Program
3350/servo 860.8/2
3350/0.2 860.8/0.2
3350/0.2 860.8/0.2
0
1
 
 
 
0
 
860.8
319.2
860.8
Front
100
on
 
 
0
0
0
 
0
 
 
 
0
 
 
0
0
0
0
0
 
 
 
 
0
0


0
0
#HDR
-1
-1
#GR
nm
%R
1.0
0.0
2500.000000
-10.000000
226
8
64.774792
8.578756
#DATA
2500.000000	17.833050
2490.000000	18.968174
2480.000000	18.775702
2470.000000	20.281219
2460.000000	22.935098
2450.000000	21.898330
2440.000000	23.422064
2430.000000	23.322828
2420.000000	22.840070
2410.000000	26.100444
2400.000000	21.920265
2390.000000	24.220358
2380.000000	22.659068
2370.000000	24.161079
2360.000000	23.042067
2350.000000	23.019508
2340.000000	24.885732
2330.000000	23.403381
2320.000000	22.747340
2310.000000	21.647990
2300.000000	21.145921
2290.000000	23.228855
2280.000000	22.167493
2270.000000	26.334756
2260.000000	26.435108
2250.000000	28.019031
2240.000000	28.010617
2230.000000	27.704501
2220.000000	27.262869
2210.000000	25.531074
2200.000000	25.538490
2190.000000	25.176425
2180.000000	26.602506
2170.000000	27.041053
2160.000000	29.134945
2150.000000	30.432911
2140.000000	30.883693
2130.000000	30.747126
2120.000000	31.916513
2110.000000	31.708652
2100.000000	31.456402
2090.000000	30.119849
2080.000000	28.784947
2070.000000	27.241422
2060.000000	26.622711
2050.000000	26.982932
2040.000000	28.013070
2030.000000	28.187910
2020.000000	27.581781
2010.000000	26.321000
2000.000000	25.491189
1990.000000	24.211586
1980.000000	23.129337
1970.000000	22.211573
1960.000000	21.700629
1950.000000	22.149213
1940.000000	24.323089
1930.000000	27.846212
1920.000000	32.658165
1910.000000	38.047933
1900.000000	42.950274
1890.000000	46.539816
1880.000000	48.651863
1870.000000	49.316027
1860.000000	49.514802
1850.000000	49.063202
1840.000000	48.701034
1830.000000	48.355435
1820.000000	47.945654
1810.000000	47.505537
1800.000000	47.088389
1790.000000	46.614438
1780.000000	46.108481
1770.000000	45.564010
1760.000000	45.106895
1750.000000	44.555714
1740.000000	44.975323
1730.000000	46.171232
1720.000000	46.688886
1710.000000	46.975163
1700.000000	48.168632
1690.000000	50.035647
1680.000000	51.719448
1670.000000	52.301482
1660.000000	52.492482
1650.000000	52.037334
1640.000000	51.565768
1630.000000	50.968605
1620.000000	50.097809
1610.000000	49.323507
1600.000000	48.694098
1590.000000	48.114879
1580.000000	47.669052
1570.000000	47.267314
1560.000000	46.790850
1550.000000	45.823138
1540.000000	44.897174
1530.000000	44.336793
1520.000000	43.978656
1510.000000	43.897277
1500.000000	44.194955
1490.000000	44.612041
1480.000000	45.134235
1470.000000	45.707797
1460.000000	46.492431
1450.000000	47.644163
1440.000000	49.009676
1430.000000	51.090843
1420.000000	53.524312
1410.000000	55.869530
1400.000000	57.736825
1390.000000	58.781775
1380.000000	59.358516
1370.000000	60.087659
1360.000000	60.953503
1350.000000	61.749913
1340.000000	62.118517
1330.000000	62.254384
1320.000000	62.165247
1310.000000	62.147224
1300.000000	62.141029
1290.000000	62.123955
1280.000000	62.212990
1270.000000	62.310315
1260.000000	62.329414
1250.000000	62.199657
1240.000000	61.812007
1230.000000	61.554990
1220.000000	61.188572
1210.000000	60.832271
1200.000000	60.786665
1190.000000	61.137988
1180.000000	61.757923
1170.000000	62.487857
1160.000000	63.109716
1150.000000	63.607492
1140.000000	63.868860
1130.000000	64.027740
1120.000000	64.003487
1110.000000	63.986776
1100.000000	63.943501
1090.000000	63.922243
1080.000000	63.884743
1070.000000	63.767168
1060.000000	63.765074
1050.000000	63.709941
1040.000000	63.681169
1030.000000	63.623401
1020.000000	63.606952
1010.000000	63.754472
1000.000000	63.842527
990.000000	63.902170
980.000000	64.022735
970.000000	64.126398
960.000000	64.256656
950.000000	64.306663
940.000000	64.303397
930.000000	64.291948
920.000000	64.408494
910.000000	64.342161
900.000000	64.671519
890.000000	64.388696
880.000000	64.746178
870.000000	64.774792
860.000000	64.539974
850.000000	63.927001
840.000000	64.551620
830.000000	64.154261
820.000000	64.431459
810.000000	64.380996
800.000000	64.248900
790.000000	64.465863
780.000000	64.391158
770.000000	64.546092
760.000000	64.305364
750.000000	64.257640
740.000000	64.438271
730.000000	64.252333
720.000000	64.279967
710.000000	64.368838
700.000000	64.273277
690.000000	64.403216
680.000000	64.220688
670.000000	64.270872
660.000000	64.221424
650.000000	64.215774
640.000000	64.160744
630.000000	64.064960
620.000000	63.973322
610.000000	63.843058
600.000000	63.818651
590.000000	63.686079
580.000000	63.433977
570.000000	63.350251
560.000000	63.131830
550.000000	62.902839
540.000000	62.592425
530.000000	62.264752
520.000000	61.867748
510.000000	61.532642
500.000000	61.008216
490.000000	60.388803
480.000000	59.743508
470.000000	59.065257
460.000000	58.333647
450.000000	57.146270
440.000000	55.863194
430.000000	54.494902
420.000000	53.025889
410.000000	51.246435
400.000000	49.273544
390.000000	47.157334
380.000000	44.721613
370.000000	42.240886
360.000000	39.530133
350.000000	36.548755
340.000000	33.803261
330.000000	30.944341
320.000000	28.176664
310.000000	23.212735
300.000000	19.139659
290.000000	12.031058
280.000000	8.616810
270.000000	8.578756
260.000000	9.241917
250.000000	9.662538
