PE UV       SUBTECH     SPECTRUM    ASCII       PEDS        4.00        
   -1
TTgChevreUK 62.Sample.asc
18/03/06
18:18:22.00
18/03/06
18:18:22.00
Administrator

200.000000
1
Lambda 750
750N8071901
PerkinElmer UV WinLab 6.0.4.0738 / 1.61.00 Lambda 900

0
0
3350/servo 860.8/2
0
0
UV/VIS
1
1
1
CommonBeamDepol,150mm sphere / downward view
0
0
0
0
Program
Program
3350/servo 860.8/2
3350/0.2 860.8/0.2
3350/0.2 860.8/0.2
0
1
 
 
 
0
 
860.8
319.2
860.8
Front
100
on
 
 
0
0
0
 
0
 
 
 
0
 
 
0
0
0
0
0
 
 
 
 
0
0


0
0
#HDR
-1
-1
#GR
nm
%T
1.0
0.0
2350.000000
-1.000000
2151
8
41.602175
0.086197
#DATA
2350.000000	11.002100
2349.000000	11.000535
2348.000000	10.665176
2347.000000	11.238384
2346.000000	11.002105
2345.000000	10.954395
2344.000000	11.006936
2343.000000	11.200250
2342.000000	11.130124
2341.000000	11.314401
2340.000000	11.333349
2339.000000	11.751415
2338.000000	11.705048
2337.000000	11.380133
2336.000000	11.838706
2335.000000	11.979940
2334.000000	12.106752
2333.000000	12.048795
2332.000000	12.023193
2331.000000	11.896750
2330.000000	11.822605
2329.000000	11.892439
2328.000000	11.802467
2327.000000	11.805520
2326.000000	11.772586
2325.000000	11.882056
2324.000000	11.748410
2323.000000	11.622725
2322.000000	11.531803
2321.000000	11.488128
2320.000000	11.389312
2319.000000	11.245792
2318.000000	11.449433
2317.000000	11.276052
2316.000000	11.422647
2315.000000	11.293670
2314.000000	11.306773
2313.000000	11.287633
2312.000000	10.975146
2311.000000	11.141101
2310.000000	10.985411
2309.000000	10.938095
2308.000000	10.995668
2307.000000	10.830804
2306.000000	10.847328
2305.000000	10.682827
2304.000000	10.749992
2303.000000	10.861733
2302.000000	10.883367
2301.000000	10.711631
2300.000000	10.674313
2299.000000	10.494944
2298.000000	10.339227
2297.000000	10.190668
2296.000000	10.157266
2295.000000	10.057258
2294.000000	10.127518
2293.000000	10.072869
2292.000000	10.172785
2291.000000	10.006417
2290.000000	9.927891
2289.000000	10.067329
2288.000000	10.234158
2287.000000	10.176590
2286.000000	9.997876
2285.000000	9.692670
2284.000000	9.573765
2283.000000	9.630674
2282.000000	9.657853
2281.000000	9.845615
2280.000000	9.932361
2279.000000	9.801251
2278.000000	9.782857
2277.000000	9.818934
2276.000000	9.740446
2275.000000	9.837353
2274.000000	10.039261
2273.000000	10.127552
2272.000000	10.267627
2271.000000	10.152269
2270.000000	10.043910
2269.000000	10.134406
2268.000000	10.133392
2267.000000	10.176693
2266.000000	10.447052
2265.000000	10.519130
2264.000000	10.556508
2263.000000	10.614695
2262.000000	10.668917
2261.000000	10.783172
2260.000000	10.965970
2259.000000	11.142423
2258.000000	11.323780
2257.000000	11.407804
2256.000000	11.396466
2255.000000	11.480173
2254.000000	11.638541
2253.000000	11.774266
2252.000000	11.945043
2251.000000	12.161321
2250.000000	12.313395
2249.000000	12.495634
2248.000000	12.611613
2247.000000	12.772106
2246.000000	12.972137
2245.000000	13.072195
2244.000000	13.146809
2243.000000	13.260723
2242.000000	13.424330
2241.000000	13.590628
2240.000000	13.710577
2239.000000	13.848250
2238.000000	13.884584
2237.000000	13.948521
2236.000000	14.023651
2235.000000	14.084637
2234.000000	14.141347
2233.000000	14.189441
2232.000000	14.290011
2231.000000	14.303918
2230.000000	14.366891
2229.000000	14.456214
2228.000000	14.481023
2227.000000	14.401927
2226.000000	14.275177
2225.000000	14.263753
2224.000000	14.329506
2223.000000	14.322381
2222.000000	14.293933
2221.000000	14.361601
2220.000000	14.432164
2219.000000	14.281678
2218.000000	14.139494
2217.000000	14.200312
2216.000000	14.256573
2215.000000	14.169193
2214.000000	14.102860
2213.000000	14.153373
2212.000000	14.182333
2211.000000	14.008722
2210.000000	13.869960
2209.000000	13.898449
2208.000000	13.722699
2207.000000	13.722707
2206.000000	13.735034
2205.000000	13.725516
2204.000000	13.624133
2203.000000	13.574779
2202.000000	13.540194
2201.000000	13.404583
2200.000000	13.331694
2199.000000	13.325860
2198.000000	13.313171
2197.000000	13.196603
2196.000000	13.070512
2195.000000	13.025436
2194.000000	12.946204
2193.000000	12.862843
2192.000000	12.902641
2191.000000	12.977748
2190.000000	12.883884
2189.000000	12.855514
2188.000000	12.714235
2187.000000	12.625150
2186.000000	12.549898
2185.000000	12.491439
2184.000000	12.409253
2183.000000	12.390349
2182.000000	12.322213
2181.000000	12.315704
2180.000000	12.366833
2179.000000	12.232438
2178.000000	12.329270
2177.000000	12.507493
2176.000000	12.362749
2175.000000	12.508271
2174.000000	12.482437
2173.000000	12.425241
2172.000000	12.421393
2171.000000	12.280287
2170.000000	12.408348
2169.000000	12.563475
2168.000000	12.482788
2167.000000	12.631042
2166.000000	12.815147
2165.000000	12.819087
2164.000000	12.676319
2163.000000	12.798576
2162.000000	12.838475
2161.000000	13.113540
2160.000000	13.076398
2159.000000	13.296944
2158.000000	13.200745
2157.000000	13.396110
2156.000000	13.596593
2155.000000	13.646736
2154.000000	13.843938
2153.000000	13.960220
2152.000000	13.972467
2151.000000	14.064627
2150.000000	14.173869
2149.000000	14.315523
2148.000000	14.286664
2147.000000	14.448971
2146.000000	14.524980
2145.000000	14.631968
2144.000000	14.785300
2143.000000	14.874483
2142.000000	15.012838
2141.000000	15.073205
2140.000000	15.083149
2139.000000	15.396349
2138.000000	15.413352
2137.000000	15.468428
2136.000000	15.707319
2135.000000	15.759947
2134.000000	15.800482
2133.000000	15.641010
2132.000000	15.685244
2131.000000	15.884057
2130.000000	16.156755
2129.000000	15.981106
2128.000000	16.133090
2127.000000	16.099299
2126.000000	16.192841
2125.000000	16.203349
2124.000000	16.329504
2123.000000	16.393975
2122.000000	16.379801
2121.000000	16.287052
2120.000000	16.478730
2119.000000	16.470837
2118.000000	16.523599
2117.000000	16.508083
2116.000000	16.550292
2115.000000	16.721176
2114.000000	16.636874
2113.000000	16.619557
2112.000000	16.467803
2111.000000	16.517604
2110.000000	16.641459
2109.000000	16.614513
2108.000000	16.554059
2107.000000	16.713532
2106.000000	16.704142
2105.000000	16.727123
2104.000000	16.685308
2103.000000	16.699558
2102.000000	16.720264
2101.000000	16.820495
2100.000000	16.735326
2099.000000	16.747747
2098.000000	16.818206
2097.000000	16.813761
2096.000000	16.763788
2095.000000	16.729602
2094.000000	16.693269
2093.000000	16.707867
2092.000000	16.751652
2091.000000	16.752507
2090.000000	16.805889
2089.000000	16.650894
2088.000000	16.745201
2087.000000	16.670669
2086.000000	16.650928
2085.000000	16.581411
2084.000000	16.517286
2083.000000	16.523339
2082.000000	16.459297
2081.000000	16.414509
2080.000000	16.220663
2079.000000	16.207737
2078.000000	16.154114
2077.000000	16.125250
2076.000000	15.991789
2075.000000	15.893247
2074.000000	15.800300
2073.000000	15.724614
2072.000000	15.628000
2071.000000	15.585966
2070.000000	15.534158
2069.000000	15.427403
2068.000000	15.261428
2067.000000	15.162788
2066.000000	15.028685
2065.000000	14.902122
2064.000000	14.838239
2063.000000	14.684249
2062.000000	14.540577
2061.000000	14.430802
2060.000000	14.322039
2059.000000	14.220729
2058.000000	14.081232
2057.000000	13.931714
2056.000000	13.882225
2055.000000	13.814925
2054.000000	13.636685
2053.000000	13.488945
2052.000000	13.420519
2051.000000	13.350876
2050.000000	13.255117
2049.000000	13.149285
2048.000000	13.076224
2047.000000	13.074772
2046.000000	13.077147
2045.000000	13.026226
2044.000000	13.031076
2043.000000	13.030526
2042.000000	12.986548
2041.000000	13.000719
2040.000000	12.985743
2039.000000	12.995078
2038.000000	13.051239
2037.000000	13.091383
2036.000000	13.133165
2035.000000	13.200276
2034.000000	13.248053
2033.000000	13.345125
2032.000000	13.493667
2031.000000	13.576468
2030.000000	13.639500
2029.000000	13.710608
2028.000000	13.808976
2027.000000	13.903684
2026.000000	13.978120
2025.000000	13.991821
2024.000000	14.023411
2023.000000	14.100256
2022.000000	14.162016
2021.000000	14.247352
2020.000000	14.286337
2019.000000	14.293956
2018.000000	14.351474
2017.000000	14.367658
2016.000000	14.373655
2015.000000	14.362081
2014.000000	14.366951
2013.000000	14.318126
2012.000000	14.313357
2011.000000	14.317162
2010.000000	14.254954
2009.000000	14.186236
2008.000000	14.115435
2007.000000	14.078427
2006.000000	14.034235
2005.000000	13.954552
2004.000000	13.860719
2003.000000	13.827900
2002.000000	13.796911
2001.000000	13.704361
2000.000000	13.626751
1999.000000	13.533401
1998.000000	13.436013
1997.000000	13.352778
1996.000000	13.307871
1995.000000	13.226769
1994.000000	13.122296
1993.000000	13.055048
1992.000000	12.977315
1991.000000	12.890227
1990.000000	12.819372
1989.000000	12.734800
1988.000000	12.659392
1987.000000	12.573393
1986.000000	12.452101
1985.000000	12.401699
1984.000000	12.354354
1983.000000	12.264734
1982.000000	12.189599
1981.000000	12.116391
1980.000000	12.005011
1979.000000	11.936275
1978.000000	11.855720
1977.000000	11.783287
1976.000000	11.731453
1975.000000	11.698498
1974.000000	11.608489
1973.000000	11.563831
1972.000000	11.464796
1971.000000	11.405237
1970.000000	11.321052
1969.000000	11.268493
1968.000000	11.234450
1967.000000	11.170932
1966.000000	11.132401
1965.000000	11.034442
1964.000000	10.965805
1963.000000	10.911606
1962.000000	10.851014
1961.000000	10.772443
1960.000000	10.733206
1959.000000	10.678251
1958.000000	10.636796
1957.000000	10.596217
1956.000000	10.500242
1955.000000	10.485137
1954.000000	10.477628
1953.000000	10.413859
1952.000000	10.463810
1951.000000	10.421440
1950.000000	10.341843
1949.000000	10.290034
1948.000000	10.245544
1947.000000	10.240045
1946.000000	10.225620
1945.000000	10.266494
1944.000000	10.266327
1943.000000	10.312865
1942.000000	10.360554
1941.000000	10.312869
1940.000000	10.391706
1939.000000	10.490042
1938.000000	10.466917
1937.000000	10.600971
1936.000000	10.634192
1935.000000	10.677224
1934.000000	10.730370
1933.000000	10.896579
1932.000000	10.983087
1931.000000	11.088903
1930.000000	11.237918
1929.000000	11.257130
1928.000000	11.441271
1927.000000	11.637166
1926.000000	11.688838
1925.000000	11.926942
1924.000000	12.164067
1923.000000	12.290505
1922.000000	12.537907
1921.000000	12.685047
1920.000000	12.887659
1919.000000	13.108002
1918.000000	13.377708
1917.000000	13.615948
1916.000000	13.818624
1915.000000	14.099848
1914.000000	14.436749
1913.000000	14.762241
1912.000000	15.082214
1911.000000	15.320978
1910.000000	15.670667
1909.000000	15.993393
1908.000000	16.273547
1907.000000	16.750275
1906.000000	17.035664
1905.000000	17.431986
1904.000000	17.846105
1903.000000	18.279765
1902.000000	18.633847
1901.000000	19.059310
1900.000000	19.447667
1899.000000	19.945269
1898.000000	20.399480
1897.000000	20.800594
1896.000000	21.232295
1895.000000	21.661688
1894.000000	22.068412
1893.000000	22.529846
1892.000000	22.937729
1891.000000	23.339270
1890.000000	23.743569
1889.000000	24.139739
1888.000000	24.517666
1887.000000	24.908469
1886.000000	25.296280
1885.000000	25.664092
1884.000000	25.990059
1883.000000	26.377699
1882.000000	26.674775
1881.000000	27.059734
1880.000000	27.351974
1879.000000	27.634447
1878.000000	27.925726
1877.000000	28.177387
1876.000000	28.458963
1875.000000	28.759171
1874.000000	28.986703
1873.000000	29.169363
1872.000000	29.363002
1871.000000	29.560217
1870.000000	29.759426
1869.000000	29.899985
1868.000000	30.019097
1867.000000	30.109764
1866.000000	30.222926
1865.000000	30.323560
1864.000000	30.425468
1863.000000	30.536324
1862.000000	30.619423
1861.000000	30.639671
1860.000000	30.707952
1859.000000	30.736264
1858.000000	30.775058
1857.000000	30.803184
1856.000000	30.839111
1855.000000	30.874870
1854.000000	30.924927
1853.000000	30.952314
1852.000000	30.938424
1851.000000	30.939230
1850.000000	30.934140
1849.000000	30.950528
1848.000000	30.969119
1847.000000	30.954091
1846.000000	30.932892
1845.000000	30.937790
1844.000000	30.896288
1843.000000	30.838568
1842.000000	30.822292
1841.000000	30.774159
1840.000000	30.748222
1839.000000	30.726937
1838.000000	30.696901
1837.000000	30.648859
1836.000000	30.601517
1835.000000	30.532737
1834.000000	30.470826
1833.000000	30.420181
1832.000000	30.378292
1831.000000	30.333957
1830.000000	30.309547
1829.000000	30.240697
1828.000000	30.169366
1827.000000	30.138536
1826.000000	30.084296
1825.000000	30.041337
1824.000000	30.019521
1823.000000	29.974261
1822.000000	29.931949
1821.000000	29.876609
1820.000000	29.838416
1819.000000	29.817373
1818.000000	29.773522
1817.000000	29.730689
1816.000000	29.678546
1815.000000	29.649057
1814.000000	29.605350
1813.000000	29.559562
1812.000000	29.527241
1811.000000	29.501953
1810.000000	29.462812
1809.000000	29.422032
1808.000000	29.382278
1807.000000	29.357057
1806.000000	29.327293
1805.000000	29.285474
1804.000000	29.260639
1803.000000	29.232358
1802.000000	29.192440
1801.000000	29.151078
1800.000000	29.122894
1799.000000	29.092228
1798.000000	29.062604
1797.000000	29.042071
1796.000000	29.014212
1795.000000	28.980859
1794.000000	28.963364
1793.000000	28.944519
1792.000000	28.924319
1791.000000	28.896902
1790.000000	28.876687
1789.000000	28.870176
1788.000000	28.839665
1787.000000	28.812195
1786.000000	28.790724
1785.000000	28.771518
1784.000000	28.732318
1783.000000	28.716294
1782.000000	28.682919
1781.000000	28.627819
1780.000000	28.584548
1779.000000	28.565628
1778.000000	28.517059
1777.000000	28.452526
1776.000000	28.395954
1775.000000	28.361317
1774.000000	28.292240
1773.000000	28.242854
1772.000000	28.189289
1771.000000	28.120702
1770.000000	28.074288
1769.000000	28.001466
1768.000000	27.944837
1767.000000	27.894073
1766.000000	27.838725
1765.000000	27.768359
1764.000000	27.687352
1763.000000	27.631830
1762.000000	27.574844
1761.000000	27.541738
1760.000000	27.468237
1759.000000	27.403485
1758.000000	27.354693
1757.000000	27.313925
1756.000000	27.277488
1755.000000	27.216026
1754.000000	27.125995
1753.000000	27.066238
1752.000000	27.013985
1751.000000	26.972067
1750.000000	26.915968
1749.000000	26.856818
1748.000000	26.794498
1747.000000	26.736891
1746.000000	26.678086
1745.000000	26.589801
1744.000000	26.527176
1743.000000	26.478277
1742.000000	26.400520
1741.000000	26.350033
1740.000000	26.273774
1739.000000	26.208989
1738.000000	26.165892
1737.000000	26.121560
1736.000000	26.080914
1735.000000	26.046032
1734.000000	26.051193
1733.000000	26.030803
1732.000000	26.027570
1731.000000	26.013887
1730.000000	26.022556
1729.000000	26.045274
1728.000000	26.077093
1727.000000	26.119723
1726.000000	26.146994
1725.000000	26.232828
1724.000000	26.280399
1723.000000	26.352288
1722.000000	26.449084
1721.000000	26.533785
1720.000000	26.647836
1719.000000	26.733831
1718.000000	26.814964
1717.000000	26.911431
1716.000000	27.002246
1715.000000	27.087269
1714.000000	27.178948
1713.000000	27.272534
1712.000000	27.352247
1711.000000	27.439008
1710.000000	27.469606
1709.000000	27.529660
1708.000000	27.574251
1707.000000	27.626662
1706.000000	27.652885
1705.000000	27.698176
1704.000000	27.762257
1703.000000	27.762825
1702.000000	27.783178
1701.000000	27.812535
1700.000000	27.807621
1699.000000	27.807042
1698.000000	27.866301
1697.000000	27.909531
1696.000000	27.955541
1695.000000	27.997541
1694.000000	28.027324
1693.000000	28.096031
1692.000000	28.145195
1691.000000	28.213507
1690.000000	28.288373
1689.000000	28.389652
1688.000000	28.493182
1687.000000	28.599348
1686.000000	28.728124
1685.000000	28.876148
1684.000000	29.013151
1683.000000	29.154414
1682.000000	29.330849
1681.000000	29.476555
1680.000000	29.648146
1679.000000	29.826603
1678.000000	30.018562
1677.000000	30.181024
1676.000000	30.346486
1675.000000	30.523350
1674.000000	30.714784
1673.000000	30.889750
1672.000000	31.038421
1671.000000	31.199683
1670.000000	31.376882
1669.000000	31.542569
1668.000000	31.668622
1667.000000	31.818039
1666.000000	31.898386
1665.000000	31.984036
1664.000000	32.088904
1663.000000	32.189866
1662.000000	32.282169
1661.000000	32.347886
1660.000000	32.421054
1659.000000	32.495989
1658.000000	32.542985
1657.000000	32.599532
1656.000000	32.629924
1655.000000	32.661691
1654.000000	32.668875
1653.000000	32.684585
1652.000000	32.711848
1651.000000	32.724655
1650.000000	32.707794
1649.000000	32.717225
1648.000000	32.703572
1647.000000	32.693140
1646.000000	32.672303
1645.000000	32.651097
1644.000000	32.631432
1643.000000	32.599374
1642.000000	32.572558
1641.000000	32.552721
1640.000000	32.526160
1639.000000	32.500986
1638.000000	32.469646
1637.000000	32.434419
1636.000000	32.380745
1635.000000	32.340809
1634.000000	32.279718
1633.000000	32.248486
1632.000000	32.196307
1631.000000	32.153528
1630.000000	32.112015
1629.000000	32.066266
1628.000000	32.006352
1627.000000	31.973874
1626.000000	31.925388
1625.000000	31.873393
1624.000000	31.824413
1623.000000	31.778184
1622.000000	31.713559
1621.000000	31.658910
1620.000000	31.626690
1619.000000	31.574880
1618.000000	31.507955
1617.000000	31.457327
1616.000000	31.391933
1615.000000	31.330809
1614.000000	31.269206
1613.000000	31.201783
1612.000000	31.146690
1611.000000	31.087722
1610.000000	31.025888
1609.000000	30.956668
1608.000000	30.887380
1607.000000	30.824719
1606.000000	30.763575
1605.000000	30.687668
1604.000000	30.615704
1603.000000	30.557713
1602.000000	30.487801
1601.000000	30.417751
1600.000000	30.355673
1599.000000	30.286247
1598.000000	30.228283
1597.000000	30.164487
1596.000000	30.099399
1595.000000	30.038669
1594.000000	29.983665
1593.000000	29.936441
1592.000000	29.881753
1591.000000	29.816419
1590.000000	29.750024
1589.000000	29.698810
1588.000000	29.646975
1587.000000	29.590088
1586.000000	29.548732
1585.000000	29.503799
1584.000000	29.447764
1583.000000	29.389782
1582.000000	29.343937
1581.000000	29.298383
1580.000000	29.248285
1579.000000	29.197438
1578.000000	29.149883
1577.000000	29.105241
1576.000000	29.048729
1575.000000	28.999640
1574.000000	28.935149
1573.000000	28.876874
1572.000000	28.848468
1571.000000	28.803565
1570.000000	28.763571
1569.000000	28.711727
1568.000000	28.662355
1567.000000	28.615872
1566.000000	28.582001
1565.000000	28.549212
1564.000000	28.521099
1563.000000	28.476885
1562.000000	28.446147
1561.000000	28.414021
1560.000000	28.381386
1559.000000	28.347439
1558.000000	28.317488
1557.000000	28.300674
1556.000000	28.272063
1555.000000	28.231413
1554.000000	28.208445
1553.000000	28.176574
1552.000000	28.130960
1551.000000	28.091014
1550.000000	28.049780
1549.000000	27.994904
1548.000000	27.960795
1547.000000	27.901313
1546.000000	27.847224
1545.000000	27.780211
1544.000000	27.693668
1543.000000	27.630113
1542.000000	27.551367
1541.000000	27.455758
1540.000000	27.382954
1539.000000	27.303751
1538.000000	27.231366
1537.000000	27.132100
1536.000000	27.039803
1535.000000	26.955682
1534.000000	26.860802
1533.000000	26.761160
1532.000000	26.671741
1531.000000	26.591487
1530.000000	26.527206
1529.000000	26.480156
1528.000000	26.467813
1527.000000	26.410668
1526.000000	26.327275
1525.000000	26.223248
1524.000000	26.148514
1523.000000	26.088080
1522.000000	26.028472
1521.000000	25.963457
1520.000000	25.901758
1519.000000	25.855445
1518.000000	25.827647
1517.000000	25.762546
1516.000000	25.730249
1515.000000	25.706060
1514.000000	25.666565
1513.000000	25.616046
1512.000000	25.579314
1511.000000	25.531751
1510.000000	25.533879
1509.000000	25.510789
1508.000000	25.477346
1507.000000	25.443730
1506.000000	25.415802
1505.000000	25.391483
1504.000000	25.364902
1503.000000	25.347372
1502.000000	25.331009
1501.000000	25.314158
1500.000000	25.309269
1499.000000	25.304941
1498.000000	25.348508
1497.000000	25.357229
1496.000000	25.369701
1495.000000	25.361361
1494.000000	25.377950
1493.000000	25.384987
1492.000000	25.388889
1491.000000	25.419393
1490.000000	25.454881
1489.000000	25.474495
1488.000000	25.512534
1487.000000	25.566325
1486.000000	25.565765
1485.000000	25.589812
1484.000000	25.657255
1483.000000	25.713174
1482.000000	25.754860
1481.000000	25.828295
1480.000000	25.883031
1479.000000	25.926695
1478.000000	25.976267
1477.000000	26.047830
1476.000000	26.077858
1475.000000	26.128614
1474.000000	26.174273
1473.000000	26.219747
1472.000000	26.249751
1471.000000	26.292184
1470.000000	26.343841
1469.000000	26.384652
1468.000000	26.448179
1467.000000	26.501884
1466.000000	26.527566
1465.000000	26.563970
1464.000000	26.610921
1463.000000	26.657086
1462.000000	26.713285
1461.000000	26.738053
1460.000000	26.770751
1459.000000	26.816658
1458.000000	26.875080
1457.000000	26.923786
1456.000000	26.984355
1455.000000	27.005137
1454.000000	27.069516
1453.000000	27.138559
1452.000000	27.191591
1451.000000	27.235151
1450.000000	27.277080
1449.000000	27.346468
1448.000000	27.420540
1447.000000	27.510923
1446.000000	27.593686
1445.000000	27.639455
1444.000000	27.707463
1443.000000	27.771575
1442.000000	27.843702
1441.000000	27.936567
1440.000000	28.021871
1439.000000	28.125503
1438.000000	28.211612
1437.000000	28.291610
1436.000000	28.386042
1435.000000	28.467307
1434.000000	28.586490
1433.000000	28.679359
1432.000000	28.787039
1431.000000	28.891346
1430.000000	29.022155
1429.000000	29.149840
1428.000000	29.282794
1427.000000	29.396065
1426.000000	29.538644
1425.000000	29.684327
1424.000000	29.830408
1423.000000	29.984432
1422.000000	30.140750
1421.000000	30.300773
1420.000000	30.453742
1419.000000	30.616285
1418.000000	30.814682
1417.000000	31.006184
1416.000000	31.172831
1415.000000	31.356397
1414.000000	31.554237
1413.000000	31.745280
1412.000000	31.928785
1411.000000	32.129630
1410.000000	32.337373
1409.000000	32.542479
1408.000000	32.730041
1407.000000	32.926599
1406.000000	33.135015
1405.000000	33.346085
1404.000000	33.535752
1403.000000	33.705851
1402.000000	33.895154
1401.000000	34.084007
1400.000000	34.255114
1399.000000	34.446728
1398.000000	34.634259
1397.000000	34.804509
1396.000000	34.970432
1395.000000	35.125391
1394.000000	35.282313
1393.000000	35.455459
1392.000000	35.608606
1391.000000	35.748814
1390.000000	35.893217
1389.000000	36.043340
1388.000000	36.179469
1387.000000	36.308602
1386.000000	36.449254
1385.000000	36.577188
1384.000000	36.685646
1383.000000	36.785826
1382.000000	36.881482
1381.000000	36.983008
1380.000000	37.073984
1379.000000	37.157995
1378.000000	37.251801
1377.000000	37.315030
1376.000000	37.376399
1375.000000	37.448130
1374.000000	37.502267
1373.000000	37.553337
1372.000000	37.602690
1371.000000	37.649243
1370.000000	37.709331
1369.000000	37.772053
1368.000000	37.845855
1367.000000	37.924055
1366.000000	37.972453
1365.000000	38.023473
1364.000000	38.082867
1363.000000	38.131832
1362.000000	38.185948
1361.000000	38.242171
1360.000000	38.286032
1359.000000	38.333103
1358.000000	38.402807
1357.000000	38.481838
1356.000000	38.534245
1355.000000	38.592282
1354.000000	38.650637
1353.000000	38.706113
1352.000000	38.775263
1351.000000	38.830332
1350.000000	38.873140
1349.000000	38.915807
1348.000000	38.986840
1347.000000	39.053524
1346.000000	39.106106
1345.000000	39.151100
1344.000000	39.189945
1343.000000	39.248377
1342.000000	39.320150
1341.000000	39.360520
1340.000000	39.410680
1339.000000	39.441598
1338.000000	39.498995
1337.000000	39.568869
1336.000000	39.609995
1335.000000	39.642755
1334.000000	39.678544
1333.000000	39.716606
1332.000000	39.742691
1331.000000	39.782345
1330.000000	39.834162
1329.000000	39.853386
1328.000000	39.882632
1327.000000	39.900051
1326.000000	39.930496
1325.000000	39.962822
1324.000000	39.964323
1323.000000	39.978061
1322.000000	40.022286
1321.000000	40.066119
1320.000000	40.066719
1319.000000	40.076136
1318.000000	40.059941
1317.000000	40.082393
1316.000000	40.114848
1315.000000	40.133254
1314.000000	40.129057
1313.000000	40.134146
1312.000000	40.154668
1311.000000	40.164849
1310.000000	40.157208
1309.000000	40.167102
1308.000000	40.204755
1307.000000	40.196642
1306.000000	40.218899
1305.000000	40.204300
1304.000000	40.216298
1303.000000	40.245724
1302.000000	40.249541
1301.000000	40.244573
1300.000000	40.232137
1299.000000	40.223168
1298.000000	40.238132
1297.000000	40.246839
1296.000000	40.245515
1295.000000	40.234878
1294.000000	40.227069
1293.000000	40.243533
1292.000000	40.234060
1291.000000	40.220705
1290.000000	40.208630
1289.000000	40.210903
1288.000000	40.186555
1287.000000	40.182102
1286.000000	40.177928
1285.000000	40.172772
1284.000000	40.177885
1283.000000	40.129057
1282.000000	40.103751
1281.000000	40.125621
1280.000000	40.116040
1279.000000	40.116996
1278.000000	40.130196
1277.000000	40.130616
1276.000000	40.106426
1275.000000	40.113910
1274.000000	40.114321
1273.000000	40.104371
1272.000000	40.123708
1271.000000	40.117237
1270.000000	40.107616
1269.000000	40.113873
1268.000000	40.121851
1267.000000	40.127993
1266.000000	40.133602
1265.000000	40.123567
1264.000000	40.160940
1263.000000	40.171389
1262.000000	40.150279
1261.000000	40.157993
1260.000000	40.143913
1259.000000	40.166969
1258.000000	40.183261
1257.000000	40.189269
1256.000000	40.185246
1255.000000	40.184315
1254.000000	40.179273
1253.000000	40.178031
1252.000000	40.166951
1251.000000	40.157294
1250.000000	40.158140
1249.000000	40.139792
1248.000000	40.127823
1247.000000	40.143892
1246.000000	40.125738
1245.000000	40.116834
1244.000000	40.096550
1243.000000	40.083821
1242.000000	40.051381
1241.000000	40.048068
1240.000000	40.021328
1239.000000	39.971207
1238.000000	39.941356
1237.000000	39.928512
1236.000000	39.882357
1235.000000	39.850126
1234.000000	39.821045
1233.000000	39.801437
1232.000000	39.744026
1231.000000	39.728942
1230.000000	39.707318
1229.000000	39.681206
1228.000000	39.654266
1227.000000	39.603084
1226.000000	39.584831
1225.000000	39.550581
1224.000000	39.531814
1223.000000	39.520170
1222.000000	39.484912
1221.000000	39.451001
1220.000000	39.430721
1219.000000	39.403219
1218.000000	39.360537
1217.000000	39.324465
1216.000000	39.298691
1215.000000	39.254771
1214.000000	39.219851
1213.000000	39.203585
1212.000000	39.183145
1211.000000	39.115726
1210.000000	39.077880
1209.000000	39.052192
1208.000000	39.018050
1207.000000	38.978111
1206.000000	38.946664
1205.000000	38.919226
1204.000000	38.868549
1203.000000	38.825211
1202.000000	38.798362
1201.000000	38.738548
1200.000000	38.685370
1199.000000	38.650805
1198.000000	38.627913
1197.000000	38.605215
1196.000000	38.563560
1195.000000	38.534040
1194.000000	38.488887
1193.000000	38.459435
1192.000000	38.439176
1191.000000	38.418789
1190.000000	38.389960
1189.000000	38.342397
1188.000000	38.336826
1187.000000	38.346789
1186.000000	38.334228
1185.000000	38.325671
1184.000000	38.333499
1183.000000	38.343424
1182.000000	38.369962
1181.000000	38.393704
1180.000000	38.413067
1179.000000	38.447145
1178.000000	38.487123
1177.000000	38.506566
1176.000000	38.553926
1175.000000	38.614652
1174.000000	38.664829
1173.000000	38.730661
1172.000000	38.793859
1171.000000	38.850448
1170.000000	38.913884
1169.000000	38.975073
1168.000000	39.052549
1167.000000	39.141697
1166.000000	39.219009
1165.000000	39.290486
1164.000000	39.366970
1163.000000	39.444137
1162.000000	39.527164
1161.000000	39.603891
1160.000000	39.680901
1159.000000	39.761725
1158.000000	39.836726
1157.000000	39.902580
1156.000000	39.959206
1155.000000	40.027676
1154.000000	40.095403
1153.000000	40.153829
1152.000000	40.219672
1151.000000	40.274536
1150.000000	40.312080
1149.000000	40.350621
1148.000000	40.399818
1147.000000	40.443916
1146.000000	40.487903
1145.000000	40.542571
1144.000000	40.594728
1143.000000	40.644891
1142.000000	40.682758
1141.000000	40.728190
1140.000000	40.779312
1139.000000	40.822346
1138.000000	40.857219
1137.000000	40.909823
1136.000000	40.958875
1135.000000	40.990332
1134.000000	40.999083
1133.000000	41.021153
1132.000000	41.068327
1131.000000	41.105599
1130.000000	41.141702
1129.000000	41.178747
1128.000000	41.194945
1127.000000	41.233824
1126.000000	41.258082
1125.000000	41.279744
1124.000000	41.291354
1123.000000	41.301182
1122.000000	41.315092
1121.000000	41.326491
1120.000000	41.337708
1119.000000	41.347412
1118.000000	41.348778
1117.000000	41.355037
1116.000000	41.348864
1115.000000	41.352887
1114.000000	41.348071
1113.000000	41.351746
1112.000000	41.353522
1111.000000	41.352360
1110.000000	41.336214
1109.000000	41.330359
1108.000000	41.333691
1107.000000	41.340860
1106.000000	41.335356
1105.000000	41.344832
1104.000000	41.351407
1103.000000	41.352043
1102.000000	41.360297
1101.000000	41.358722
1100.000000	41.364821
1099.000000	41.373188
1098.000000	41.362019
1097.000000	41.331906
1096.000000	41.336433
1095.000000	41.357007
1094.000000	41.341696
1093.000000	41.343505
1092.000000	41.344909
1091.000000	41.337186
1090.000000	41.321286
1089.000000	41.317844
1088.000000	41.316677
1087.000000	41.301804
1086.000000	41.301061
1085.000000	41.314240
1084.000000	41.327015
1083.000000	41.296142
1082.000000	41.281344
1081.000000	41.281397
1080.000000	41.293036
1079.000000	41.265188
1078.000000	41.274811
1077.000000	41.271764
1076.000000	41.246568
1075.000000	41.232024
1074.000000	41.220485
1073.000000	41.226270
1072.000000	41.216151
1071.000000	41.224755
1070.000000	41.227237
1069.000000	41.175998
1068.000000	41.155837
1067.000000	41.174839
1066.000000	41.155276
1065.000000	41.144181
1064.000000	41.150597
1063.000000	41.144798
1062.000000	41.104999
1061.000000	41.095594
1060.000000	41.089083
1059.000000	41.092167
1058.000000	41.081948
1057.000000	41.058572
1056.000000	41.061160
1055.000000	41.043458
1054.000000	41.038427
1053.000000	41.030131
1052.000000	41.030586
1051.000000	41.018994
1050.000000	40.985322
1049.000000	40.958506
1048.000000	40.974750
1047.000000	40.968508
1046.000000	40.963333
1045.000000	40.939782
1044.000000	40.939321
1043.000000	40.939475
1042.000000	40.944882
1041.000000	40.909610
1040.000000	40.895154
1039.000000	40.893802
1038.000000	40.903750
1037.000000	40.901957
1036.000000	40.885937
1035.000000	40.866765
1034.000000	40.876215
1033.000000	40.875598
1032.000000	40.849741
1031.000000	40.843847
1030.000000	40.847473
1029.000000	40.834541
1028.000000	40.832795
1027.000000	40.844896
1026.000000	40.834214
1025.000000	40.831917
1024.000000	40.816691
1023.000000	40.813291
1022.000000	40.837580
1021.000000	40.819043
1020.000000	40.826422
1019.000000	40.830560
1018.000000	40.833212
1017.000000	40.827371
1016.000000	40.820651
1015.000000	40.828292
1014.000000	40.823416
1013.000000	40.821684
1012.000000	40.842299
1011.000000	40.825566
1010.000000	40.847789
1009.000000	40.846083
1008.000000	40.869645
1007.000000	40.851414
1006.000000	40.835561
1005.000000	40.848992
1004.000000	40.884154
1003.000000	40.899753
1002.000000	40.897696
1001.000000	40.892533
1000.000000	40.872174
999.000000	40.893616
998.000000	40.915454
997.000000	40.927712
996.000000	40.904736
995.000000	40.899387
994.000000	40.918367
993.000000	40.943101
992.000000	40.946813
991.000000	40.940845
990.000000	40.936351
989.000000	40.947592
988.000000	40.942892
987.000000	40.951667
986.000000	40.954914
985.000000	40.973670
984.000000	40.982115
983.000000	40.994565
982.000000	41.009910
981.000000	41.036207
980.000000	41.050268
979.000000	41.058023
978.000000	41.069990
977.000000	41.077020
976.000000	41.084426
975.000000	41.085247
974.000000	41.090837
973.000000	41.099943
972.000000	41.121031
971.000000	41.124149
970.000000	41.130127
969.000000	41.145183
968.000000	41.148868
967.000000	41.144299
966.000000	41.155146
965.000000	41.162650
964.000000	41.168082
963.000000	41.175152
962.000000	41.178183
961.000000	41.182033
960.000000	41.186580
959.000000	41.197747
958.000000	41.208376
957.000000	41.208197
956.000000	41.201038
955.000000	41.206067
954.000000	41.227067
953.000000	41.240263
952.000000	41.229995
951.000000	41.223827
950.000000	41.243096
949.000000	41.246587
948.000000	41.240275
947.000000	41.246176
946.000000	41.255759
945.000000	41.242948
944.000000	41.251260
943.000000	41.260024
942.000000	41.237062
941.000000	41.233946
940.000000	41.252501
939.000000	41.244502
938.000000	41.229023
937.000000	41.217235
936.000000	41.241167
935.000000	41.242628
934.000000	41.212301
933.000000	41.224489
932.000000	41.215903
931.000000	41.204512
930.000000	41.196096
929.000000	41.192756
928.000000	41.197751
927.000000	41.183266
926.000000	41.173623
925.000000	41.179740
924.000000	41.167727
923.000000	41.159546
922.000000	41.141636
921.000000	41.148272
920.000000	41.153708
919.000000	41.117841
918.000000	41.108849
917.000000	41.121076
916.000000	41.137885
915.000000	41.140883
914.000000	41.129980
913.000000	41.122454
912.000000	41.120294
911.000000	41.119288
910.000000	41.120159
909.000000	41.086146
908.000000	41.097689
907.000000	41.101700
906.000000	41.100789
905.000000	41.092251
904.000000	41.082499
903.000000	41.113485
902.000000	41.115828
901.000000	41.131947
900.000000	41.091796
899.000000	41.111887
898.000000	41.136142
897.000000	41.159355
896.000000	41.126333
895.000000	41.160022
894.000000	41.152809
893.000000	41.147823
892.000000	41.131259
891.000000	41.214435
890.000000	41.245365
889.000000	41.189869
888.000000	41.170369
887.000000	41.158073
886.000000	41.169460
885.000000	41.188568
884.000000	41.230935
883.000000	41.209450
882.000000	41.202385
881.000000	41.174022
880.000000	41.123793
879.000000	41.187561
878.000000	41.205564
877.000000	41.217410
876.000000	41.211726
875.000000	41.230792
874.000000	41.155498
873.000000	41.226438
872.000000	41.191170
871.000000	41.137510
870.000000	41.120931
869.000000	41.235182
868.000000	41.184128
867.000000	41.208882
866.000000	41.170133
865.000000	41.115970
864.000000	41.007492
863.000000	41.088642
862.000000	41.143107
861.000000	41.180979
860.000000	41.106872
859.000000	41.179524
858.000000	41.480014
857.000000	41.454247
856.000000	41.146532
855.000000	41.602175
854.000000	41.393838
853.000000	41.257678
852.000000	41.346875
851.000000	41.337710
850.000000	41.474487
849.000000	41.260362
848.000000	41.177306
847.000000	41.354393
846.000000	41.220180
845.000000	41.290642
844.000000	41.379298
843.000000	41.231819
842.000000	41.256284
841.000000	41.060529
840.000000	41.211366
839.000000	41.038165
838.000000	41.169355
837.000000	41.159105
836.000000	41.143290
835.000000	41.045389
834.000000	41.109808
833.000000	41.057291
832.000000	41.132256
831.000000	41.084265
830.000000	40.982661
829.000000	41.026036
828.000000	41.054880
827.000000	40.971831
826.000000	41.014592
825.000000	40.956639
824.000000	41.028543
823.000000	40.958822
822.000000	41.000694
821.000000	41.067182
820.000000	40.952336
819.000000	40.987690
818.000000	40.911165
817.000000	40.969163
816.000000	41.033848
815.000000	40.833090
814.000000	40.827489
813.000000	40.779967
812.000000	40.793653
811.000000	40.768881
810.000000	40.889643
809.000000	40.903174
808.000000	40.865338
807.000000	40.736085
806.000000	40.729994
805.000000	40.744647
804.000000	40.757522
803.000000	40.773617
802.000000	40.744761
801.000000	40.797258
800.000000	40.701172
799.000000	40.803991
798.000000	40.750949
797.000000	40.760127
796.000000	40.766132
795.000000	40.727708
794.000000	40.668839
793.000000	40.692709
792.000000	40.719701
791.000000	40.641409
790.000000	40.600756
789.000000	40.651337
788.000000	40.593901
787.000000	40.514239
786.000000	40.546911
785.000000	40.535746
784.000000	40.555415
783.000000	40.571729
782.000000	40.520854
781.000000	40.527756
780.000000	40.488031
779.000000	40.495575
778.000000	40.525011
777.000000	40.552940
776.000000	40.420104
775.000000	40.400837
774.000000	40.400115
773.000000	40.338228
772.000000	40.398011
771.000000	40.369780
770.000000	40.289199
769.000000	40.291633
768.000000	40.284614
767.000000	40.280169
766.000000	40.269255
765.000000	40.311507
764.000000	40.277252
763.000000	40.254215
762.000000	40.267655
761.000000	40.270227
760.000000	40.169084
759.000000	40.178231
758.000000	40.144557
757.000000	40.124097
756.000000	40.078169
755.000000	40.073711
754.000000	40.088312
753.000000	40.063968
752.000000	40.023134
751.000000	40.029304
750.000000	39.970151
749.000000	39.970233
748.000000	39.999295
747.000000	39.977867
746.000000	39.962124
745.000000	39.912715
744.000000	39.873648
743.000000	39.817037
742.000000	39.799784
741.000000	39.865064
740.000000	39.820277
739.000000	39.843173
738.000000	39.831441
737.000000	39.779479
736.000000	39.737296
735.000000	39.657593
734.000000	39.665935
733.000000	39.692172
732.000000	39.654797
731.000000	39.654889
730.000000	39.631075
729.000000	39.628476
728.000000	39.621165
727.000000	39.637715
726.000000	39.530565
725.000000	39.497677
724.000000	39.520255
723.000000	39.490932
722.000000	39.431215
721.000000	39.441892
720.000000	39.430597
719.000000	39.414087
718.000000	39.396481
717.000000	39.349522
716.000000	39.349640
715.000000	39.334737
714.000000	39.310432
713.000000	39.259832
712.000000	39.253951
711.000000	39.230512
710.000000	39.190102
709.000000	39.187933
708.000000	39.148552
707.000000	39.113346
706.000000	39.077193
705.000000	39.054259
704.000000	39.042147
703.000000	39.036731
702.000000	39.033195
701.000000	38.968835
700.000000	38.933564
699.000000	38.937853
698.000000	38.890112
697.000000	38.858883
696.000000	38.839312
695.000000	38.795387
694.000000	38.771542
693.000000	38.744941
692.000000	38.718930
691.000000	38.668548
690.000000	38.650504
689.000000	38.625017
688.000000	38.545208
687.000000	38.521158
686.000000	38.486256
685.000000	38.440028
684.000000	38.411841
683.000000	38.399525
682.000000	38.353458
681.000000	38.306436
680.000000	38.306921
679.000000	38.272866
678.000000	38.243510
677.000000	38.221366
676.000000	38.155997
675.000000	38.106623
674.000000	38.076984
673.000000	38.032568
672.000000	38.007503
671.000000	37.974763
670.000000	37.921663
669.000000	37.919002
668.000000	37.888278
667.000000	37.877480
666.000000	37.823617
665.000000	37.794672
664.000000	37.757202
663.000000	37.754253
662.000000	37.691900
661.000000	37.653719
660.000000	37.625461
659.000000	37.608802
658.000000	37.565893
657.000000	37.534442
656.000000	37.435420
655.000000	37.458056
654.000000	37.434823
653.000000	37.410240
652.000000	37.322438
651.000000	37.272704
650.000000	37.248837
649.000000	37.221916
648.000000	37.182386
647.000000	37.177766
646.000000	37.139176
645.000000	37.083355
644.000000	37.033005
643.000000	37.042234
642.000000	36.976641
641.000000	36.950924
640.000000	36.914811
639.000000	36.889857
638.000000	36.874621
637.000000	36.804225
636.000000	36.721071
635.000000	36.679365
634.000000	36.653698
633.000000	36.643222
632.000000	36.588914
631.000000	36.524744
630.000000	36.486105
629.000000	36.461745
628.000000	36.402463
627.000000	36.382266
626.000000	36.303678
625.000000	36.277881
624.000000	36.248863
623.000000	36.223535
622.000000	36.164075
621.000000	36.139878
620.000000	36.074745
619.000000	36.033229
618.000000	35.967899
617.000000	35.943723
616.000000	35.877275
615.000000	35.827696
614.000000	35.791863
613.000000	35.801908
612.000000	35.713722
611.000000	35.697453
610.000000	35.625364
609.000000	35.573946
608.000000	35.540381
607.000000	35.486078
606.000000	35.446241
605.000000	35.382111
604.000000	35.346440
603.000000	35.349730
602.000000	35.259012
601.000000	35.243784
600.000000	35.172395
599.000000	35.155594
598.000000	35.071355
597.000000	35.023120
596.000000	34.957153
595.000000	34.947285
594.000000	34.878086
593.000000	34.860790
592.000000	34.765138
591.000000	34.741828
590.000000	34.741311
589.000000	34.668502
588.000000	34.615603
587.000000	34.567573
586.000000	34.471391
585.000000	34.501600
584.000000	34.404128
583.000000	34.374729
582.000000	34.330572
581.000000	34.252505
580.000000	34.172095
579.000000	34.148632
578.000000	34.111102
577.000000	34.046244
576.000000	33.989937
575.000000	33.959354
574.000000	33.897672
573.000000	33.802146
572.000000	33.790345
571.000000	33.718968
570.000000	33.646179
569.000000	33.608739
568.000000	33.575141
567.000000	33.501823
566.000000	33.431394
565.000000	33.370439
564.000000	33.327024
563.000000	33.297205
562.000000	33.204231
561.000000	33.165753
560.000000	33.131803
559.000000	33.087097
558.000000	33.032629
557.000000	32.972992
556.000000	32.901390
555.000000	32.843174
554.000000	32.790380
553.000000	32.740421
552.000000	32.654592
551.000000	32.622758
550.000000	32.582491
549.000000	32.481389
548.000000	32.423648
547.000000	32.365049
546.000000	32.290644
545.000000	32.233345
544.000000	32.185578
543.000000	32.104417
542.000000	32.040394
541.000000	31.943939
540.000000	31.911024
539.000000	31.836171
538.000000	31.781714
537.000000	31.715843
536.000000	31.635797
535.000000	31.554562
534.000000	31.510921
533.000000	31.424607
532.000000	31.363954
531.000000	31.300566
530.000000	31.210965
529.000000	31.146737
528.000000	31.058320
527.000000	30.995260
526.000000	30.929882
525.000000	30.870369
524.000000	30.797835
523.000000	30.728870
522.000000	30.636083
521.000000	30.566851
520.000000	30.468862
519.000000	30.410489
518.000000	30.339334
517.000000	30.259871
516.000000	30.151818
515.000000	30.079271
514.000000	30.026573
513.000000	29.947155
512.000000	29.844113
511.000000	29.778819
510.000000	29.694708
509.000000	29.604020
508.000000	29.521118
507.000000	29.435073
506.000000	29.346328
505.000000	29.248847
504.000000	29.167525
503.000000	29.104298
502.000000	28.979719
501.000000	28.898227
500.000000	28.792593
499.000000	28.710408
498.000000	28.627196
497.000000	28.534831
496.000000	28.420184
495.000000	28.309360
494.000000	28.209713
493.000000	28.125898
492.000000	28.044299
491.000000	27.928956
490.000000	27.827076
489.000000	27.703870
488.000000	27.580766
487.000000	27.490430
486.000000	27.375092
485.000000	27.261232
484.000000	27.162973
483.000000	27.063253
482.000000	26.973203
481.000000	26.862551
480.000000	26.744189
479.000000	26.641217
478.000000	26.535302
477.000000	26.401634
476.000000	26.263693
475.000000	26.138834
474.000000	26.024235
473.000000	25.907489
472.000000	25.782321
471.000000	25.640438
470.000000	25.510565
469.000000	25.389266
468.000000	25.283408
467.000000	25.161295
466.000000	25.022191
465.000000	24.889447
464.000000	24.741411
463.000000	24.608518
462.000000	24.498933
461.000000	24.344675
460.000000	24.196742
459.000000	24.057865
458.000000	23.900959
457.000000	23.762483
456.000000	23.612515
455.000000	23.473929
454.000000	23.345598
453.000000	23.176996
452.000000	22.994668
451.000000	22.857645
450.000000	22.715562
449.000000	22.556378
448.000000	22.414630
447.000000	22.261133
446.000000	22.114981
445.000000	21.973422
444.000000	21.806209
443.000000	21.632041
442.000000	21.451404
441.000000	21.292103
440.000000	21.152026
439.000000	20.965835
438.000000	20.788968
437.000000	20.627385
436.000000	20.465027
435.000000	20.324036
434.000000	20.152351
433.000000	19.967879
432.000000	19.816197
431.000000	19.664005
430.000000	19.497794
429.000000	19.293761
428.000000	19.114943
427.000000	18.943295
426.000000	18.761736
425.000000	18.599704
424.000000	18.429401
423.000000	18.256988
422.000000	18.070439
421.000000	17.916111
420.000000	17.760887
419.000000	17.588973
418.000000	17.446594
417.000000	17.301935
416.000000	17.127474
415.000000	16.976533
414.000000	16.855405
413.000000	16.741500
412.000000	16.619698
411.000000	16.477871
410.000000	16.381547
409.000000	16.265180
408.000000	16.147865
407.000000	16.064655
406.000000	15.953166
405.000000	15.839976
404.000000	15.711998
403.000000	15.619138
402.000000	15.514396
401.000000	15.409481
400.000000	15.300316
399.000000	15.189837
398.000000	15.061837
397.000000	14.976339
396.000000	14.828789
395.000000	14.707097
394.000000	14.607319
393.000000	14.477710
392.000000	14.346996
391.000000	14.191915
390.000000	14.077672
389.000000	13.957530
388.000000	13.803590
387.000000	13.646015
386.000000	13.489736
385.000000	13.334748
384.000000	13.199668
383.000000	13.061576
382.000000	12.918555
381.000000	12.761144
380.000000	12.615821
379.000000	12.466518
378.000000	12.301022
377.000000	12.127887
376.000000	12.051746
375.000000	11.887050
374.000000	11.765252
373.000000	11.537514
372.000000	11.411902
371.000000	11.259567
370.000000	11.105787
369.000000	10.978803
368.000000	10.828684
367.000000	10.656783
366.000000	10.544603
365.000000	10.421615
364.000000	10.252537
363.000000	10.153258
362.000000	9.973294
361.000000	9.823486
360.000000	9.718329
359.000000	9.556900
358.000000	9.397172
357.000000	9.299949
356.000000	9.152229
355.000000	9.043259
354.000000	8.877935
353.000000	8.727858
352.000000	8.611693
351.000000	8.497236
350.000000	8.358615
349.000000	8.228940
348.000000	8.115748
347.000000	7.971318
346.000000	7.820173
345.000000	7.727424
344.000000	7.567903
343.000000	7.475578
342.000000	7.297642
341.000000	7.179150
340.000000	7.046666
339.000000	6.944589
338.000000	6.760805
337.000000	6.643437
336.000000	6.575031
335.000000	6.422140
334.000000	6.274406
333.000000	6.151706
332.000000	6.045502
331.000000	5.974485
330.000000	5.858090
329.000000	5.718421
328.000000	5.575786
327.000000	5.467678
326.000000	5.407678
325.000000	5.268737
324.000000	5.217969
323.000000	5.103762
322.000000	5.004101
321.000000	4.915404
320.000000	4.796522
319.000000	4.664845
318.000000	4.638468
317.000000	4.507646
316.000000	4.408953
315.000000	4.314649
314.000000	4.244879
313.000000	4.080203
312.000000	4.013009
311.000000	3.913935
310.000000	3.841654
309.000000	3.708531
308.000000	3.599644
307.000000	3.456386
306.000000	3.320574
305.000000	3.193932
304.000000	3.063778
303.000000	2.905629
302.000000	2.771417
301.000000	2.622191
300.000000	2.476517
299.000000	2.308711
298.000000	2.180408
297.000000	2.059296
296.000000	1.940250
295.000000	1.829462
294.000000	1.725676
293.000000	1.636947
292.000000	1.550884
291.000000	1.470351
290.000000	1.410954
289.000000	1.351027
288.000000	1.316963
287.000000	1.291367
286.000000	1.273894
285.000000	1.269244
284.000000	1.286114
283.000000	1.299350
282.000000	1.290093
281.000000	1.309060
280.000000	1.330571
279.000000	1.347286
278.000000	1.377674
277.000000	1.401830
276.000000	1.431425
275.000000	1.466111
274.000000	1.508680
273.000000	1.554210
272.000000	1.599661
271.000000	1.637475
270.000000	1.665003
269.000000	1.686590
268.000000	1.714374
267.000000	1.780910
266.000000	1.825424
265.000000	1.868311
264.000000	1.895292
263.000000	1.952518
262.000000	1.992039
261.000000	2.057459
260.000000	2.086803
259.000000	2.126021
258.000000	2.167790
257.000000	2.222926
256.000000	2.246548
255.000000	2.258450
254.000000	2.257938
253.000000	2.255782
252.000000	2.230849
251.000000	2.177000
250.000000	2.140088
249.000000	2.068839
248.000000	1.972641
247.000000	1.848465
246.000000	1.722712
245.000000	1.578318
244.000000	1.407959
243.000000	1.294423
242.000000	1.187018
241.000000	1.057651
240.000000	0.958933
239.000000	0.876971
238.000000	0.819775
237.000000	0.759511
236.000000	0.704760
235.000000	0.657207
234.000000	0.619746
233.000000	0.589130
232.000000	0.542728
231.000000	0.485590
230.000000	0.464977
229.000000	0.441056
228.000000	0.379988
227.000000	0.337124
226.000000	0.319987
225.000000	0.302945
224.000000	0.278016
223.000000	0.240221
222.000000	0.210313
221.000000	0.211007
220.000000	0.205817
219.000000	0.189358
218.000000	0.183005
217.000000	0.177746
216.000000	0.171356
215.000000	0.179061
214.000000	0.164819
213.000000	0.145211
212.000000	0.137073
211.000000	0.132669
210.000000	0.139171
209.000000	0.120484
208.000000	0.091303
207.000000	0.086197
206.000000	0.126983
205.000000	0.151460
204.000000	0.120954
203.000000	0.095371
202.000000	0.112234
201.000000	0.226218
200.000000	0.306751
