PE UV       SUBTECH     SPECTRUM    ASCII       PEDS        4.00        
   -1
RTVeauUK 32.Sample.asc
18/03/02
11:45:35.00
18/03/02
11:45:35.00
Administrator

200.000000
1
Lambda 750
750N8071901
PerkinElmer UV WinLab 6.0.4.0738 / 1.61.00 Lambda 900

0
0
3350/servo 860.8/2
0
0
UV/VIS
1
1
1
CommonBeamDepol,150mm sphere / downward view
0
0
0
0
Program
Program
3350/servo 860.8/2
3350/0.2 860.8/0.2
3350/0.2 860.8/0.2
0
1
 
 
 
0
 
860.8
319.2
860.8
Front
100
on
 
 
0
0
0
 
0
 
 
 
0
 
 
0
0
0
0
0
 
 
 
 
0
0


0
0
#HDR
-1
-1
#GR
nm
%R
1.0
0.0
2350.000000
-1.000000
2151
8
56.236473
9.803384
#DATA
2350.000000	10.734693
2349.000000	10.976844
2348.000000	10.696356
2347.000000	11.282483
2346.000000	11.579360
2345.000000	11.089603
2344.000000	10.894074
2343.000000	10.729612
2342.000000	10.917955
2341.000000	11.184860
2340.000000	11.099896
2339.000000	11.334925
2338.000000	11.418942
2337.000000	11.585515
2336.000000	11.976043
2335.000000	11.703659
2334.000000	11.658940
2333.000000	11.856497
2332.000000	11.976530
2331.000000	11.999504
2330.000000	11.462679
2329.000000	11.582384
2328.000000	11.744695
2327.000000	11.581392
2326.000000	11.672585
2325.000000	11.799343
2324.000000	11.614940
2323.000000	11.546783
2322.000000	11.685698
2321.000000	11.773854
2320.000000	11.658677
2319.000000	11.400786
2318.000000	11.064193
2317.000000	11.198525
2316.000000	11.273406
2315.000000	11.301836
2314.000000	11.181764
2313.000000	11.175089
2312.000000	11.186836
2311.000000	11.083819
2310.000000	11.101484
2309.000000	10.888217
2308.000000	10.933721
2307.000000	10.954378
2306.000000	10.804845
2305.000000	10.728500
2304.000000	10.601288
2303.000000	10.621480
2302.000000	10.526459
2301.000000	10.586112
2300.000000	10.561672
2299.000000	10.668901
2298.000000	10.317990
2297.000000	10.344890
2296.000000	10.349668
2295.000000	10.193959
2294.000000	10.096000
2293.000000	10.139181
2292.000000	10.121174
2291.000000	10.235483
2290.000000	10.095891
2289.000000	10.115164
2288.000000	10.190236
2287.000000	9.946636
2286.000000	9.869632
2285.000000	9.803384
2284.000000	9.958354
2283.000000	9.978290
2282.000000	9.918989
2281.000000	9.974791
2280.000000	9.975225
2279.000000	9.859488
2278.000000	9.884336
2277.000000	9.956523
2276.000000	9.881754
2275.000000	9.835407
2274.000000	9.958399
2273.000000	10.241582
2272.000000	10.217624
2271.000000	9.998424
2270.000000	10.018615
2269.000000	10.088874
2268.000000	10.094024
2267.000000	10.175931
2266.000000	10.327645
2265.000000	10.436047
2264.000000	10.389698
2263.000000	10.380483
2262.000000	10.467925
2261.000000	10.625177
2260.000000	10.823948
2259.000000	10.893372
2258.000000	10.996211
2257.000000	11.218165
2256.000000	11.255182
2255.000000	11.290996
2254.000000	11.328352
2253.000000	11.460689
2252.000000	11.664620
2251.000000	11.853652
2250.000000	11.980875
2249.000000	12.107180
2248.000000	12.222037
2247.000000	12.276881
2246.000000	12.374167
2245.000000	12.556986
2244.000000	12.806155
2243.000000	12.951466
2242.000000	12.966825
2241.000000	12.983502
2240.000000	12.982378
2239.000000	13.038502
2238.000000	13.242318
2237.000000	13.348324
2236.000000	13.411590
2235.000000	13.535597
2234.000000	13.579866
2233.000000	13.697246
2232.000000	13.769619
2231.000000	13.818795
2230.000000	13.941008
2229.000000	13.933919
2228.000000	13.979346
2227.000000	13.939286
2226.000000	13.750966
2225.000000	13.766353
2224.000000	13.793020
2223.000000	13.770942
2222.000000	13.775593
2221.000000	13.751440
2220.000000	13.802644
2219.000000	13.752208
2218.000000	13.705838
2217.000000	13.718659
2216.000000	13.677302
2215.000000	13.574059
2214.000000	13.586755
2213.000000	13.645454
2212.000000	13.619711
2211.000000	13.575282
2210.000000	13.534789
2209.000000	13.475215
2208.000000	13.392624
2207.000000	13.274892
2206.000000	13.226649
2205.000000	13.204456
2204.000000	13.277125
2203.000000	13.233552
2202.000000	13.043123
2201.000000	12.947556
2200.000000	13.019260
2199.000000	12.974161
2198.000000	12.903399
2197.000000	12.873545
2196.000000	12.744477
2195.000000	12.656969
2194.000000	12.662249
2193.000000	12.470494
2192.000000	12.498118
2191.000000	12.449966
2190.000000	12.577482
2189.000000	12.566293
2188.000000	12.273299
2187.000000	12.293112
2186.000000	12.293622
2185.000000	12.162180
2184.000000	12.196387
2183.000000	12.310248
2182.000000	12.317022
2181.000000	12.112738
2180.000000	12.192151
2179.000000	12.134346
2178.000000	12.126281
2177.000000	12.104320
2176.000000	12.184360
2175.000000	12.129730
2174.000000	12.145376
2173.000000	12.169136
2172.000000	12.153426
2171.000000	12.300089
2170.000000	12.149297
2169.000000	12.203554
2168.000000	12.429194
2167.000000	12.478686
2166.000000	12.250772
2165.000000	12.453385
2164.000000	12.550547
2163.000000	12.503498
2162.000000	12.704508
2161.000000	12.832462
2160.000000	12.936137
2159.000000	12.993716
2158.000000	13.066244
2157.000000	13.243107
2156.000000	13.202342
2155.000000	13.296815
2154.000000	13.515231
2153.000000	13.496526
2152.000000	13.712508
2151.000000	13.830719
2150.000000	13.849301
2149.000000	13.903023
2148.000000	14.154849
2147.000000	14.131154
2146.000000	14.086948
2145.000000	14.208448
2144.000000	14.424354
2143.000000	14.498459
2142.000000	14.739514
2141.000000	14.816955
2140.000000	14.909285
2139.000000	14.941412
2138.000000	15.106696
2137.000000	15.147574
2136.000000	15.054849
2135.000000	15.334354
2134.000000	15.382490
2133.000000	15.349181
2132.000000	15.609463
2131.000000	15.661607
2130.000000	15.758682
2129.000000	15.796345
2128.000000	15.889136
2127.000000	15.832043
2126.000000	15.859623
2125.000000	15.875211
2124.000000	16.025811
2123.000000	15.904266
2122.000000	16.007996
2121.000000	16.060387
2120.000000	16.295950
2119.000000	16.314756
2118.000000	16.282116
2117.000000	16.308422
2116.000000	16.485769
2115.000000	16.498788
2114.000000	16.581595
2113.000000	16.464216
2112.000000	16.362410
2111.000000	16.394123
2110.000000	16.466506
2109.000000	16.475172
2108.000000	16.517722
2107.000000	16.548729
2106.000000	16.428384
2105.000000	16.514035
2104.000000	16.537176
2103.000000	16.570728
2102.000000	16.601134
2101.000000	16.737439
2100.000000	16.678945
2099.000000	16.582155
2098.000000	16.732773
2097.000000	16.738925
2096.000000	16.733623
2095.000000	16.736642
2094.000000	16.659501
2093.000000	16.668432
2092.000000	16.717205
2091.000000	16.735047
2090.000000	16.633909
2089.000000	16.639911
2088.000000	16.574705
2087.000000	16.494882
2086.000000	16.566159
2085.000000	16.554803
2084.000000	16.465370
2083.000000	16.396078
2082.000000	16.404065
2081.000000	16.374515
2080.000000	16.365242
2079.000000	16.357761
2078.000000	16.246504
2077.000000	16.167825
2076.000000	16.072899
2075.000000	16.001388
2074.000000	15.854718
2073.000000	15.821092
2072.000000	15.771140
2071.000000	15.703126
2070.000000	15.527515
2069.000000	15.443793
2068.000000	15.357892
2067.000000	15.285127
2066.000000	15.172903
2065.000000	14.941403
2064.000000	14.883445
2063.000000	14.797950
2062.000000	14.637837
2061.000000	14.572423
2060.000000	14.463047
2059.000000	14.382481
2058.000000	14.192708
2057.000000	14.096704
2056.000000	14.023342
2055.000000	13.926469
2054.000000	13.784661
2053.000000	13.708136
2052.000000	13.627132
2051.000000	13.517264
2050.000000	13.441303
2049.000000	13.312857
2048.000000	13.228822
2047.000000	13.266790
2046.000000	13.198876
2045.000000	13.097556
2044.000000	13.095192
2043.000000	13.095004
2042.000000	13.118867
2041.000000	13.120450
2040.000000	13.117419
2039.000000	13.140251
2038.000000	13.165732
2037.000000	13.189074
2036.000000	13.246622
2035.000000	13.350813
2034.000000	13.391218
2033.000000	13.484633
2032.000000	13.614299
2031.000000	13.726784
2030.000000	13.821385
2029.000000	13.930858
2028.000000	14.028282
2027.000000	14.118070
2026.000000	14.179200
2025.000000	14.245044
2024.000000	14.342662
2023.000000	14.423472
2022.000000	14.506452
2021.000000	14.549758
2020.000000	14.615509
2019.000000	14.656937
2018.000000	14.718713
2017.000000	14.781874
2016.000000	14.785761
2015.000000	14.814357
2014.000000	14.842695
2013.000000	14.818185
2012.000000	14.832138
2011.000000	14.826131
2010.000000	14.788975
2009.000000	14.768143
2008.000000	14.726818
2007.000000	14.712996
2006.000000	14.662974
2005.000000	14.599339
2004.000000	14.540433
2003.000000	14.476646
2002.000000	14.399501
2001.000000	14.334055
2000.000000	14.311686
1999.000000	14.259953
1998.000000	14.183819
1997.000000	14.129615
1996.000000	14.066563
1995.000000	14.013815
1994.000000	13.959184
1993.000000	13.874727
1992.000000	13.803972
1991.000000	13.748084
1990.000000	13.676008
1989.000000	13.591038
1988.000000	13.565375
1987.000000	13.498239
1986.000000	13.450454
1985.000000	13.374169
1984.000000	13.300691
1983.000000	13.262870
1982.000000	13.171931
1981.000000	13.155470
1980.000000	13.086485
1979.000000	12.978941
1978.000000	12.932991
1977.000000	12.915926
1976.000000	12.822134
1975.000000	12.789966
1974.000000	12.711968
1973.000000	12.682807
1972.000000	12.640297
1971.000000	12.551802
1970.000000	12.502701
1969.000000	12.441917
1968.000000	12.404396
1967.000000	12.323022
1966.000000	12.346585
1965.000000	12.311479
1964.000000	12.197763
1963.000000	12.158833
1962.000000	12.107956
1961.000000	12.070942
1960.000000	11.989305
1959.000000	11.950799
1958.000000	11.951960
1957.000000	11.929849
1956.000000	11.916645
1955.000000	11.851219
1954.000000	11.831938
1953.000000	11.765827
1952.000000	11.789888
1951.000000	11.794863
1950.000000	11.733651
1949.000000	11.671598
1948.000000	11.721770
1947.000000	11.680413
1946.000000	11.657358
1945.000000	11.676186
1944.000000	11.642571
1943.000000	11.735568
1942.000000	11.722859
1941.000000	11.768748
1940.000000	11.773972
1939.000000	11.846689
1938.000000	11.920585
1937.000000	11.952517
1936.000000	12.063602
1935.000000	12.071148
1934.000000	12.177343
1933.000000	12.314323
1932.000000	12.312093
1931.000000	12.513643
1930.000000	12.582295
1929.000000	12.744447
1928.000000	12.811817
1927.000000	13.030047
1926.000000	13.165128
1925.000000	13.362514
1924.000000	13.571167
1923.000000	13.720986
1922.000000	13.832120
1921.000000	14.105589
1920.000000	14.259657
1919.000000	14.496148
1918.000000	14.748958
1917.000000	14.985710
1916.000000	15.164670
1915.000000	15.513706
1914.000000	15.813481
1913.000000	16.147449
1912.000000	16.461117
1911.000000	16.701533
1910.000000	17.049465
1909.000000	17.348956
1908.000000	17.764247
1907.000000	18.169525
1906.000000	18.586027
1905.000000	19.019962
1904.000000	19.443769
1903.000000	19.860949
1902.000000	20.355166
1901.000000	20.796704
1900.000000	21.295452
1899.000000	21.808258
1898.000000	22.282708
1897.000000	22.813475
1896.000000	23.276553
1895.000000	23.781586
1894.000000	24.203653
1893.000000	24.724040
1892.000000	25.274540
1891.000000	25.749252
1890.000000	26.226918
1889.000000	26.658590
1888.000000	27.146370
1887.000000	27.610816
1886.000000	28.108439
1885.000000	28.607401
1884.000000	28.983888
1883.000000	29.419566
1882.000000	29.771861
1881.000000	30.181946
1880.000000	30.598455
1879.000000	30.943542
1878.000000	31.295049
1877.000000	31.624209
1876.000000	31.936614
1875.000000	32.201362
1874.000000	32.506075
1873.000000	32.729341
1872.000000	33.008180
1871.000000	33.193872
1870.000000	33.442137
1869.000000	33.628098
1868.000000	33.806669
1867.000000	33.912261
1866.000000	34.060048
1865.000000	34.196288
1864.000000	34.280865
1863.000000	34.385235
1862.000000	34.456810
1861.000000	34.521683
1860.000000	34.629553
1859.000000	34.678756
1858.000000	34.739197
1857.000000	34.783868
1856.000000	34.813336
1855.000000	34.875407
1854.000000	34.928189
1853.000000	34.945997
1852.000000	34.906800
1851.000000	34.940923
1850.000000	34.939726
1849.000000	34.956545
1848.000000	34.945078
1847.000000	34.899731
1846.000000	34.879690
1845.000000	34.898545
1844.000000	34.879460
1843.000000	34.797171
1842.000000	34.741211
1841.000000	34.708361
1840.000000	34.685128
1839.000000	34.648403
1838.000000	34.593864
1837.000000	34.518627
1836.000000	34.473847
1835.000000	34.421789
1834.000000	34.333715
1833.000000	34.251317
1832.000000	34.226733
1831.000000	34.186854
1830.000000	34.145588
1829.000000	34.093922
1828.000000	34.028290
1827.000000	33.991073
1826.000000	33.940144
1825.000000	33.877975
1824.000000	33.836823
1823.000000	33.787508
1822.000000	33.708400
1821.000000	33.683729
1820.000000	33.641039
1819.000000	33.560790
1818.000000	33.537721
1817.000000	33.492766
1816.000000	33.405899
1815.000000	33.353510
1814.000000	33.310717
1813.000000	33.254687
1812.000000	33.220996
1811.000000	33.195579
1810.000000	33.146791
1809.000000	33.103953
1808.000000	33.065268
1807.000000	33.007748
1806.000000	32.949642
1805.000000	32.892710
1804.000000	32.843511
1803.000000	32.804655
1802.000000	32.762001
1801.000000	32.725653
1800.000000	32.690177
1799.000000	32.655103
1798.000000	32.617063
1797.000000	32.565650
1796.000000	32.537818
1795.000000	32.523389
1794.000000	32.494388
1793.000000	32.457182
1792.000000	32.415973
1791.000000	32.378711
1790.000000	32.350142
1789.000000	32.319909
1788.000000	32.288257
1787.000000	32.251873
1786.000000	32.223124
1785.000000	32.189394
1784.000000	32.137039
1783.000000	32.084025
1782.000000	32.043181
1781.000000	32.002045
1780.000000	31.946198
1779.000000	31.881077
1778.000000	31.810395
1777.000000	31.728870
1776.000000	31.682995
1775.000000	31.601938
1774.000000	31.486391
1773.000000	31.411642
1772.000000	31.347361
1771.000000	31.292574
1770.000000	31.218492
1769.000000	31.097630
1768.000000	31.020515
1767.000000	30.929296
1766.000000	30.843509
1765.000000	30.775390
1764.000000	30.704806
1763.000000	30.601606
1762.000000	30.520234
1761.000000	30.441096
1760.000000	30.357076
1759.000000	30.274288
1758.000000	30.216502
1757.000000	30.138921
1756.000000	30.030318
1755.000000	29.945381
1754.000000	29.857494
1753.000000	29.786379
1752.000000	29.709269
1751.000000	29.628619
1750.000000	29.520579
1749.000000	29.466819
1748.000000	29.377879
1747.000000	29.266503
1746.000000	29.199947
1745.000000	29.121446
1744.000000	29.015688
1743.000000	28.959121
1742.000000	28.880334
1741.000000	28.793598
1740.000000	28.727993
1739.000000	28.656038
1738.000000	28.613512
1737.000000	28.556399
1736.000000	28.492482
1735.000000	28.484904
1734.000000	28.471212
1733.000000	28.467049
1732.000000	28.468205
1731.000000	28.465814
1730.000000	28.476700
1729.000000	28.548226
1728.000000	28.613362
1727.000000	28.663293
1726.000000	28.736802
1725.000000	28.827994
1724.000000	28.943270
1723.000000	29.035622
1722.000000	29.145081
1721.000000	29.258967
1720.000000	29.428422
1719.000000	29.544401
1718.000000	29.666697
1717.000000	29.770352
1716.000000	29.910828
1715.000000	30.023200
1714.000000	30.113425
1713.000000	30.246460
1712.000000	30.324181
1711.000000	30.384990
1710.000000	30.493489
1709.000000	30.553904
1708.000000	30.614513
1707.000000	30.684985
1706.000000	30.704381
1705.000000	30.733461
1704.000000	30.790824
1703.000000	30.798387
1702.000000	30.797630
1701.000000	30.850460
1700.000000	30.860035
1699.000000	30.841785
1698.000000	30.898988
1697.000000	30.960513
1696.000000	31.007650
1695.000000	31.058955
1694.000000	31.120430
1693.000000	31.204492
1692.000000	31.271177
1691.000000	31.366414
1690.000000	31.503424
1689.000000	31.628350
1688.000000	31.808068
1687.000000	31.957010
1686.000000	32.169763
1685.000000	32.359827
1684.000000	32.568187
1683.000000	32.818565
1682.000000	33.045118
1681.000000	33.302566
1680.000000	33.560945
1679.000000	33.812602
1678.000000	34.083214
1677.000000	34.364907
1676.000000	34.636547
1675.000000	34.889897
1674.000000	35.164674
1673.000000	35.446442
1672.000000	35.691155
1671.000000	35.969250
1670.000000	36.222873
1669.000000	36.476060
1668.000000	36.653173
1667.000000	36.884698
1666.000000	37.040030
1665.000000	37.211158
1664.000000	37.375104
1663.000000	37.536826
1662.000000	37.633455
1661.000000	37.771945
1660.000000	37.887036
1659.000000	37.974861
1658.000000	38.034591
1657.000000	38.099929
1656.000000	38.185479
1655.000000	38.243777
1654.000000	38.267781
1653.000000	38.302924
1652.000000	38.345088
1651.000000	38.350753
1650.000000	38.348822
1649.000000	38.363138
1648.000000	38.348135
1647.000000	38.332517
1646.000000	38.325281
1645.000000	38.301565
1644.000000	38.299900
1643.000000	38.252827
1642.000000	38.230083
1641.000000	38.193293
1640.000000	38.145080
1639.000000	38.104075
1638.000000	38.067649
1637.000000	38.024282
1636.000000	37.963911
1635.000000	37.910907
1634.000000	37.858708
1633.000000	37.793200
1632.000000	37.747751
1631.000000	37.660598
1630.000000	37.611080
1629.000000	37.552566
1628.000000	37.478864
1627.000000	37.404025
1626.000000	37.335596
1625.000000	37.277676
1624.000000	37.214853
1623.000000	37.136862
1622.000000	37.071009
1621.000000	36.991428
1620.000000	36.906970
1619.000000	36.810451
1618.000000	36.741260
1617.000000	36.662939
1616.000000	36.588607
1615.000000	36.503589
1614.000000	36.407696
1613.000000	36.327993
1612.000000	36.252316
1611.000000	36.170454
1610.000000	36.071026
1609.000000	35.975011
1608.000000	35.886773
1607.000000	35.801321
1606.000000	35.702573
1605.000000	35.601359
1604.000000	35.514216
1603.000000	35.411774
1602.000000	35.319067
1601.000000	35.237359
1600.000000	35.143135
1599.000000	35.055844
1598.000000	34.968969
1597.000000	34.872642
1596.000000	34.774180
1595.000000	34.695987
1594.000000	34.631749
1593.000000	34.559010
1592.000000	34.473515
1591.000000	34.387006
1590.000000	34.325060
1589.000000	34.248866
1588.000000	34.158602
1587.000000	34.088057
1586.000000	34.021244
1585.000000	33.947162
1584.000000	33.887047
1583.000000	33.831240
1582.000000	33.757693
1581.000000	33.696691
1580.000000	33.626462
1579.000000	33.561545
1578.000000	33.509254
1577.000000	33.440551
1576.000000	33.381644
1575.000000	33.310227
1574.000000	33.222232
1573.000000	33.166552
1572.000000	33.115675
1571.000000	33.052580
1570.000000	32.997288
1569.000000	32.946081
1568.000000	32.894654
1567.000000	32.841934
1566.000000	32.793322
1565.000000	32.746734
1564.000000	32.717068
1563.000000	32.691140
1562.000000	32.636741
1561.000000	32.598552
1560.000000	32.578742
1559.000000	32.530388
1558.000000	32.500593
1557.000000	32.480234
1556.000000	32.459936
1555.000000	32.429015
1554.000000	32.404708
1553.000000	32.370766
1552.000000	32.331229
1551.000000	32.287061
1550.000000	32.238049
1549.000000	32.185794
1548.000000	32.132389
1547.000000	32.062615
1546.000000	31.984759
1545.000000	31.910783
1544.000000	31.817279
1543.000000	31.744763
1542.000000	31.644100
1541.000000	31.535087
1540.000000	31.426091
1539.000000	31.299499
1538.000000	31.187967
1537.000000	31.069931
1536.000000	30.936824
1535.000000	30.810472
1534.000000	30.691039
1533.000000	30.585516
1532.000000	30.466386
1531.000000	30.335385
1530.000000	30.220839
1529.000000	30.107425
1528.000000	30.013120
1527.000000	29.907332
1526.000000	29.807961
1525.000000	29.722946
1524.000000	29.636688
1523.000000	29.567853
1522.000000	29.479588
1521.000000	29.414495
1520.000000	29.331707
1519.000000	29.273341
1518.000000	29.231625
1517.000000	29.169837
1516.000000	29.101549
1515.000000	29.058027
1514.000000	29.001680
1513.000000	28.981912
1512.000000	28.942213
1511.000000	28.897191
1510.000000	28.874412
1509.000000	28.852883
1508.000000	28.826329
1507.000000	28.792059
1506.000000	28.770573
1505.000000	28.749752
1504.000000	28.732240
1503.000000	28.738430
1502.000000	28.728198
1501.000000	28.731158
1500.000000	28.727450
1499.000000	28.738316
1498.000000	28.770735
1497.000000	28.815561
1496.000000	28.861537
1495.000000	28.906006
1494.000000	28.916566
1493.000000	28.947286
1492.000000	29.003303
1491.000000	29.048594
1490.000000	29.101955
1489.000000	29.173473
1488.000000	29.253203
1487.000000	29.311944
1486.000000	29.390946
1485.000000	29.480675
1484.000000	29.545885
1483.000000	29.644473
1482.000000	29.770309
1481.000000	29.865479
1480.000000	29.960443
1479.000000	30.075199
1478.000000	30.193022
1477.000000	30.287744
1476.000000	30.395747
1475.000000	30.512266
1474.000000	30.606248
1473.000000	30.686448
1472.000000	30.795847
1471.000000	30.909446
1470.000000	31.004576
1469.000000	31.094328
1468.000000	31.155013
1467.000000	31.244747
1466.000000	31.348377
1465.000000	31.443658
1464.000000	31.506645
1463.000000	31.580702
1462.000000	31.643882
1461.000000	31.738789
1460.000000	31.826161
1459.000000	31.904492
1458.000000	31.969660
1457.000000	32.072783
1456.000000	32.173538
1455.000000	32.227183
1454.000000	32.305607
1453.000000	32.378993
1452.000000	32.496146
1451.000000	32.608017
1450.000000	32.678214
1449.000000	32.765679
1448.000000	32.875425
1447.000000	32.996064
1446.000000	33.082239
1445.000000	33.181824
1444.000000	33.298387
1443.000000	33.411478
1442.000000	33.537175
1441.000000	33.662243
1440.000000	33.769566
1439.000000	33.893453
1438.000000	34.008015
1437.000000	34.137766
1436.000000	34.278459
1435.000000	34.420634
1434.000000	34.567431
1433.000000	34.725636
1432.000000	34.881895
1431.000000	35.053800
1430.000000	35.233541
1429.000000	35.423683
1428.000000	35.597210
1427.000000	35.782307
1426.000000	35.978065
1425.000000	36.178205
1424.000000	36.381154
1423.000000	36.596118
1422.000000	36.805655
1421.000000	37.019553
1420.000000	37.249068
1419.000000	37.510453
1418.000000	37.763997
1417.000000	38.020944
1416.000000	38.282997
1415.000000	38.531843
1414.000000	38.788876
1413.000000	39.062837
1412.000000	39.333285
1411.000000	39.629664
1410.000000	39.897186
1409.000000	40.151573
1408.000000	40.421061
1407.000000	40.683157
1406.000000	40.958588
1405.000000	41.237021
1404.000000	41.504441
1403.000000	41.771906
1402.000000	42.039376
1401.000000	42.299848
1400.000000	42.537614
1399.000000	42.780599
1398.000000	43.023774
1397.000000	43.274878
1396.000000	43.517807
1395.000000	43.755374
1394.000000	43.976916
1393.000000	44.199660
1392.000000	44.425623
1391.000000	44.641586
1390.000000	44.848984
1389.000000	45.076897
1388.000000	45.314132
1387.000000	45.500697
1386.000000	45.668682
1385.000000	45.847023
1384.000000	46.040187
1383.000000	46.199320
1382.000000	46.348467
1381.000000	46.515938
1380.000000	46.650532
1379.000000	46.763096
1378.000000	46.899532
1377.000000	47.014251
1376.000000	47.094554
1375.000000	47.194380
1374.000000	47.325552
1373.000000	47.442702
1372.000000	47.519029
1371.000000	47.603278
1370.000000	47.685841
1369.000000	47.775056
1368.000000	47.899456
1367.000000	48.006286
1366.000000	48.085469
1365.000000	48.184369
1364.000000	48.278108
1363.000000	48.374391
1362.000000	48.483000
1361.000000	48.580216
1360.000000	48.681591
1359.000000	48.794870
1358.000000	48.910484
1357.000000	49.034325
1356.000000	49.167792
1355.000000	49.289546
1354.000000	49.399147
1353.000000	49.505186
1352.000000	49.615581
1351.000000	49.735256
1350.000000	49.841892
1349.000000	49.946773
1348.000000	50.087479
1347.000000	50.219412
1346.000000	50.316767
1345.000000	50.414004
1344.000000	50.514312
1343.000000	50.610170
1342.000000	50.705502
1341.000000	50.822662
1340.000000	50.932909
1339.000000	51.038199
1338.000000	51.118027
1337.000000	51.184920
1336.000000	51.255687
1335.000000	51.326151
1334.000000	51.390974
1333.000000	51.469524
1332.000000	51.552808
1331.000000	51.606943
1330.000000	51.677422
1329.000000	51.722618
1328.000000	51.768443
1327.000000	51.832753
1326.000000	51.874171
1325.000000	51.892227
1324.000000	51.929444
1323.000000	51.995341
1322.000000	52.018098
1321.000000	52.059846
1320.000000	52.096723
1319.000000	52.105886
1318.000000	52.119461
1317.000000	52.175069
1316.000000	52.193969
1315.000000	52.208287
1314.000000	52.252841
1313.000000	52.252965
1312.000000	52.262101
1311.000000	52.325651
1310.000000	52.337505
1309.000000	52.371189
1308.000000	52.401504
1307.000000	52.390891
1306.000000	52.422034
1305.000000	52.434429
1304.000000	52.455533
1303.000000	52.483977
1302.000000	52.493366
1301.000000	52.494722
1300.000000	52.519239
1299.000000	52.503143
1298.000000	52.519179
1297.000000	52.516482
1296.000000	52.499143
1295.000000	52.495351
1294.000000	52.506765
1293.000000	52.499072
1292.000000	52.490332
1291.000000	52.482544
1290.000000	52.476013
1289.000000	52.475062
1288.000000	52.438497
1287.000000	52.448353
1286.000000	52.433569
1285.000000	52.414927
1284.000000	52.410278
1283.000000	52.378926
1282.000000	52.370846
1281.000000	52.382478
1280.000000	52.384038
1279.000000	52.389528
1278.000000	52.364840
1277.000000	52.380004
1276.000000	52.393020
1275.000000	52.387010
1274.000000	52.380433
1273.000000	52.394300
1272.000000	52.374888
1271.000000	52.396306
1270.000000	52.403815
1269.000000	52.414024
1268.000000	52.426092
1267.000000	52.426306
1266.000000	52.435926
1265.000000	52.465738
1264.000000	52.490569
1263.000000	52.520156
1262.000000	52.546935
1261.000000	52.533033
1260.000000	52.546647
1259.000000	52.567055
1258.000000	52.603248
1257.000000	52.628662
1256.000000	52.636464
1255.000000	52.645876
1254.000000	52.629400
1253.000000	52.643132
1252.000000	52.647209
1251.000000	52.646595
1250.000000	52.659733
1249.000000	52.663991
1248.000000	52.639428
1247.000000	52.637148
1246.000000	52.613471
1245.000000	52.602756
1244.000000	52.591413
1243.000000	52.551819
1242.000000	52.511095
1241.000000	52.501754
1240.000000	52.447059
1239.000000	52.382731
1238.000000	52.371379
1237.000000	52.332946
1236.000000	52.248607
1235.000000	52.222444
1234.000000	52.188168
1233.000000	52.144009
1232.000000	52.089093
1231.000000	52.060553
1230.000000	52.038619
1229.000000	52.010181
1228.000000	51.961521
1227.000000	51.893507
1226.000000	51.862716
1225.000000	51.838913
1224.000000	51.804296
1223.000000	51.773580
1222.000000	51.721921
1221.000000	51.688915
1220.000000	51.651081
1219.000000	51.612750
1218.000000	51.556448
1217.000000	51.495497
1216.000000	51.450685
1215.000000	51.388160
1214.000000	51.350004
1213.000000	51.306932
1212.000000	51.249904
1211.000000	51.165553
1210.000000	51.117048
1209.000000	51.073570
1208.000000	50.984501
1207.000000	50.905072
1206.000000	50.857534
1205.000000	50.765498
1204.000000	50.679092
1203.000000	50.616917
1202.000000	50.568036
1201.000000	50.482351
1200.000000	50.392469
1199.000000	50.346120
1198.000000	50.311954
1197.000000	50.226368
1196.000000	50.152966
1195.000000	50.096838
1194.000000	50.052653
1193.000000	50.004630
1192.000000	49.961698
1191.000000	49.920926
1190.000000	49.887949
1189.000000	49.835793
1188.000000	49.826225
1187.000000	49.818898
1186.000000	49.798791
1185.000000	49.804267
1184.000000	49.817775
1183.000000	49.839551
1182.000000	49.879755
1181.000000	49.925743
1180.000000	49.976254
1179.000000	50.033353
1178.000000	50.099946
1177.000000	50.171953
1176.000000	50.255180
1175.000000	50.344921
1174.000000	50.453701
1173.000000	50.569495
1172.000000	50.680321
1171.000000	50.791857
1170.000000	50.930156
1169.000000	51.064255
1168.000000	51.195406
1167.000000	51.346499
1166.000000	51.489531
1165.000000	51.623128
1164.000000	51.763473
1163.000000	51.909406
1162.000000	52.045147
1161.000000	52.188243
1160.000000	52.335488
1159.000000	52.470872
1158.000000	52.610897
1157.000000	52.728595
1156.000000	52.840814
1155.000000	52.969141
1154.000000	53.083945
1153.000000	53.193277
1152.000000	53.306036
1151.000000	53.410445
1150.000000	53.513694
1149.000000	53.601797
1148.000000	53.681466
1147.000000	53.770784
1146.000000	53.862656
1145.000000	53.950347
1144.000000	54.036601
1143.000000	54.124020
1142.000000	54.200100
1141.000000	54.259887
1140.000000	54.325443
1139.000000	54.405991
1138.000000	54.506411
1137.000000	54.589949
1136.000000	54.663592
1135.000000	54.744787
1134.000000	54.829516
1133.000000	54.893440
1132.000000	54.957472
1131.000000	55.022281
1130.000000	55.092073
1129.000000	55.144989
1128.000000	55.205509
1127.000000	55.254394
1126.000000	55.285339
1125.000000	55.339051
1124.000000	55.363178
1123.000000	55.388223
1122.000000	55.419628
1121.000000	55.454778
1120.000000	55.479533
1119.000000	55.495743
1118.000000	55.510688
1117.000000	55.536873
1116.000000	55.569538
1115.000000	55.588864
1114.000000	55.603226
1113.000000	55.600673
1112.000000	55.618663
1111.000000	55.620371
1110.000000	55.623070
1109.000000	55.648442
1108.000000	55.641008
1107.000000	55.654224
1106.000000	55.634768
1105.000000	55.646472
1104.000000	55.669456
1103.000000	55.668492
1102.000000	55.674843
1101.000000	55.692612
1100.000000	55.679626
1099.000000	55.689967
1098.000000	55.686180
1097.000000	55.670060
1096.000000	55.688196
1095.000000	55.696340
1094.000000	55.698226
1093.000000	55.694103
1092.000000	55.707064
1091.000000	55.697402
1090.000000	55.686157
1089.000000	55.683333
1088.000000	55.692789
1087.000000	55.700552
1086.000000	55.708167
1085.000000	55.689633
1084.000000	55.709078
1083.000000	55.674406
1082.000000	55.651706
1081.000000	55.650130
1080.000000	55.655432
1079.000000	55.652005
1078.000000	55.634796
1077.000000	55.638567
1076.000000	55.619234
1075.000000	55.609283
1074.000000	55.593513
1073.000000	55.603686
1072.000000	55.590792
1071.000000	55.574399
1070.000000	55.567462
1069.000000	55.531043
1068.000000	55.529759
1067.000000	55.515164
1066.000000	55.518423
1065.000000	55.502545
1064.000000	55.499670
1063.000000	55.494676
1062.000000	55.444166
1061.000000	55.417358
1060.000000	55.415467
1059.000000	55.425941
1058.000000	55.418410
1057.000000	55.397043
1056.000000	55.376213
1055.000000	55.340964
1054.000000	55.345319
1053.000000	55.328459
1052.000000	55.312345
1051.000000	55.279617
1050.000000	55.268225
1049.000000	55.265645
1048.000000	55.272156
1047.000000	55.260222
1046.000000	55.219715
1045.000000	55.214140
1044.000000	55.211170
1043.000000	55.212881
1042.000000	55.211140
1041.000000	55.166795
1040.000000	55.171748
1039.000000	55.179440
1038.000000	55.138036
1037.000000	55.139465
1036.000000	55.132606
1035.000000	55.164943
1034.000000	55.149325
1033.000000	55.113426
1032.000000	55.133999
1031.000000	55.132837
1030.000000	55.121961
1029.000000	55.102506
1028.000000	55.107530
1027.000000	55.117349
1026.000000	55.106156
1025.000000	55.111082
1024.000000	55.111323
1023.000000	55.092750
1022.000000	55.095599
1021.000000	55.114844
1020.000000	55.130079
1019.000000	55.126159
1018.000000	55.128614
1017.000000	55.120680
1016.000000	55.144999
1015.000000	55.132426
1014.000000	55.126825
1013.000000	55.149257
1012.000000	55.178379
1011.000000	55.198718
1010.000000	55.203178
1009.000000	55.197956
1008.000000	55.212443
1007.000000	55.212727
1006.000000	55.233888
1005.000000	55.262973
1004.000000	55.267810
1003.000000	55.272416
1002.000000	55.275444
1001.000000	55.285678
1000.000000	55.329959
999.000000	55.338344
998.000000	55.373377
997.000000	55.373865
996.000000	55.392831
995.000000	55.411436
994.000000	55.435972
993.000000	55.439095
992.000000	55.445955
991.000000	55.444010
990.000000	55.447963
989.000000	55.480869
988.000000	55.486350
987.000000	55.497546
986.000000	55.511468
985.000000	55.522820
984.000000	55.535905
983.000000	55.544419
982.000000	55.563167
981.000000	55.574507
980.000000	55.583049
979.000000	55.590486
978.000000	55.609613
977.000000	55.636545
976.000000	55.640715
975.000000	55.638901
974.000000	55.661008
973.000000	55.677988
972.000000	55.688857
971.000000	55.699457
970.000000	55.718329
969.000000	55.720038
968.000000	55.720351
967.000000	55.763264
966.000000	55.769869
965.000000	55.761539
964.000000	55.796052
963.000000	55.812780
962.000000	55.827392
961.000000	55.835370
960.000000	55.839496
959.000000	55.851059
958.000000	55.875568
957.000000	55.878523
956.000000	55.883431
955.000000	55.893286
954.000000	55.904634
953.000000	55.925331
952.000000	55.937006
951.000000	55.947570
950.000000	55.958088
949.000000	55.957565
948.000000	55.960481
947.000000	55.980664
946.000000	55.997780
945.000000	55.999245
944.000000	55.987629
943.000000	55.975113
942.000000	55.978625
941.000000	55.992183
940.000000	56.001611
939.000000	55.984815
938.000000	55.989632
937.000000	56.011056
936.000000	56.000837
935.000000	56.002517
934.000000	56.023902
933.000000	56.022285
932.000000	56.010071
931.000000	55.997648
930.000000	55.975357
929.000000	55.969811
928.000000	55.984799
927.000000	55.978086
926.000000	55.972142
925.000000	55.949376
924.000000	55.944085
923.000000	55.941802
922.000000	55.913888
921.000000	55.920859
920.000000	55.943321
919.000000	55.928109
918.000000	55.910504
917.000000	55.914695
916.000000	55.881183
915.000000	55.911347
914.000000	55.897960
913.000000	55.883405
912.000000	55.886368
911.000000	55.894810
910.000000	55.860567
909.000000	55.889512
908.000000	55.905815
907.000000	55.907775
906.000000	55.884869
905.000000	55.916395
904.000000	55.940495
903.000000	55.950069
902.000000	55.937608
901.000000	55.959733
900.000000	55.955448
899.000000	55.942412
898.000000	55.977104
897.000000	56.022455
896.000000	55.983076
895.000000	55.913315
894.000000	55.953574
893.000000	56.015292
892.000000	56.016081
891.000000	56.035179
890.000000	56.080510
889.000000	56.115614
888.000000	56.097610
887.000000	56.061444
886.000000	56.123326
885.000000	56.100418
884.000000	56.108861
883.000000	56.097966
882.000000	56.181566
881.000000	56.158666
880.000000	56.144805
879.000000	56.090533
878.000000	56.149331
877.000000	56.149055
876.000000	56.152832
875.000000	56.161289
874.000000	56.191442
873.000000	56.164315
872.000000	56.169084
871.000000	56.180856
870.000000	56.158069
869.000000	56.083901
868.000000	56.138744
867.000000	56.104748
866.000000	56.203324
865.000000	56.100551
864.000000	56.170182
863.000000	56.107976
862.000000	56.088178
861.000000	56.151169
860.000000	56.236473
859.000000	56.053196
858.000000	55.763978
857.000000	55.794928
856.000000	56.123411
855.000000	55.749041
854.000000	56.100658
853.000000	55.900402
852.000000	56.038022
851.000000	56.114348
850.000000	55.882849
849.000000	55.746316
848.000000	56.031641
847.000000	55.824807
846.000000	55.670266
845.000000	55.851062
844.000000	55.881310
843.000000	55.829953
842.000000	55.911418
841.000000	55.829232
840.000000	55.560134
839.000000	55.807261
838.000000	55.836036
837.000000	55.830061
836.000000	55.804093
835.000000	55.938832
834.000000	55.774158
833.000000	55.750372
832.000000	55.725110
831.000000	55.782487
830.000000	55.660517
829.000000	55.677859
828.000000	55.854872
827.000000	55.874252
826.000000	55.760652
825.000000	55.900081
824.000000	55.779872
823.000000	55.612200
822.000000	55.633231
821.000000	55.675266
820.000000	55.576748
819.000000	55.682755
818.000000	55.764589
817.000000	55.684073
816.000000	55.732644
815.000000	55.814013
814.000000	55.687970
813.000000	55.622227
812.000000	55.687197
811.000000	55.626379
810.000000	55.546819
809.000000	55.610801
808.000000	55.672540
807.000000	55.637567
806.000000	55.774034
805.000000	55.598982
804.000000	55.675091
803.000000	55.578056
802.000000	55.594807
801.000000	55.589214
800.000000	55.523293
799.000000	55.642618
798.000000	55.638250
797.000000	55.478272
796.000000	55.665437
795.000000	55.576649
794.000000	55.643540
793.000000	55.685498
792.000000	55.529391
791.000000	55.501483
790.000000	55.583400
789.000000	55.589412
788.000000	55.599030
787.000000	55.609645
786.000000	55.616970
785.000000	55.564386
784.000000	55.580030
783.000000	55.562116
782.000000	55.595586
781.000000	55.488874
780.000000	55.489198
779.000000	55.392287
778.000000	55.451107
777.000000	55.448961
776.000000	55.410206
775.000000	55.389910
774.000000	55.400421
773.000000	55.363041
772.000000	55.338112
771.000000	55.399786
770.000000	55.424933
769.000000	55.322142
768.000000	55.353534
767.000000	55.368610
766.000000	55.269504
765.000000	55.287833
764.000000	55.289348
763.000000	55.214714
762.000000	55.207421
761.000000	55.257109
760.000000	55.239163
759.000000	55.149871
758.000000	55.113447
757.000000	55.186301
756.000000	55.242653
755.000000	55.150594
754.000000	55.127681
753.000000	55.099204
752.000000	55.163278
751.000000	55.172467
750.000000	55.103574
749.000000	55.044315
748.000000	54.976830
747.000000	54.989967
746.000000	54.991022
745.000000	54.926872
744.000000	54.883531
743.000000	54.892319
742.000000	54.848178
741.000000	54.841160
740.000000	54.842900
739.000000	54.858876
738.000000	54.859468
737.000000	54.797011
736.000000	54.729870
735.000000	54.699143
734.000000	54.734666
733.000000	54.739058
732.000000	54.718871
731.000000	54.683419
730.000000	54.636663
729.000000	54.619484
728.000000	54.625778
727.000000	54.605114
726.000000	54.519852
725.000000	54.516390
724.000000	54.521085
723.000000	54.496771
722.000000	54.485437
721.000000	54.496734
720.000000	54.472686
719.000000	54.456113
718.000000	54.450317
717.000000	54.406993
716.000000	54.293499
715.000000	54.340776
714.000000	54.365231
713.000000	54.311852
712.000000	54.264348
711.000000	54.247499
710.000000	54.239418
709.000000	54.193817
708.000000	54.171325
707.000000	54.132955
706.000000	54.075138
705.000000	54.027937
704.000000	54.044738
703.000000	54.058087
702.000000	54.041106
701.000000	53.957809
700.000000	53.914400
699.000000	53.930576
698.000000	53.901740
697.000000	53.854251
696.000000	53.816284
695.000000	53.792887
694.000000	53.742267
693.000000	53.696124
692.000000	53.664433
691.000000	53.680808
690.000000	53.694037
689.000000	53.607523
688.000000	53.537360
687.000000	53.481904
686.000000	53.440574
685.000000	53.417417
684.000000	53.391072
683.000000	53.326069
682.000000	53.293648
681.000000	53.288062
680.000000	53.301405
679.000000	53.287373
678.000000	53.224871
677.000000	53.178824
676.000000	53.082512
675.000000	52.991086
674.000000	52.974195
673.000000	52.963530
672.000000	52.920009
671.000000	52.890628
670.000000	52.839786
669.000000	52.829967
668.000000	52.818089
667.000000	52.723020
666.000000	52.710754
665.000000	52.676954
664.000000	52.659363
663.000000	52.610613
662.000000	52.567072
661.000000	52.492251
660.000000	52.366140
659.000000	52.388906
658.000000	52.337557
657.000000	52.314410
656.000000	52.262949
655.000000	52.194412
654.000000	52.151024
653.000000	52.154233
652.000000	52.046752
651.000000	52.018770
650.000000	51.956172
649.000000	51.942596
648.000000	51.882367
647.000000	51.841750
646.000000	51.766612
645.000000	51.727383
644.000000	51.577927
643.000000	51.578751
642.000000	51.512195
641.000000	51.469749
640.000000	51.387601
639.000000	51.331205
638.000000	51.281128
637.000000	51.244276
636.000000	51.229565
635.000000	51.124170
634.000000	51.095910
633.000000	51.021095
632.000000	50.935400
631.000000	50.894961
630.000000	50.798825
629.000000	50.774804
628.000000	50.743306
627.000000	50.671979
626.000000	50.575461
625.000000	50.545768
624.000000	50.543618
623.000000	50.436119
622.000000	50.342112
621.000000	50.336434
620.000000	50.295836
619.000000	50.206945
618.000000	50.155280
617.000000	50.079202
616.000000	50.048056
615.000000	50.006165
614.000000	49.936220
613.000000	49.855041
612.000000	49.873848
611.000000	49.792091
610.000000	49.696511
609.000000	49.649641
608.000000	49.567041
607.000000	49.553854
606.000000	49.512330
605.000000	49.433716
604.000000	49.371697
603.000000	49.312460
602.000000	49.282307
601.000000	49.264814
600.000000	49.188101
599.000000	49.109019
598.000000	49.031121
597.000000	48.968799
596.000000	48.905305
595.000000	48.884609
594.000000	48.797233
593.000000	48.812209
592.000000	48.695023
591.000000	48.683454
590.000000	48.555362
589.000000	48.541107
588.000000	48.466937
587.000000	48.413943
586.000000	48.297766
585.000000	48.264375
584.000000	48.206197
583.000000	48.161103
582.000000	48.095311
581.000000	48.016088
580.000000	47.924254
579.000000	47.928300
578.000000	47.818813
577.000000	47.822691
576.000000	47.734858
575.000000	47.675816
574.000000	47.550341
573.000000	47.540805
572.000000	47.418852
571.000000	47.412802
570.000000	47.317388
569.000000	47.241397
568.000000	47.242146
567.000000	47.151918
566.000000	47.104587
565.000000	46.996196
564.000000	46.964573
563.000000	46.931456
562.000000	46.842499
561.000000	46.791629
560.000000	46.738638
559.000000	46.649370
558.000000	46.559115
557.000000	46.513602
556.000000	46.482097
555.000000	46.424279
554.000000	46.364883
553.000000	46.314757
552.000000	46.227345
551.000000	46.126355
550.000000	46.088579
549.000000	45.990295
548.000000	45.890189
547.000000	45.849320
546.000000	45.734430
545.000000	45.697728
544.000000	45.626402
543.000000	45.534130
542.000000	45.460404
541.000000	45.384052
540.000000	45.248944
539.000000	45.166852
538.000000	45.093355
537.000000	45.021148
536.000000	44.923680
535.000000	44.860962
534.000000	44.760530
533.000000	44.693138
532.000000	44.608465
531.000000	44.561904
530.000000	44.457933
529.000000	44.384274
528.000000	44.292562
527.000000	44.228037
526.000000	44.132297
525.000000	44.046145
524.000000	43.953711
523.000000	43.860532
522.000000	43.759373
521.000000	43.676713
520.000000	43.567254
519.000000	43.481929
518.000000	43.406717
517.000000	43.316699
516.000000	43.217180
515.000000	43.132176
514.000000	43.043745
513.000000	42.927310
512.000000	42.834641
511.000000	42.753870
510.000000	42.610878
509.000000	42.499960
508.000000	42.371521
507.000000	42.245928
506.000000	42.121815
505.000000	42.043780
504.000000	41.915561
503.000000	41.826478
502.000000	41.701901
501.000000	41.568552
500.000000	41.445424
499.000000	41.349214
498.000000	41.220193
497.000000	41.088188
496.000000	40.939505
495.000000	40.788376
494.000000	40.661839
493.000000	40.521861
492.000000	40.419472
491.000000	40.250045
490.000000	40.096825
489.000000	39.964037
488.000000	39.808908
487.000000	39.634375
486.000000	39.490509
485.000000	39.344912
484.000000	39.203808
483.000000	39.066429
482.000000	38.867426
481.000000	38.732037
480.000000	38.559271
479.000000	38.403623
478.000000	38.246104
477.000000	38.054818
476.000000	37.871770
475.000000	37.713781
474.000000	37.534855
473.000000	37.354254
472.000000	37.180329
471.000000	36.999386
470.000000	36.826191
469.000000	36.634748
468.000000	36.427317
467.000000	36.244429
466.000000	36.066873
465.000000	35.853762
464.000000	35.637823
463.000000	35.440224
462.000000	35.269194
461.000000	35.083631
460.000000	34.867642
459.000000	34.627335
458.000000	34.401132
457.000000	34.225267
456.000000	34.008151
455.000000	33.769884
454.000000	33.536625
453.000000	33.306836
452.000000	33.098397
451.000000	32.893136
450.000000	32.652238
449.000000	32.400380
448.000000	32.193871
447.000000	31.973530
446.000000	31.717443
445.000000	31.500647
444.000000	31.267901
443.000000	30.992619
442.000000	30.758511
441.000000	30.523076
440.000000	30.305469
439.000000	30.064509
438.000000	29.804271
437.000000	29.553353
436.000000	29.295813
435.000000	29.019901
434.000000	28.775445
433.000000	28.530889
432.000000	28.251611
431.000000	27.988792
430.000000	27.732945
429.000000	27.447448
428.000000	27.179780
427.000000	26.915949
426.000000	26.634612
425.000000	26.338724
424.000000	26.048804
423.000000	25.793681
422.000000	25.550944
421.000000	25.281408
420.000000	25.021434
419.000000	24.742143
418.000000	24.501320
417.000000	24.281483
416.000000	24.049586
415.000000	23.812586
414.000000	23.594045
413.000000	23.441776
412.000000	23.284120
411.000000	23.106214
410.000000	22.956099
409.000000	22.789716
408.000000	22.681748
407.000000	22.577886
406.000000	22.459090
405.000000	22.332180
404.000000	22.243032
403.000000	22.195880
402.000000	22.097708
401.000000	22.038778
400.000000	21.925892
399.000000	21.900671
398.000000	21.826463
397.000000	21.772184
396.000000	21.708489
395.000000	21.630634
394.000000	21.548702
393.000000	21.438807
392.000000	21.369115
391.000000	21.279840
390.000000	21.230662
389.000000	21.129645
388.000000	21.048886
387.000000	20.908557
386.000000	20.854346
385.000000	20.753213
384.000000	20.604325
383.000000	20.507289
382.000000	20.359345
381.000000	20.306513
380.000000	20.189548
379.000000	19.971602
378.000000	19.844101
377.000000	19.789176
376.000000	19.667827
375.000000	19.489280
374.000000	19.335425
373.000000	19.253795
372.000000	19.077160
371.000000	18.930061
370.000000	18.807808
369.000000	18.773563
368.000000	18.654539
367.000000	18.423262
366.000000	18.318255
365.000000	18.138961
364.000000	18.078448
363.000000	17.979615
362.000000	17.852524
361.000000	17.740108
360.000000	17.600281
359.000000	17.493379
358.000000	17.417162
357.000000	17.275036
356.000000	17.128457
355.000000	17.075418
354.000000	16.957821
353.000000	16.898570
352.000000	16.718647
351.000000	16.606660
350.000000	16.558937
349.000000	16.416101
348.000000	16.308781
347.000000	16.328126
346.000000	16.203376
345.000000	16.066082
344.000000	16.023568
343.000000	15.864584
342.000000	15.827570
341.000000	15.737936
340.000000	15.589464
339.000000	15.413297
338.000000	15.437623
337.000000	15.291798
336.000000	15.316323
335.000000	15.065328
334.000000	15.046477
333.000000	14.972406
332.000000	14.910466
331.000000	14.842797
330.000000	14.732546
329.000000	14.690059
328.000000	14.644953
327.000000	14.469180
326.000000	14.456352
325.000000	14.322460
324.000000	14.237306
323.000000	14.238471
322.000000	14.168976
321.000000	14.072325
320.000000	13.982320
319.000000	13.967037
318.000000	13.942585
317.000000	13.860026
316.000000	13.831065
315.000000	13.775335
314.000000	13.631129
313.000000	13.577194
312.000000	13.505180
311.000000	13.410561
310.000000	13.385471
309.000000	13.308214
308.000000	13.260733
307.000000	13.136111
306.000000	13.093509
305.000000	13.004094
304.000000	12.958751
303.000000	12.822009
302.000000	12.734855
301.000000	12.663644
300.000000	12.593656
299.000000	12.458996
298.000000	12.364209
297.000000	12.263441
296.000000	12.060190
295.000000	11.946318
294.000000	11.696033
293.000000	11.453271
292.000000	11.326570
291.000000	11.129382
290.000000	11.077719
289.000000	10.999971
288.000000	10.950266
287.000000	10.961680
286.000000	11.037719
285.000000	11.038508
284.000000	11.127261
283.000000	11.229180
282.000000	11.311267
281.000000	11.381479
280.000000	11.491927
279.000000	11.595196
278.000000	11.738277
277.000000	11.811764
276.000000	11.877288
275.000000	12.034434
274.000000	12.146974
273.000000	12.227279
272.000000	12.402062
271.000000	12.540434
270.000000	12.583689
269.000000	12.624353
268.000000	12.791357
267.000000	12.894669
266.000000	12.990669
265.000000	13.143472
264.000000	13.295626
263.000000	13.477758
262.000000	13.588007
261.000000	13.711718
260.000000	13.902129
259.000000	14.009238
258.000000	14.118539
257.000000	14.265250
256.000000	14.402002
255.000000	14.519350
254.000000	14.579523
253.000000	14.603576
252.000000	14.646294
251.000000	14.698192
250.000000	14.716463
249.000000	14.631033
248.000000	14.542848
247.000000	14.462862
246.000000	14.393859
245.000000	14.286486
244.000000	14.239266
243.000000	14.253792
242.000000	14.230921
241.000000	14.293026
240.000000	14.471186
239.000000	14.564275
238.000000	14.685324
237.000000	14.862391
236.000000	15.086803
235.000000	15.323923
234.000000	15.559217
233.000000	15.781190
232.000000	15.976920
231.000000	16.157235
230.000000	16.255154
229.000000	16.406458
228.000000	16.532895
227.000000	16.717676
226.000000	16.972413
225.000000	17.111465
224.000000	17.218046
223.000000	17.365418
222.000000	17.617725
221.000000	17.900426
220.000000	18.156706
219.000000	18.292178
218.000000	18.594771
217.000000	18.885666
216.000000	19.142351
215.000000	19.468467
214.000000	19.749840
213.000000	20.147820
212.000000	20.555995
211.000000	20.885447
210.000000	21.237166
209.000000	21.541670
208.000000	21.991105
207.000000	22.433839
206.000000	22.924373
205.000000	23.381536
204.000000	24.009540
203.000000	24.779178
202.000000	25.281888
201.000000	25.820256
200.000000	26.605093
