PE UV       SUBTECH     SPECTRUM    ASCII       PEDS        4.00        
   -1
SGRAG1_2.Sample.asc
23/09/07
11:21:53.00
23/09/07
11:21:53.00
Administrator

250.000000
1
Lambda 750
750N8071901
PerkinElmer UV WinLab 6.0.4.0738 / 1.61.00 Lambda 900

0
0
3350/servo 860.8/2
0
0
UV/VIS
1
1
1
CommonBeamDepol,150mm sphere / downward view
0
0
0
0
Program
Program
3350/servo 860.8/2
3350/0.2 860.8/0.2
3350/0.2 860.8/0.2
0
1
 
 
 
0
 
860.8
319.2
860.8
Front
100
on
 
 
0
0
0
 
0
 
 
 
0
 
 
0
0
0
0
0
 
 
 
 
0
0


0
0
#HDR
-1
-1
#GR
nm
%R
1.0
0.0
2500.000000
-10.000000
226
8
80.642639
12.957377
#DATA
2500.000000	26.615327
2490.000000	26.601402
2480.000000	27.678749
2470.000000	29.377105
2460.000000	29.855136
2450.000000	29.247852
2440.000000	29.725887
2430.000000	32.457175
2420.000000	30.716048
2410.000000	32.287034
2400.000000	31.163496
2390.000000	34.483319
2380.000000	33.966478
2370.000000	32.806846
2360.000000	33.196729
2350.000000	34.188730
2340.000000	32.359861
2330.000000	33.805910
2320.000000	32.639706
2310.000000	31.153527
2300.000000	31.102435
2290.000000	32.202139
2280.000000	32.374021
2270.000000	34.808098
2260.000000	37.187229
2250.000000	38.810327
2240.000000	39.330399
2230.000000	38.640635
2220.000000	37.934190
2210.000000	37.121922
2200.000000	36.172980
2190.000000	36.701558
2180.000000	36.696484
2170.000000	38.244632
2160.000000	39.973580
2150.000000	41.507686
2140.000000	42.330170
2130.000000	42.337510
2120.000000	42.567806
2110.000000	42.343087
2100.000000	42.123462
2090.000000	40.492726
2080.000000	38.705562
2070.000000	37.100917
2060.000000	35.915687
2050.000000	36.632642
2040.000000	37.186893
2030.000000	36.858157
2020.000000	35.858196
2010.000000	34.468146
2000.000000	32.783092
1990.000000	31.073273
1980.000000	29.714082
1970.000000	28.480126
1960.000000	28.333874
1950.000000	29.263193
1940.000000	30.689482
1930.000000	34.675177
1920.000000	40.691312
1910.000000	47.927017
1900.000000	53.845549
1890.000000	58.839933
1880.000000	61.547751
1870.000000	62.450021
1860.000000	62.872132
1850.000000	62.646186
1840.000000	62.339478
1830.000000	61.865289
1820.000000	61.293166
1810.000000	61.011755
1800.000000	60.692132
1790.000000	60.249152
1780.000000	59.778148
1770.000000	59.511442
1760.000000	58.945193
1750.000000	58.505033
1740.000000	58.883706
1730.000000	60.237050
1720.000000	60.942886
1710.000000	61.404876
1700.000000	62.161277
1690.000000	63.912570
1680.000000	65.504829
1670.000000	66.091094
1660.000000	66.135676
1650.000000	65.746925
1640.000000	65.275442
1630.000000	64.587037
1620.000000	63.749957
1610.000000	62.998634
1600.000000	62.315934
1590.000000	61.646168
1580.000000	61.062724
1570.000000	60.678528
1560.000000	60.078483
1550.000000	58.956358
1540.000000	58.045435
1530.000000	57.400162
1520.000000	56.974348
1510.000000	56.589519
1500.000000	56.545756
1490.000000	56.709259
1480.000000	56.890000
1470.000000	57.391237
1460.000000	58.259970
1450.000000	59.544682
1440.000000	61.324242
1430.000000	63.584963
1420.000000	66.525158
1410.000000	69.472588
1400.000000	71.728054
1390.000000	73.028700
1380.000000	73.743211
1370.000000	74.370870
1360.000000	75.084436
1350.000000	75.686012
1340.000000	76.029817
1330.000000	76.454334
1320.000000	76.866717
1310.000000	76.983762
1300.000000	76.941637
1290.000000	76.959434
1280.000000	76.967638
1270.000000	77.076207
1260.000000	77.045326
1250.000000	76.942346
1240.000000	76.916263
1230.000000	76.633643
1220.000000	76.379552
1210.000000	76.087024
1200.000000	76.065701
1190.000000	76.422647
1180.000000	76.938495
1170.000000	77.645932
1160.000000	78.235125
1150.000000	78.705888
1140.000000	79.038702
1130.000000	79.142044
1120.000000	79.226486
1110.000000	79.358023
1100.000000	79.353935
1090.000000	79.347056
1080.000000	79.344753
1070.000000	79.323010
1060.000000	79.333014
1050.000000	79.289998
1040.000000	79.250570
1030.000000	79.188894
1020.000000	79.214815
1010.000000	79.393002
1000.000000	79.475446
990.000000	79.564483
980.000000	79.683558
970.000000	79.833872
960.000000	79.986236
950.000000	80.009262
940.000000	80.089280
930.000000	80.212556
920.000000	80.107622
910.000000	80.275557
900.000000	80.379670
890.000000	80.327437
880.000000	80.369205
870.000000	80.642639
860.000000	80.495412
850.000000	79.141917
840.000000	80.193668
830.000000	79.984104
820.000000	79.884258
810.000000	79.903793
800.000000	80.078289
790.000000	79.590550
780.000000	79.599227
770.000000	79.555168
760.000000	79.283611
750.000000	79.207048
740.000000	79.017384
730.000000	78.912293
720.000000	78.691790
710.000000	78.331224
700.000000	78.236766
690.000000	77.801478
680.000000	77.569041
670.000000	77.200822
660.000000	76.901007
650.000000	76.436531
640.000000	76.133208
630.000000	75.482045
620.000000	74.954077
610.000000	74.398119
600.000000	73.917802
590.000000	73.121246
580.000000	72.572371
570.000000	71.848552
560.000000	71.089487
550.000000	70.296053
540.000000	69.447953
530.000000	68.711999
520.000000	67.810537
510.000000	66.934631
500.000000	65.933267
490.000000	65.010708
480.000000	63.943643
470.000000	62.943795
460.000000	61.600416
450.000000	60.180368
440.000000	58.609198
430.000000	56.652685
420.000000	54.632872
410.000000	52.336189
400.000000	50.104475
390.000000	48.052042
380.000000	46.033430
370.000000	43.578164
360.000000	40.964067
350.000000	38.929951
340.000000	35.668116
330.000000	34.395292
320.000000	31.670651
310.000000	30.263604
300.000000	27.276176
290.000000	20.217483
280.000000	15.410589
270.000000	13.198847
260.000000	12.957377
250.000000	13.853446
