PE UV       SUBTECH     SPECTRUM    ASCII       PEDS        4.00        
   -1
TTmshap12.Sample.asc
18/03/19
14:41:49.00
18/03/19
14:41:49.00
Administrator

200.000000
1
Lambda 750
750N8071901
PerkinElmer UV WinLab 6.0.4.0738 / 1.61.00 Lambda 900

0
0
3350/servo 860.8/2
0
0
UV/VIS
1
1
1
CommonBeamDepol,150mm sphere / downward view
0
0
0
0
Program
Program
3350/servo 860.8/2
3350/0.2 860.8/0.2
3350/0.2 860.8/0.2
0
1
 
 
 
0
 
860.8
319.2
860.8
Front
100
on
 
 
0
0
0
 
0
 
 
 
0
 
 
0
0
0
0
0
 
 
 
 
0
0


0
0
#HDR
-1
-1
#GR
nm
%T
1.0
0.0
2350.000000
-1.000000
2151
8
10.205747
-0.030733
#DATA
2350.000000	2.228132
2349.000000	2.682489
2348.000000	2.378018
2347.000000	2.675249
2346.000000	2.392549
2345.000000	2.414393
2344.000000	2.469137
2343.000000	1.753199
2342.000000	2.271791
2341.000000	2.068211
2340.000000	2.290836
2339.000000	2.798150
2338.000000	2.705277
2337.000000	3.136457
2336.000000	3.127261
2335.000000	3.124564
2334.000000	3.072121
2333.000000	3.205350
2332.000000	3.131465
2331.000000	3.189172
2330.000000	3.107910
2329.000000	2.961757
2328.000000	3.103620
2327.000000	2.854913
2326.000000	2.844715
2325.000000	2.948510
2324.000000	2.891343
2323.000000	2.815718
2322.000000	2.763779
2321.000000	2.716466
2320.000000	2.738460
2319.000000	2.811738
2318.000000	3.115690
2317.000000	2.839301
2316.000000	2.867467
2315.000000	2.544295
2314.000000	2.642814
2313.000000	2.730027
2312.000000	2.475893
2311.000000	2.525253
2310.000000	2.779583
2309.000000	2.773797
2308.000000	2.490902
2307.000000	2.440715
2306.000000	2.458151
2305.000000	2.644392
2304.000000	2.608260
2303.000000	2.483578
2302.000000	2.541656
2301.000000	2.514443
2300.000000	2.416390
2299.000000	2.514123
2298.000000	2.433932
2297.000000	2.292076
2296.000000	2.331324
2295.000000	2.361826
2294.000000	2.078870
2293.000000	2.251860
2292.000000	2.376894
2291.000000	2.396472
2290.000000	2.278647
2289.000000	2.416208
2288.000000	2.425212
2287.000000	2.435996
2286.000000	2.406983
2285.000000	2.495568
2284.000000	2.392366
2283.000000	2.259564
2282.000000	2.230022
2281.000000	2.295754
2280.000000	2.311577
2279.000000	2.368455
2278.000000	2.301893
2277.000000	2.214966
2276.000000	2.214288
2275.000000	2.135421
2274.000000	2.294130
2273.000000	2.351789
2272.000000	2.346938
2271.000000	2.255770
2270.000000	2.257102
2269.000000	2.254628
2268.000000	2.353686
2267.000000	2.426496
2266.000000	2.464874
2265.000000	2.492684
2264.000000	2.499977
2263.000000	2.454033
2262.000000	2.534298
2261.000000	2.505371
2260.000000	2.478558
2259.000000	2.633912
2258.000000	2.704030
2257.000000	2.794335
2256.000000	2.764255
2255.000000	2.697928
2254.000000	2.820688
2253.000000	2.835363
2252.000000	2.822746
2251.000000	2.899952
2250.000000	2.946723
2249.000000	2.990876
2248.000000	3.131839
2247.000000	3.200608
2246.000000	3.175041
2245.000000	3.218180
2244.000000	3.258907
2243.000000	3.265691
2242.000000	3.369651
2241.000000	3.403920
2240.000000	3.395025
2239.000000	3.427240
2238.000000	3.435742
2237.000000	3.537450
2236.000000	3.519045
2235.000000	3.532989
2234.000000	3.506592
2233.000000	3.516127
2232.000000	3.576032
2231.000000	3.420178
2230.000000	3.503749
2229.000000	3.580463
2228.000000	3.561355
2227.000000	3.583980
2226.000000	3.628547
2225.000000	3.644663
2224.000000	3.579355
2223.000000	3.489446
2222.000000	3.455321
2221.000000	3.564382
2220.000000	3.698329
2219.000000	3.693751
2218.000000	3.505258
2217.000000	3.430286
2216.000000	3.444058
2215.000000	3.533135
2214.000000	3.449703
2213.000000	3.471572
2212.000000	3.437283
2211.000000	3.459255
2210.000000	3.463905
2209.000000	3.304161
2208.000000	3.283294
2207.000000	3.389410
2206.000000	3.298673
2205.000000	3.328836
2204.000000	3.396354
2203.000000	3.402177
2202.000000	3.383149
2201.000000	3.374603
2200.000000	3.360308
2199.000000	3.372429
2198.000000	3.431321
2197.000000	3.293024
2196.000000	3.133093
2195.000000	3.076199
2194.000000	3.147262
2193.000000	3.036926
2192.000000	3.052529
2191.000000	2.990463
2190.000000	3.170643
2189.000000	3.071438
2188.000000	3.073737
2187.000000	3.105640
2186.000000	3.036752
2185.000000	2.823752
2184.000000	3.069543
2183.000000	3.049346
2182.000000	3.034234
2181.000000	2.984306
2180.000000	2.945130
2179.000000	2.989048
2178.000000	2.943987
2177.000000	2.907062
2176.000000	2.941905
2175.000000	2.961759
2174.000000	2.901648
2173.000000	2.837892
2172.000000	3.025298
2171.000000	3.022532
2170.000000	3.082649
2169.000000	3.156924
2168.000000	2.975936
2167.000000	2.937796
2166.000000	3.025404
2165.000000	3.151201
2164.000000	3.047336
2163.000000	3.056692
2162.000000	2.909714
2161.000000	3.044541
2160.000000	3.198807
2159.000000	3.233520
2158.000000	3.226044
2157.000000	3.180428
2156.000000	3.201937
2155.000000	3.174961
2154.000000	3.269892
2153.000000	3.445296
2152.000000	3.367172
2151.000000	3.348638
2150.000000	3.399451
2149.000000	3.457434
2148.000000	3.512915
2147.000000	3.505270
2146.000000	3.397845
2145.000000	3.650164
2144.000000	3.515259
2143.000000	3.511122
2142.000000	3.697355
2141.000000	3.467105
2140.000000	3.796160
2139.000000	3.784466
2138.000000	3.886285
2137.000000	3.745587
2136.000000	3.718617
2135.000000	3.712306
2134.000000	3.805438
2133.000000	3.558905
2132.000000	3.734504
2131.000000	3.938741
2130.000000	3.904992
2129.000000	3.881663
2128.000000	3.740068
2127.000000	3.782186
2126.000000	3.785589
2125.000000	3.741068
2124.000000	3.847008
2123.000000	3.662425
2122.000000	3.778487
2121.000000	3.889776
2120.000000	3.887604
2119.000000	3.729742
2118.000000	3.808625
2117.000000	3.933167
2116.000000	3.924170
2115.000000	4.016653
2114.000000	3.925706
2113.000000	3.839462
2112.000000	3.896607
2111.000000	3.909144
2110.000000	3.933157
2109.000000	4.044740
2108.000000	4.029977
2107.000000	3.896409
2106.000000	3.985689
2105.000000	3.863027
2104.000000	3.885408
2103.000000	3.950710
2102.000000	3.912419
2101.000000	3.907304
2100.000000	3.977982
2099.000000	3.909905
2098.000000	3.843664
2097.000000	3.927093
2096.000000	3.954099
2095.000000	3.896302
2094.000000	3.998004
2093.000000	3.957505
2092.000000	3.894115
2091.000000	4.007543
2090.000000	3.935515
2089.000000	3.893660
2088.000000	3.929355
2087.000000	3.827590
2086.000000	3.916725
2085.000000	3.893606
2084.000000	3.939895
2083.000000	3.905990
2082.000000	3.851131
2081.000000	3.785111
2080.000000	3.789370
2079.000000	3.876689
2078.000000	3.757158
2077.000000	3.813879
2076.000000	3.755626
2075.000000	3.662330
2074.000000	3.579350
2073.000000	3.676356
2072.000000	3.659386
2071.000000	3.561100
2070.000000	3.544252
2069.000000	3.566706
2068.000000	3.527581
2067.000000	3.465505
2066.000000	3.429295
2065.000000	3.370783
2064.000000	3.345385
2063.000000	3.276966
2062.000000	3.283535
2061.000000	3.228069
2060.000000	3.173996
2059.000000	3.114112
2058.000000	3.099139
2057.000000	3.115708
2056.000000	3.056143
2055.000000	3.072716
2054.000000	3.044064
2053.000000	2.978566
2052.000000	2.960618
2051.000000	2.882796
2050.000000	2.800485
2049.000000	2.853423
2048.000000	2.884282
2047.000000	2.797908
2046.000000	2.735745
2045.000000	2.743589
2044.000000	2.743975
2043.000000	2.771697
2042.000000	2.789716
2041.000000	2.802886
2040.000000	2.782214
2039.000000	2.765628
2038.000000	2.772731
2037.000000	2.767596
2036.000000	2.771979
2035.000000	2.767038
2034.000000	2.779647
2033.000000	2.832642
2032.000000	2.869015
2031.000000	2.886584
2030.000000	2.898355
2029.000000	2.915198
2028.000000	2.934436
2027.000000	2.938471
2026.000000	2.999350
2025.000000	3.032328
2024.000000	3.040906
2023.000000	3.054197
2022.000000	3.056972
2021.000000	3.076150
2020.000000	3.052170
2019.000000	2.988932
2018.000000	3.059445
2017.000000	3.097576
2016.000000	3.040979
2015.000000	3.059129
2014.000000	3.065801
2013.000000	3.047408
2012.000000	3.058548
2011.000000	3.070962
2010.000000	3.065717
2009.000000	3.039897
2008.000000	3.007632
2007.000000	2.986701
2006.000000	2.967605
2005.000000	2.958139
2004.000000	2.976059
2003.000000	2.959130
2002.000000	2.880433
2001.000000	2.859798
2000.000000	2.830139
1999.000000	2.853681
1998.000000	2.837687
1997.000000	2.805340
1996.000000	2.776661
1995.000000	2.758286
1994.000000	2.727382
1993.000000	2.691606
1992.000000	2.657689
1991.000000	2.644301
1990.000000	2.650032
1989.000000	2.637060
1988.000000	2.634101
1987.000000	2.591720
1986.000000	2.579996
1985.000000	2.563991
1984.000000	2.549636
1983.000000	2.525937
1982.000000	2.487919
1981.000000	2.505364
1980.000000	2.511228
1979.000000	2.439547
1978.000000	2.423319
1977.000000	2.456272
1976.000000	2.418694
1975.000000	2.406229
1974.000000	2.357955
1973.000000	2.319577
1972.000000	2.317562
1971.000000	2.306542
1970.000000	2.294212
1969.000000	2.308897
1968.000000	2.275144
1967.000000	2.260916
1966.000000	2.256834
1965.000000	2.240789
1964.000000	2.222150
1963.000000	2.219938
1962.000000	2.173856
1961.000000	2.160716
1960.000000	2.189036
1959.000000	2.129040
1958.000000	2.129943
1957.000000	2.138827
1956.000000	2.112495
1955.000000	2.073337
1954.000000	2.157232
1953.000000	2.123032
1952.000000	2.125029
1951.000000	2.144210
1950.000000	2.095669
1949.000000	2.069355
1948.000000	2.089054
1947.000000	2.127210
1946.000000	2.099929
1945.000000	2.050035
1944.000000	2.033951
1943.000000	2.085183
1942.000000	2.119002
1941.000000	2.065304
1940.000000	2.129590
1939.000000	2.171659
1938.000000	2.191286
1937.000000	2.155246
1936.000000	2.241692
1935.000000	2.182413
1934.000000	2.135716
1933.000000	2.276703
1932.000000	2.248597
1931.000000	2.262227
1930.000000	2.281437
1929.000000	2.357468
1928.000000	2.386123
1927.000000	2.420554
1926.000000	2.409332
1925.000000	2.483569
1924.000000	2.534355
1923.000000	2.515814
1922.000000	2.597006
1921.000000	2.758930
1920.000000	2.712841
1919.000000	2.745875
1918.000000	2.695666
1917.000000	2.862222
1916.000000	2.852540
1915.000000	2.936977
1914.000000	3.071137
1913.000000	3.215063
1912.000000	3.244001
1911.000000	3.217785
1910.000000	3.310407
1909.000000	3.390138
1908.000000	3.487578
1907.000000	3.659759
1906.000000	3.695408
1905.000000	3.821559
1904.000000	3.942412
1903.000000	3.993450
1902.000000	4.138891
1901.000000	4.405832
1900.000000	4.518968
1899.000000	4.588718
1898.000000	4.696293
1897.000000	4.818321
1896.000000	4.994189
1895.000000	5.095046
1894.000000	5.267910
1893.000000	5.426915
1892.000000	5.572801
1891.000000	5.716843
1890.000000	5.826906
1889.000000	5.992028
1888.000000	6.113464
1887.000000	6.202028
1886.000000	6.377885
1885.000000	6.509363
1884.000000	6.624911
1883.000000	6.773724
1882.000000	6.870299
1881.000000	7.000751
1880.000000	7.120158
1879.000000	7.196399
1878.000000	7.298494
1877.000000	7.385900
1876.000000	7.540663
1875.000000	7.617416
1874.000000	7.689340
1873.000000	7.744570
1872.000000	7.815632
1871.000000	7.882919
1870.000000	7.937888
1869.000000	8.002186
1868.000000	8.069467
1867.000000	8.053563
1866.000000	8.079827
1865.000000	8.117465
1864.000000	8.122780
1863.000000	8.193508
1862.000000	8.193861
1861.000000	8.198509
1860.000000	8.201935
1859.000000	8.222501
1858.000000	8.226695
1857.000000	8.208752
1856.000000	8.242941
1855.000000	8.298491
1854.000000	8.345951
1853.000000	8.348243
1852.000000	8.334490
1851.000000	8.311483
1850.000000	8.301585
1849.000000	8.307106
1848.000000	8.297656
1847.000000	8.297331
1846.000000	8.316507
1845.000000	8.324478
1844.000000	8.293204
1843.000000	8.282842
1842.000000	8.319997
1841.000000	8.283695
1840.000000	8.276983
1839.000000	8.257194
1838.000000	8.252678
1837.000000	8.193130
1836.000000	8.169194
1835.000000	8.174895
1834.000000	8.116627
1833.000000	8.099332
1832.000000	8.084998
1831.000000	8.046067
1830.000000	8.052191
1829.000000	8.030024
1828.000000	8.017674
1827.000000	8.004592
1826.000000	7.976859
1825.000000	7.962178
1824.000000	7.963890
1823.000000	7.953407
1822.000000	7.937562
1821.000000	7.919719
1820.000000	7.898717
1819.000000	7.866179
1818.000000	7.855006
1817.000000	7.852429
1816.000000	7.833100
1815.000000	7.812898
1814.000000	7.805206
1813.000000	7.805187
1812.000000	7.781080
1811.000000	7.764199
1810.000000	7.748536
1809.000000	7.733219
1808.000000	7.728360
1807.000000	7.729063
1806.000000	7.722263
1805.000000	7.703882
1804.000000	7.688385
1803.000000	7.673833
1802.000000	7.663519
1801.000000	7.647045
1800.000000	7.642711
1799.000000	7.626915
1798.000000	7.618846
1797.000000	7.629209
1796.000000	7.618836
1795.000000	7.601531
1794.000000	7.620969
1793.000000	7.636071
1792.000000	7.612031
1791.000000	7.597322
1790.000000	7.599375
1789.000000	7.596585
1788.000000	7.580247
1787.000000	7.578916
1786.000000	7.584030
1785.000000	7.571914
1784.000000	7.565560
1783.000000	7.556518
1782.000000	7.546320
1781.000000	7.545260
1780.000000	7.537097
1779.000000	7.525082
1778.000000	7.510951
1777.000000	7.474659
1776.000000	7.442400
1775.000000	7.416878
1774.000000	7.393466
1773.000000	7.374187
1772.000000	7.359538
1771.000000	7.346752
1770.000000	7.318015
1769.000000	7.299559
1768.000000	7.268630
1767.000000	7.238006
1766.000000	7.224113
1765.000000	7.225501
1764.000000	7.189524
1763.000000	7.166477
1762.000000	7.147213
1761.000000	7.128967
1760.000000	7.105718
1759.000000	7.086406
1758.000000	7.090613
1757.000000	7.036649
1756.000000	7.019949
1755.000000	7.016159
1754.000000	6.982887
1753.000000	6.965403
1752.000000	6.956319
1751.000000	6.916224
1750.000000	6.911441
1749.000000	6.915786
1748.000000	6.862672
1747.000000	6.838974
1746.000000	6.832046
1745.000000	6.811923
1744.000000	6.771567
1743.000000	6.755001
1742.000000	6.755679
1741.000000	6.732750
1740.000000	6.722505
1739.000000	6.716997
1738.000000	6.699357
1737.000000	6.644225
1736.000000	6.635782
1735.000000	6.642087
1734.000000	6.654573
1733.000000	6.649749
1732.000000	6.617385
1731.000000	6.630044
1730.000000	6.627636
1729.000000	6.635661
1728.000000	6.655321
1727.000000	6.665454
1726.000000	6.663801
1725.000000	6.682623
1724.000000	6.721449
1723.000000	6.741692
1722.000000	6.759051
1721.000000	6.751301
1720.000000	6.778998
1719.000000	6.827044
1718.000000	6.862883
1717.000000	6.883360
1716.000000	6.891570
1715.000000	6.948106
1714.000000	6.962562
1713.000000	7.005766
1712.000000	7.032058
1711.000000	7.029494
1710.000000	7.034702
1709.000000	7.052058
1708.000000	7.067334
1707.000000	7.101577
1706.000000	7.104981
1705.000000	7.119666
1704.000000	7.130095
1703.000000	7.142037
1702.000000	7.113234
1701.000000	7.125583
1700.000000	7.119575
1699.000000	7.102576
1698.000000	7.165435
1697.000000	7.167825
1696.000000	7.179135
1695.000000	7.170633
1694.000000	7.158538
1693.000000	7.177653
1692.000000	7.210341
1691.000000	7.241465
1690.000000	7.250551
1689.000000	7.271444
1688.000000	7.321003
1687.000000	7.380940
1686.000000	7.405914
1685.000000	7.424230
1684.000000	7.483974
1683.000000	7.517943
1682.000000	7.597291
1681.000000	7.657341
1680.000000	7.675141
1679.000000	7.739155
1678.000000	7.783313
1677.000000	7.837499
1676.000000	7.908085
1675.000000	7.958362
1674.000000	8.015564
1673.000000	8.087673
1672.000000	8.130772
1671.000000	8.167071
1670.000000	8.224313
1669.000000	8.282427
1668.000000	8.305730
1667.000000	8.345528
1666.000000	8.381931
1665.000000	8.403360
1664.000000	8.433799
1663.000000	8.437933
1662.000000	8.473924
1661.000000	8.496552
1660.000000	8.511623
1659.000000	8.554189
1658.000000	8.577089
1657.000000	8.591518
1656.000000	8.604122
1655.000000	8.616471
1654.000000	8.619399
1653.000000	8.625140
1652.000000	8.628550
1651.000000	8.620562
1650.000000	8.632541
1649.000000	8.630315
1648.000000	8.618236
1647.000000	8.624525
1646.000000	8.592814
1645.000000	8.576239
1644.000000	8.573213
1643.000000	8.546959
1642.000000	8.538992
1641.000000	8.541477
1640.000000	8.554064
1639.000000	8.528930
1638.000000	8.496823
1637.000000	8.500418
1636.000000	8.472069
1635.000000	8.448537
1634.000000	8.450002
1633.000000	8.444234
1632.000000	8.413660
1631.000000	8.394724
1630.000000	8.386720
1629.000000	8.363118
1628.000000	8.329873
1627.000000	8.310501
1626.000000	8.306795
1625.000000	8.282978
1624.000000	8.263814
1623.000000	8.268452
1622.000000	8.254203
1621.000000	8.223603
1620.000000	8.194298
1619.000000	8.173736
1618.000000	8.159562
1617.000000	8.147410
1616.000000	8.123571
1615.000000	8.104994
1614.000000	8.080564
1613.000000	8.066561
1612.000000	8.057802
1611.000000	8.025901
1610.000000	8.004053
1609.000000	7.972153
1608.000000	7.953100
1607.000000	7.934768
1606.000000	7.904998
1605.000000	7.878386
1604.000000	7.854195
1603.000000	7.839642
1602.000000	7.815954
1601.000000	7.792679
1600.000000	7.763743
1599.000000	7.742639
1598.000000	7.733163
1597.000000	7.711400
1596.000000	7.688380
1595.000000	7.665200
1594.000000	7.648883
1593.000000	7.643752
1592.000000	7.625215
1591.000000	7.595110
1590.000000	7.578166
1589.000000	7.552713
1588.000000	7.529500
1587.000000	7.528031
1586.000000	7.525412
1585.000000	7.507271
1584.000000	7.476568
1583.000000	7.450202
1582.000000	7.433459
1581.000000	7.416577
1580.000000	7.404114
1579.000000	7.396080
1578.000000	7.390395
1577.000000	7.364003
1576.000000	7.340144
1575.000000	7.320004
1574.000000	7.306000
1573.000000	7.289093
1572.000000	7.265277
1571.000000	7.254969
1570.000000	7.240462
1569.000000	7.219588
1568.000000	7.196331
1567.000000	7.188141
1566.000000	7.185090
1565.000000	7.172099
1564.000000	7.154245
1563.000000	7.145445
1562.000000	7.126286
1561.000000	7.106224
1560.000000	7.102786
1559.000000	7.089177
1558.000000	7.076459
1557.000000	7.068753
1556.000000	7.056382
1555.000000	7.049387
1554.000000	7.038658
1553.000000	7.031349
1552.000000	7.010218
1551.000000	6.984766
1550.000000	6.973183
1549.000000	6.968617
1548.000000	6.943848
1547.000000	6.923019
1546.000000	6.905213
1545.000000	6.873188
1544.000000	6.839949
1543.000000	6.818329
1542.000000	6.782748
1541.000000	6.745458
1540.000000	6.714420
1539.000000	6.688076
1538.000000	6.656819
1537.000000	6.617437
1536.000000	6.586026
1535.000000	6.566062
1534.000000	6.530436
1533.000000	6.502238
1532.000000	6.467117
1531.000000	6.449335
1530.000000	6.421426
1529.000000	6.442821
1528.000000	6.500546
1527.000000	6.515121
1526.000000	6.483633
1525.000000	6.432735
1524.000000	6.375626
1523.000000	6.322350
1522.000000	6.284121
1521.000000	6.249531
1520.000000	6.262347
1519.000000	6.298912
1518.000000	6.287572
1517.000000	6.254928
1516.000000	6.227343
1515.000000	6.206842
1514.000000	6.182020
1513.000000	6.178340
1512.000000	6.159142
1511.000000	6.149171
1510.000000	6.126788
1509.000000	6.106935
1508.000000	6.089259
1507.000000	6.117083
1506.000000	6.118886
1505.000000	6.102950
1504.000000	6.083694
1503.000000	6.071868
1502.000000	6.048110
1501.000000	6.054889
1500.000000	6.059093
1499.000000	6.034678
1498.000000	6.044431
1497.000000	6.031973
1496.000000	6.028895
1495.000000	6.019217
1494.000000	6.011512
1493.000000	6.028573
1492.000000	6.036225
1491.000000	6.049868
1490.000000	6.059966
1489.000000	6.040268
1488.000000	6.049503
1487.000000	6.066631
1486.000000	6.081358
1485.000000	6.089238
1484.000000	6.101648
1483.000000	6.119326
1482.000000	6.142225
1481.000000	6.126532
1480.000000	6.130664
1479.000000	6.154257
1478.000000	6.178859
1477.000000	6.190262
1476.000000	6.226958
1475.000000	6.208443
1474.000000	6.219973
1473.000000	6.238105
1472.000000	6.234147
1471.000000	6.237623
1470.000000	6.247083
1469.000000	6.266689
1468.000000	6.267695
1467.000000	6.312689
1466.000000	6.330826
1465.000000	6.338705
1464.000000	6.344950
1463.000000	6.328042
1462.000000	6.334179
1461.000000	6.394040
1460.000000	6.397990
1459.000000	6.400935
1458.000000	6.401000
1457.000000	6.445500
1456.000000	6.464535
1455.000000	6.459715
1454.000000	6.474625
1453.000000	6.479586
1452.000000	6.496216
1451.000000	6.528164
1450.000000	6.536292
1449.000000	6.537696
1448.000000	6.547117
1447.000000	6.558903
1446.000000	6.608946
1445.000000	6.646903
1444.000000	6.659405
1443.000000	6.648126
1442.000000	6.671597
1441.000000	6.700434
1440.000000	6.708088
1439.000000	6.743967
1438.000000	6.808862
1437.000000	6.846575
1436.000000	6.859962
1435.000000	6.873775
1434.000000	6.900818
1433.000000	6.928679
1432.000000	6.969651
1431.000000	6.995463
1430.000000	7.024051
1429.000000	7.071839
1428.000000	7.104982
1427.000000	7.149303
1426.000000	7.184231
1425.000000	7.233898
1424.000000	7.276615
1423.000000	7.330633
1422.000000	7.393874
1421.000000	7.421518
1420.000000	7.449941
1419.000000	7.501687
1418.000000	7.563917
1417.000000	7.633762
1416.000000	7.689035
1415.000000	7.726138
1414.000000	7.790330
1413.000000	7.847557
1412.000000	7.917520
1411.000000	7.978623
1410.000000	8.026663
1409.000000	8.091456
1408.000000	8.159919
1407.000000	8.235473
1406.000000	8.292832
1405.000000	8.331934
1404.000000	8.386347
1403.000000	8.450979
1402.000000	8.530257
1401.000000	8.582377
1400.000000	8.636505
1399.000000	8.693023
1398.000000	8.747831
1397.000000	8.824422
1396.000000	8.871217
1395.000000	8.913463
1394.000000	8.964214
1393.000000	9.011852
1392.000000	9.050888
1391.000000	9.089797
1390.000000	9.139359
1389.000000	9.187382
1388.000000	9.217337
1387.000000	9.268749
1386.000000	9.326119
1385.000000	9.357007
1384.000000	9.383665
1383.000000	9.405614
1382.000000	9.433242
1381.000000	9.480134
1380.000000	9.510608
1379.000000	9.534145
1378.000000	9.552435
1377.000000	9.554746
1376.000000	9.578729
1375.000000	9.614969
1374.000000	9.628683
1373.000000	9.626382
1372.000000	9.619641
1371.000000	9.642011
1370.000000	9.670906
1369.000000	9.681021
1368.000000	9.692552
1367.000000	9.704891
1366.000000	9.702544
1365.000000	9.710992
1364.000000	9.731544
1363.000000	9.735921
1362.000000	9.743729
1361.000000	9.749904
1360.000000	9.768615
1359.000000	9.782431
1358.000000	9.775275
1357.000000	9.789895
1356.000000	9.827618
1355.000000	9.850133
1354.000000	9.864181
1353.000000	9.888083
1352.000000	9.902372
1351.000000	9.907232
1350.000000	9.931170
1349.000000	9.935937
1348.000000	9.951046
1347.000000	9.967923
1346.000000	9.980529
1345.000000	9.978920
1344.000000	9.976066
1343.000000	10.015318
1342.000000	10.041394
1341.000000	10.038748
1340.000000	10.044404
1339.000000	10.054604
1338.000000	10.057460
1337.000000	10.065922
1336.000000	10.088866
1335.000000	10.117119
1334.000000	10.116740
1333.000000	10.121112
1332.000000	10.115750
1331.000000	10.105978
1330.000000	10.102079
1329.000000	10.133225
1328.000000	10.162983
1327.000000	10.158751
1326.000000	10.165236
1325.000000	10.171585
1324.000000	10.186458
1323.000000	10.176078
1322.000000	10.167958
1321.000000	10.189778
1320.000000	10.180938
1319.000000	10.181767
1318.000000	10.179370
1317.000000	10.176195
1316.000000	10.174085
1315.000000	10.197052
1314.000000	10.180430
1313.000000	10.182327
1312.000000	10.183713
1311.000000	10.187489
1310.000000	10.205747
1309.000000	10.194035
1308.000000	10.179737
1307.000000	10.180620
1306.000000	10.179676
1305.000000	10.186025
1304.000000	10.161276
1303.000000	10.148644
1302.000000	10.143466
1301.000000	10.135858
1300.000000	10.176560
1299.000000	10.191421
1298.000000	10.165034
1297.000000	10.146835
1296.000000	10.144310
1295.000000	10.158310
1294.000000	10.136753
1293.000000	10.124583
1292.000000	10.115329
1291.000000	10.117213
1290.000000	10.120294
1289.000000	10.086224
1288.000000	10.070094
1287.000000	10.059980
1286.000000	10.072275
1285.000000	10.068965
1284.000000	10.072708
1283.000000	10.069238
1282.000000	10.075834
1281.000000	10.068193
1280.000000	10.055248
1279.000000	10.014004
1278.000000	10.022706
1277.000000	10.012029
1276.000000	10.007283
1275.000000	10.008021
1274.000000	10.012995
1273.000000	10.028923
1272.000000	10.014481
1271.000000	10.022926
1270.000000	10.006209
1269.000000	9.995510
1268.000000	10.048870
1267.000000	10.038725
1266.000000	10.038037
1265.000000	10.022606
1264.000000	10.027085
1263.000000	10.013865
1262.000000	9.996815
1261.000000	10.029046
1260.000000	10.054622
1259.000000	10.041620
1258.000000	10.014809
1257.000000	9.993084
1256.000000	9.973512
1255.000000	9.976092
1254.000000	10.022988
1253.000000	10.017994
1252.000000	10.002739
1251.000000	10.016165
1250.000000	9.995097
1249.000000	9.988870
1248.000000	9.981611
1247.000000	9.969205
1246.000000	9.973769
1245.000000	9.962521
1244.000000	9.953076
1243.000000	9.935930
1242.000000	9.909163
1241.000000	9.905195
1240.000000	9.907313
1239.000000	9.881767
1238.000000	9.842471
1237.000000	9.858638
1236.000000	9.859276
1235.000000	9.839750
1234.000000	9.817739
1233.000000	9.806811
1232.000000	9.806236
1231.000000	9.800435
1230.000000	9.777473
1229.000000	9.775964
1228.000000	9.769725
1227.000000	9.757368
1226.000000	9.758281
1225.000000	9.761606
1224.000000	9.741787
1223.000000	9.705743
1222.000000	9.693458
1221.000000	9.694397
1220.000000	9.685301
1219.000000	9.666798
1218.000000	9.652863
1217.000000	9.644696
1216.000000	9.647174
1215.000000	9.655571
1214.000000	9.669181
1213.000000	9.636226
1212.000000	9.614593
1211.000000	9.621725
1210.000000	9.617958
1209.000000	9.597610
1208.000000	9.600065
1207.000000	9.579763
1206.000000	9.548542
1205.000000	9.515948
1204.000000	9.515539
1203.000000	9.509211
1202.000000	9.489334
1201.000000	9.483350
1200.000000	9.462611
1199.000000	9.434196
1198.000000	9.409568
1197.000000	9.404142
1196.000000	9.423762
1195.000000	9.416156
1194.000000	9.406134
1193.000000	9.367158
1192.000000	9.349798
1191.000000	9.350589
1190.000000	9.314732
1189.000000	9.260919
1188.000000	9.264498
1187.000000	9.267767
1186.000000	9.258434
1185.000000	9.259974
1184.000000	9.255631
1183.000000	9.257249
1182.000000	9.257160
1181.000000	9.267903
1180.000000	9.282464
1179.000000	9.293619
1178.000000	9.303802
1177.000000	9.316420
1176.000000	9.321638
1175.000000	9.347246
1174.000000	9.374871
1173.000000	9.385575
1172.000000	9.400646
1171.000000	9.414559
1170.000000	9.428983
1169.000000	9.441093
1168.000000	9.454502
1167.000000	9.480747
1166.000000	9.499835
1165.000000	9.520422
1164.000000	9.539012
1163.000000	9.548191
1162.000000	9.562942
1161.000000	9.578635
1160.000000	9.576244
1159.000000	9.573910
1158.000000	9.606356
1157.000000	9.636267
1156.000000	9.654367
1155.000000	9.669582
1154.000000	9.677831
1153.000000	9.694870
1152.000000	9.725975
1151.000000	9.738692
1150.000000	9.742623
1149.000000	9.757502
1148.000000	9.778564
1147.000000	9.790804
1146.000000	9.792735
1145.000000	9.810166
1144.000000	9.824991
1143.000000	9.839933
1142.000000	9.849775
1141.000000	9.854713
1140.000000	9.859031
1139.000000	9.838010
1138.000000	9.836872
1137.000000	9.858467
1136.000000	9.870941
1135.000000	9.879994
1134.000000	9.894095
1133.000000	9.904725
1132.000000	9.920450
1131.000000	9.931110
1130.000000	9.941713
1129.000000	9.941897
1128.000000	9.948246
1127.000000	9.964701
1126.000000	9.967098
1125.000000	9.946954
1124.000000	9.929917
1123.000000	9.933413
1122.000000	9.934857
1121.000000	9.948309
1120.000000	9.951491
1119.000000	9.948922
1118.000000	9.950475
1117.000000	9.961982
1116.000000	9.960499
1115.000000	9.963948
1114.000000	9.937504
1113.000000	9.938680
1112.000000	9.938731
1111.000000	9.942467
1110.000000	9.942223
1109.000000	9.948881
1108.000000	9.942429
1107.000000	9.944413
1106.000000	9.953156
1105.000000	9.944553
1104.000000	9.916052
1103.000000	9.903917
1102.000000	9.900398
1101.000000	9.907834
1100.000000	9.916765
1099.000000	9.922471
1098.000000	9.932425
1097.000000	9.920328
1096.000000	9.919674
1095.000000	9.886171
1094.000000	9.877494
1093.000000	9.874943
1092.000000	9.882333
1091.000000	9.898463
1090.000000	9.911385
1089.000000	9.903228
1088.000000	9.875233
1087.000000	9.859154
1086.000000	9.860014
1085.000000	9.861021
1084.000000	9.873481
1083.000000	9.877526
1082.000000	9.870862
1081.000000	9.841391
1080.000000	9.831845
1079.000000	9.820004
1078.000000	9.830253
1077.000000	9.824377
1076.000000	9.845864
1075.000000	9.850349
1074.000000	9.816810
1073.000000	9.789480
1072.000000	9.783714
1071.000000	9.798174
1070.000000	9.795722
1069.000000	9.818783
1068.000000	9.815145
1067.000000	9.780394
1066.000000	9.773898
1065.000000	9.792646
1064.000000	9.784951
1063.000000	9.780326
1062.000000	9.780286
1061.000000	9.774401
1060.000000	9.742590
1059.000000	9.732981
1058.000000	9.748664
1057.000000	9.742547
1056.000000	9.734230
1055.000000	9.758376
1054.000000	9.741187
1053.000000	9.722592
1052.000000	9.713403
1051.000000	9.721789
1050.000000	9.699905
1049.000000	9.691109
1048.000000	9.663391
1047.000000	9.694732
1046.000000	9.701277
1045.000000	9.716395
1044.000000	9.705427
1043.000000	9.665558
1042.000000	9.641670
1041.000000	9.667062
1040.000000	9.650924
1039.000000	9.639881
1038.000000	9.635439
1037.000000	9.650999
1036.000000	9.668596
1035.000000	9.651010
1034.000000	9.617886
1033.000000	9.629318
1032.000000	9.648632
1031.000000	9.620114
1030.000000	9.622525
1029.000000	9.625102
1028.000000	9.622249
1027.000000	9.616438
1026.000000	9.624214
1025.000000	9.627026
1024.000000	9.620872
1023.000000	9.592596
1022.000000	9.601738
1021.000000	9.607813
1020.000000	9.579710
1019.000000	9.586168
1018.000000	9.605302
1017.000000	9.612306
1016.000000	9.588844
1015.000000	9.586841
1014.000000	9.603895
1013.000000	9.578141
1012.000000	9.587131
1011.000000	9.590544
1010.000000	9.567259
1009.000000	9.573033
1008.000000	9.583347
1007.000000	9.551326
1006.000000	9.566607
1005.000000	9.584812
1004.000000	9.565968
1003.000000	9.567049
1002.000000	9.572688
1001.000000	9.560637
1000.000000	9.561861
999.000000	9.541908
998.000000	9.554987
997.000000	9.574937
996.000000	9.553657
995.000000	9.558276
994.000000	9.566726
993.000000	9.557096
992.000000	9.521904
991.000000	9.544492
990.000000	9.561784
989.000000	9.554958
988.000000	9.538682
987.000000	9.544837
986.000000	9.563261
985.000000	9.580034
984.000000	9.590581
983.000000	9.606250
982.000000	9.611323
981.000000	9.601155
980.000000	9.606850
979.000000	9.622682
978.000000	9.616553
977.000000	9.625012
976.000000	9.642855
975.000000	9.649646
974.000000	9.644220
973.000000	9.645275
972.000000	9.643085
971.000000	9.643338
970.000000	9.636065
969.000000	9.644169
968.000000	9.628922
967.000000	9.629054
966.000000	9.630801
965.000000	9.632858
964.000000	9.623679
963.000000	9.621113
962.000000	9.624101
961.000000	9.630909
960.000000	9.636290
959.000000	9.620222
958.000000	9.605901
957.000000	9.619868
956.000000	9.631539
955.000000	9.628646
954.000000	9.620543
953.000000	9.627765
952.000000	9.622679
951.000000	9.632149
950.000000	9.637845
949.000000	9.625399
948.000000	9.629271
947.000000	9.624068
946.000000	9.615403
945.000000	9.605492
944.000000	9.608771
943.000000	9.605406
942.000000	9.604143
941.000000	9.600957
940.000000	9.589195
939.000000	9.573707
938.000000	9.575032
937.000000	9.581635
936.000000	9.577851
935.000000	9.569485
934.000000	9.569896
933.000000	9.572061
932.000000	9.562798
931.000000	9.562323
930.000000	9.556993
929.000000	9.549726
928.000000	9.529997
927.000000	9.530989
926.000000	9.535448
925.000000	9.530067
924.000000	9.540140
923.000000	9.529894
922.000000	9.486963
921.000000	9.484673
920.000000	9.488457
919.000000	9.505826
918.000000	9.515243
917.000000	9.504704
916.000000	9.499091
915.000000	9.506145
914.000000	9.437263
913.000000	9.436617
912.000000	9.479438
911.000000	9.462888
910.000000	9.464645
909.000000	9.475394
908.000000	9.478842
907.000000	9.463612
906.000000	9.459019
905.000000	9.440106
904.000000	9.457150
903.000000	9.453405
902.000000	9.455362
901.000000	9.450995
900.000000	9.480739
899.000000	9.453592
898.000000	9.400093
897.000000	9.421082
896.000000	9.430342
895.000000	9.440756
894.000000	9.437881
893.000000	9.418545
892.000000	9.450864
891.000000	9.466129
890.000000	9.468167
889.000000	9.454997
888.000000	9.494534
887.000000	9.458274
886.000000	9.411586
885.000000	9.500018
884.000000	9.438154
883.000000	9.405079
882.000000	9.436067
881.000000	9.408848
880.000000	9.435105
879.000000	9.368675
878.000000	9.434733
877.000000	9.390779
876.000000	9.357198
875.000000	9.348164
874.000000	9.387700
873.000000	9.450716
872.000000	9.464273
871.000000	9.339991
870.000000	9.407452
869.000000	9.370665
868.000000	9.403047
867.000000	9.303164
866.000000	9.321625
865.000000	9.346985
864.000000	9.218381
863.000000	9.336129
862.000000	9.387974
861.000000	9.385844
860.000000	9.504535
859.000000	9.473576
858.000000	9.396977
857.000000	9.457702
856.000000	9.468722
855.000000	9.586580
854.000000	9.465442
853.000000	9.458069
852.000000	9.485760
851.000000	9.438298
850.000000	9.353901
849.000000	9.375959
848.000000	9.330710
847.000000	9.401988
846.000000	9.402281
845.000000	9.354136
844.000000	9.402450
843.000000	9.379609
842.000000	9.358983
841.000000	9.272060
840.000000	9.323927
839.000000	9.306875
838.000000	9.305465
837.000000	9.273247
836.000000	9.283340
835.000000	9.326288
834.000000	9.249203
833.000000	9.221710
832.000000	9.295784
831.000000	9.240284
830.000000	9.207204
829.000000	9.172810
828.000000	9.194722
827.000000	9.178674
826.000000	9.167126
825.000000	9.191395
824.000000	9.155747
823.000000	9.159186
822.000000	9.137161
821.000000	9.133900
820.000000	9.146523
819.000000	9.148977
818.000000	9.090598
817.000000	9.057058
816.000000	9.050959
815.000000	9.099948
814.000000	9.073045
813.000000	9.046251
812.000000	9.083006
811.000000	9.063396
810.000000	9.065238
809.000000	9.011985
808.000000	9.067862
807.000000	9.062691
806.000000	9.056682
805.000000	9.022338
804.000000	9.005409
803.000000	9.014763
802.000000	8.982858
801.000000	9.002176
800.000000	8.969782
799.000000	8.954930
798.000000	8.941886
797.000000	8.949356
796.000000	8.938568
795.000000	8.903960
794.000000	8.928317
793.000000	8.927795
792.000000	8.900010
791.000000	8.882753
790.000000	8.889405
789.000000	8.886821
788.000000	8.901633
787.000000	8.851906
786.000000	8.884421
785.000000	8.860447
784.000000	8.840585
783.000000	8.842521
782.000000	8.812775
781.000000	8.819306
780.000000	8.804630
779.000000	8.800382
778.000000	8.761896
777.000000	8.769318
776.000000	8.761569
775.000000	8.742019
774.000000	8.751004
773.000000	8.737620
772.000000	8.708022
771.000000	8.707504
770.000000	8.692106
769.000000	8.685337
768.000000	8.667960
767.000000	8.652065
766.000000	8.632370
765.000000	8.635634
764.000000	8.629493
763.000000	8.620710
762.000000	8.600861
761.000000	8.582346
760.000000	8.580160
759.000000	8.596889
758.000000	8.566288
757.000000	8.567771
756.000000	8.530715
755.000000	8.505624
754.000000	8.494446
753.000000	8.503399
752.000000	8.484403
751.000000	8.473354
750.000000	8.471677
749.000000	8.461568
748.000000	8.425590
747.000000	8.418405
746.000000	8.429163
745.000000	8.407580
744.000000	8.383124
743.000000	8.373895
742.000000	8.374041
741.000000	8.360284
740.000000	8.345369
739.000000	8.336439
738.000000	8.312778
737.000000	8.293223
736.000000	8.295707
735.000000	8.287014
734.000000	8.276869
733.000000	8.268603
732.000000	8.259661
731.000000	8.224365
730.000000	8.197388
729.000000	8.193294
728.000000	8.197767
727.000000	8.167375
726.000000	8.142213
725.000000	8.133847
724.000000	8.123186
723.000000	8.122408
722.000000	8.120777
721.000000	8.095217
720.000000	8.077840
719.000000	8.070853
718.000000	8.045319
717.000000	8.028153
716.000000	8.012851
715.000000	7.990203
714.000000	7.981818
713.000000	7.972655
712.000000	7.956580
711.000000	7.941304
710.000000	7.930402
709.000000	7.913411
708.000000	7.896706
707.000000	7.877188
706.000000	7.869449
705.000000	7.858233
704.000000	7.834303
703.000000	7.809181
702.000000	7.790338
701.000000	7.775272
700.000000	7.762324
699.000000	7.751266
698.000000	7.738348
697.000000	7.717093
696.000000	7.705085
695.000000	7.683726
694.000000	7.645092
693.000000	7.627660
692.000000	7.621231
691.000000	7.606274
690.000000	7.590959
689.000000	7.560425
688.000000	7.529638
687.000000	7.506520
686.000000	7.499029
685.000000	7.490179
684.000000	7.455104
683.000000	7.439181
682.000000	7.431613
681.000000	7.417310
680.000000	7.380837
679.000000	7.367196
678.000000	7.349194
677.000000	7.332896
676.000000	7.308086
675.000000	7.281291
674.000000	7.271340
673.000000	7.243358
672.000000	7.231001
671.000000	7.209766
670.000000	7.182344
669.000000	7.166816
668.000000	7.144824
667.000000	7.122061
666.000000	7.119314
665.000000	7.100203
664.000000	7.070646
663.000000	7.048196
662.000000	7.033720
661.000000	7.012676
660.000000	6.991418
659.000000	6.977699
658.000000	6.953463
657.000000	6.938954
656.000000	6.914245
655.000000	6.899197
654.000000	6.879040
653.000000	6.862413
652.000000	6.839297
651.000000	6.823852
650.000000	6.797529
649.000000	6.778350
648.000000	6.757360
647.000000	6.742093
646.000000	6.705218
645.000000	6.679834
644.000000	6.677991
643.000000	6.649235
642.000000	6.635857
641.000000	6.618165
640.000000	6.592546
639.000000	6.569259
638.000000	6.554761
637.000000	6.527332
636.000000	6.509247
635.000000	6.492289
634.000000	6.472626
633.000000	6.445241
632.000000	6.435961
631.000000	6.409935
630.000000	6.386345
629.000000	6.368918
628.000000	6.341749
627.000000	6.315510
626.000000	6.293205
625.000000	6.283572
624.000000	6.256023
623.000000	6.239013
622.000000	6.210144
621.000000	6.190620
620.000000	6.155648
619.000000	6.141138
618.000000	6.123544
617.000000	6.094511
616.000000	6.063200
615.000000	6.041859
614.000000	6.013052
613.000000	5.997671
612.000000	5.974698
611.000000	5.942378
610.000000	5.920182
609.000000	5.897431
608.000000	5.872809
607.000000	5.851408
606.000000	5.816106
605.000000	5.799378
604.000000	5.765366
603.000000	5.744640
602.000000	5.715157
601.000000	5.693928
600.000000	5.668211
599.000000	5.639026
598.000000	5.611251
597.000000	5.594374
596.000000	5.562700
595.000000	5.546787
594.000000	5.512684
593.000000	5.490831
592.000000	5.456944
591.000000	5.436735
590.000000	5.406758
589.000000	5.380223
588.000000	5.353509
587.000000	5.330291
586.000000	5.298754
585.000000	5.271582
584.000000	5.247217
583.000000	5.217583
582.000000	5.202309
581.000000	5.165360
580.000000	5.131687
579.000000	5.116766
578.000000	5.082040
577.000000	5.065774
576.000000	5.029553
575.000000	5.007641
574.000000	4.975178
573.000000	4.948048
572.000000	4.931950
571.000000	4.901087
570.000000	4.872277
569.000000	4.845142
568.000000	4.814972
567.000000	4.787911
566.000000	4.760786
565.000000	4.727712
564.000000	4.703329
563.000000	4.679487
562.000000	4.639362
561.000000	4.634728
560.000000	4.608334
559.000000	4.584137
558.000000	4.549821
557.000000	4.531927
556.000000	4.499511
555.000000	4.460148
554.000000	4.437818
553.000000	4.400455
552.000000	4.373941
551.000000	4.344773
550.000000	4.317755
549.000000	4.291961
548.000000	4.262648
547.000000	4.232380
546.000000	4.198177
545.000000	4.173315
544.000000	4.138972
543.000000	4.111706
542.000000	4.076213
541.000000	4.044445
540.000000	4.017309
539.000000	3.986565
538.000000	3.965527
537.000000	3.931174
536.000000	3.900935
535.000000	3.872321
534.000000	3.838660
533.000000	3.813387
532.000000	3.781967
531.000000	3.746454
530.000000	3.715577
529.000000	3.687371
528.000000	3.657471
527.000000	3.625708
526.000000	3.593928
525.000000	3.559743
524.000000	3.530420
523.000000	3.499223
522.000000	3.468365
521.000000	3.445178
520.000000	3.410653
519.000000	3.379410
518.000000	3.339456
517.000000	3.308182
516.000000	3.282130
515.000000	3.249681
514.000000	3.213968
513.000000	3.187606
512.000000	3.161855
511.000000	3.124544
510.000000	3.092629
509.000000	3.069253
508.000000	3.038033
507.000000	2.999357
506.000000	2.972997
505.000000	2.940715
504.000000	2.913157
503.000000	2.887591
502.000000	2.857546
501.000000	2.827451
500.000000	2.797798
499.000000	2.768013
498.000000	2.743109
497.000000	2.716633
496.000000	2.690854
495.000000	2.662876
494.000000	2.636118
493.000000	2.606210
492.000000	2.577186
491.000000	2.551138
490.000000	2.523571
489.000000	2.501495
488.000000	2.477591
487.000000	2.451511
486.000000	2.429524
485.000000	2.415284
484.000000	2.385564
483.000000	2.356398
482.000000	2.331833
481.000000	2.309207
480.000000	2.279235
479.000000	2.247343
478.000000	2.217339
477.000000	2.187696
476.000000	2.154232
475.000000	2.126176
474.000000	2.104311
473.000000	2.078022
472.000000	2.048815
471.000000	2.020051
470.000000	1.991491
469.000000	1.969201
468.000000	1.944358
467.000000	1.914778
466.000000	1.886916
465.000000	1.860564
464.000000	1.832641
463.000000	1.808742
462.000000	1.785615
461.000000	1.757286
460.000000	1.727606
459.000000	1.704513
458.000000	1.681662
457.000000	1.654238
456.000000	1.628215
455.000000	1.603367
454.000000	1.574735
453.000000	1.547514
452.000000	1.522640
451.000000	1.499858
450.000000	1.481293
449.000000	1.457622
448.000000	1.429325
447.000000	1.397224
446.000000	1.373453
445.000000	1.351546
444.000000	1.326079
443.000000	1.299457
442.000000	1.276784
441.000000	1.247846
440.000000	1.220882
439.000000	1.199382
438.000000	1.174887
437.000000	1.147491
436.000000	1.117605
435.000000	1.091094
434.000000	1.073065
433.000000	1.047145
432.000000	1.022305
431.000000	0.997356
430.000000	0.971427
429.000000	0.948119
428.000000	0.925835
427.000000	0.902708
426.000000	0.885936
425.000000	0.862819
424.000000	0.840076
423.000000	0.821685
422.000000	0.796663
421.000000	0.779452
420.000000	0.762288
419.000000	0.741117
418.000000	0.720781
417.000000	0.700239
416.000000	0.677183
415.000000	0.662073
414.000000	0.648100
413.000000	0.632190
412.000000	0.614941
411.000000	0.601311
410.000000	0.584435
409.000000	0.567306
408.000000	0.554853
407.000000	0.539217
406.000000	0.522871
405.000000	0.511739
404.000000	0.501063
403.000000	0.487531
402.000000	0.477346
401.000000	0.462444
400.000000	0.448687
399.000000	0.437817
398.000000	0.421846
397.000000	0.415532
396.000000	0.410915
395.000000	0.399535
394.000000	0.386517
393.000000	0.373537
392.000000	0.360802
391.000000	0.351370
390.000000	0.350132
389.000000	0.338262
388.000000	0.326186
387.000000	0.315534
386.000000	0.308995
385.000000	0.302451
384.000000	0.303126
383.000000	0.292808
382.000000	0.282845
381.000000	0.275471
380.000000	0.265176
379.000000	0.257068
378.000000	0.252284
377.000000	0.267858
376.000000	0.262943
375.000000	0.256307
374.000000	0.247886
373.000000	0.241526
372.000000	0.235014
371.000000	0.223454
370.000000	0.218678
369.000000	0.212877
368.000000	0.219290
367.000000	0.206015
366.000000	0.195733
365.000000	0.189925
364.000000	0.188752
363.000000	0.183438
362.000000	0.178724
361.000000	0.177028
360.000000	0.166089
359.000000	0.160977
358.000000	0.159862
357.000000	0.151477
356.000000	0.156441
355.000000	0.149244
354.000000	0.146314
353.000000	0.141200
352.000000	0.140342
351.000000	0.142214
350.000000	0.135267
349.000000	0.125059
348.000000	0.129505
347.000000	0.127257
346.000000	0.123037
345.000000	0.125938
344.000000	0.114407
343.000000	0.120921
342.000000	0.115825
341.000000	0.118002
340.000000	0.106460
339.000000	0.107186
338.000000	0.115126
337.000000	0.106411
336.000000	0.099567
335.000000	0.088061
334.000000	0.099810
333.000000	0.103745
332.000000	0.095444
331.000000	0.090020
330.000000	0.093455
329.000000	0.080475
328.000000	0.088296
327.000000	0.089860
326.000000	0.089890
325.000000	0.078972
324.000000	0.080248
323.000000	0.082931
322.000000	0.072809
321.000000	0.074516
320.000000	0.088623
319.000000	0.081755
318.000000	0.097590
317.000000	0.091071
316.000000	0.094824
315.000000	0.099080
314.000000	0.098664
313.000000	0.101996
312.000000	0.088221
311.000000	0.094551
310.000000	0.096014
309.000000	0.095731
308.000000	0.100678
307.000000	0.092494
306.000000	0.091555
305.000000	0.090418
304.000000	0.098922
303.000000	0.094525
302.000000	0.094653
301.000000	0.087114
300.000000	0.090509
299.000000	0.093534
298.000000	0.092950
297.000000	0.091774
296.000000	0.096767
295.000000	0.086869
294.000000	0.091474
293.000000	0.096503
292.000000	0.096248
291.000000	0.090363
290.000000	0.093267
289.000000	0.085671
288.000000	0.084632
287.000000	0.081814
286.000000	0.087528
285.000000	0.090052
284.000000	0.091958
283.000000	0.090043
282.000000	0.088416
281.000000	0.089431
280.000000	0.093829
279.000000	0.093836
278.000000	0.102281
277.000000	0.102558
276.000000	0.104511
275.000000	0.102377
274.000000	0.098435
273.000000	0.105377
272.000000	0.116707
271.000000	0.119883
270.000000	0.116219
269.000000	0.109917
268.000000	0.114803
267.000000	0.118814
266.000000	0.118524
265.000000	0.126109
264.000000	0.129881
263.000000	0.130210
262.000000	0.129322
261.000000	0.134507
260.000000	0.139296
259.000000	0.135396
258.000000	0.142257
257.000000	0.145196
256.000000	0.145590
255.000000	0.146438
254.000000	0.144876
253.000000	0.146601
252.000000	0.143972
251.000000	0.142094
250.000000	0.137694
249.000000	0.141395
248.000000	0.150158
247.000000	0.144459
246.000000	0.130435
245.000000	0.133716
244.000000	0.132764
243.000000	0.129326
242.000000	0.122212
241.000000	0.120011
240.000000	0.121086
239.000000	0.116823
238.000000	0.105992
237.000000	0.103223
236.000000	0.094348
235.000000	0.091282
234.000000	0.084028
233.000000	0.080293
232.000000	0.073726
231.000000	0.062785
230.000000	0.064130
229.000000	0.062641
228.000000	0.054629
227.000000	0.050873
226.000000	0.054975
225.000000	0.049407
224.000000	0.040852
223.000000	0.038550
222.000000	0.037719
221.000000	0.034601
220.000000	0.031570
219.000000	0.028110
218.000000	0.032697
217.000000	0.030798
216.000000	0.026904
215.000000	0.029056
214.000000	0.022815
213.000000	0.022389
212.000000	0.028554
211.000000	0.022097
210.000000	0.010779
209.000000	0.016739
208.000000	0.011984
207.000000	-0.005197
206.000000	-0.005431
205.000000	-0.016362
204.000000	-0.030733
203.000000	-0.010654
202.000000	0.020996
201.000000	0.042153
200.000000	0.032361
