PE IR       SUBTECH     SPECTRUM    ASCII       PEDS        4.00        
   -1
3C-XXX-C017_1.ASC
23/09/07
10:32:43.00
23/09/07
11:30:09.00
uco
Sample 017 By uco Date Thursday, September 07 2023
450.000000
#HDR
-1
-1
#GR
cm-1
%T
1.0
0.0
4000.000000
-1.000000
3551
8
99.408668
93.685522
#DATA
4000.000000	99.339812
3999.000000	99.339061
3998.000000	99.338316
3997.000000	99.337556
3996.000000	99.338872
3995.000000	99.340701
3994.000000	99.341498
3993.000000	99.341118
3992.000000	99.340439
3991.000000	99.339955
3990.000000	99.339033
3989.000000	99.336777
3988.000000	99.333344
3987.000000	99.329994
3986.000000	99.327793
3985.000000	99.326638
3984.000000	99.325874
3983.000000	99.325562
3982.000000	99.326509
3981.000000	99.328867
3980.000000	99.331192
3979.000000	99.331379
3978.000000	99.328627
3977.000000	99.324322
3976.000000	99.321006
3975.000000	99.320501
3974.000000	99.322812
3973.000000	99.326497
3972.000000	99.329809
3971.000000	99.331514
3970.000000	99.331114
3969.000000	99.328961
3968.000000	99.326355
3967.000000	99.325110
3966.000000	99.326348
3965.000000	99.329590
3964.000000	99.333058
3963.000000	99.334929
3962.000000	99.334423
3961.000000	99.331803
3960.000000	99.327740
3959.000000	99.322949
3958.000000	99.318086
3957.000000	99.313596
3956.000000	99.309477
3955.000000	99.305434
3954.000000	99.301471
3953.000000	99.298406
3952.000000	99.297681
3951.000000	99.300460
3950.000000	99.306567
3949.000000	99.313962
3948.000000	99.319619
3947.000000	99.321404
3946.000000	99.319546
3945.000000	99.316243
3944.000000	99.313882
3943.000000	99.313617
3942.000000	99.315188
3941.000000	99.317652
3940.000000	99.319849
3939.000000	99.320255
3938.000000	99.317334
3937.000000	99.310880
3936.000000	99.302972
3935.000000	99.297250
3934.000000	99.296894
3933.000000	99.302955
3932.000000	99.313680
3931.000000	99.324959
3930.000000	99.332296
3929.000000	99.333176
3928.000000	99.328523
3927.000000	99.322393
3926.000000	99.319467
3925.000000	99.321824
3924.000000	99.327598
3923.000000	99.333114
3922.000000	99.335857
3921.000000	99.334937
3920.000000	99.330369
3919.000000	99.323069
3918.000000	99.315211
3917.000000	99.309661
3916.000000	99.308217
3915.000000	99.310270
3914.000000	99.313086
3913.000000	99.313419
3912.000000	99.309449
3911.000000	99.302138
3910.000000	99.294236
3909.000000	99.287793
3908.000000	99.282673
3907.000000	99.277629
3906.000000	99.272391
3905.000000	99.268731
3904.000000	99.269214
3903.000000	99.274664
3902.000000	99.283685
3901.000000	99.294013
3900.000000	99.303475
3899.000000	99.310385
3898.000000	99.314299
3897.000000	99.316066
3896.000000	99.316423
3895.000000	99.315136
3894.000000	99.311963
3893.000000	99.307992
3892.000000	99.304685
3891.000000	99.302231
3890.000000	99.300179
3889.000000	99.299917
3888.000000	99.303230
3887.000000	99.308844
3886.000000	99.312447
3885.000000	99.310255
3884.000000	99.303534
3883.000000	99.297889
3882.000000	99.296631
3881.000000	99.298524
3880.000000	99.300403
3879.000000	99.299975
3878.000000	99.298261
3877.000000	99.298275
3876.000000	99.301029
3875.000000	99.304499
3874.000000	99.305337
3873.000000	99.301944
3872.000000	99.296199
3871.000000	99.291194
3870.000000	99.288210
3869.000000	99.286274
3868.000000	99.285483
3867.000000	99.287961
3866.000000	99.293039
3865.000000	99.297219
3864.000000	99.299193
3863.000000	99.300752
3862.000000	99.303168
3861.000000	99.304871
3860.000000	99.303603
3859.000000	99.299418
3858.000000	99.293407
3857.000000	99.285524
3856.000000	99.274862
3855.000000	99.262381
3854.000000	99.252120
3853.000000	99.246397
3852.000000	99.245990
3851.000000	99.255739
3850.000000	99.275533
3849.000000	99.296128
3848.000000	99.309044
3847.000000	99.312197
3846.000000	99.307615
3845.000000	99.298148
3844.000000	99.286318
3843.000000	99.274869
3842.000000	99.267060
3841.000000	99.265774
3840.000000	99.271248
3839.000000	99.279878
3838.000000	99.286450
3837.000000	99.289133
3836.000000	99.290967
3835.000000	99.295534
3834.000000	99.302733
3833.000000	99.309417
3832.000000	99.312943
3831.000000	99.313022
3830.000000	99.311172
3829.000000	99.309043
3828.000000	99.306899
3827.000000	99.303664
3826.000000	99.298258
3825.000000	99.291197
3824.000000	99.284935
3823.000000	99.282419
3822.000000	99.284531
3821.000000	99.287154
3820.000000	99.284487
3819.000000	99.278620
3818.000000	99.276237
3817.000000	99.278846
3816.000000	99.282679
3815.000000	99.283208
3814.000000	99.281225
3813.000000	99.281893
3812.000000	99.285846
3811.000000	99.289139
3810.000000	99.290056
3809.000000	99.290582
3808.000000	99.292303
3807.000000	99.293018
3806.000000	99.289486
3805.000000	99.283774
3804.000000	99.281663
3803.000000	99.285730
3802.000000	99.293753
3801.000000	99.300060
3800.000000	99.300666
3799.000000	99.299424
3798.000000	99.300383
3797.000000	99.301277
3796.000000	99.299101
3795.000000	99.294719
3794.000000	99.291587
3793.000000	99.291686
3792.000000	99.293818
3791.000000	99.295788
3790.000000	99.296933
3789.000000	99.297875
3788.000000	99.299304
3787.000000	99.301669
3786.000000	99.305078
3785.000000	99.308597
3784.000000	99.310558
3783.000000	99.310449
3782.000000	99.309743
3781.000000	99.310207
3780.000000	99.311452
3779.000000	99.311089
3778.000000	99.307924
3777.000000	99.304301
3776.000000	99.303269
3775.000000	99.304781
3774.000000	99.305795
3773.000000	99.303597
3772.000000	99.298539
3771.000000	99.293964
3770.000000	99.293570
3769.000000	99.298211
3768.000000	99.306137
3767.000000	99.314840
3766.000000	99.321123
3765.000000	99.321836
3764.000000	99.316440
3763.000000	99.307983
3762.000000	99.300386
3761.000000	99.295393
3760.000000	99.292526
3759.000000	99.290750
3758.000000	99.289450
3757.000000	99.288868
3756.000000	99.289487
3755.000000	99.291971
3754.000000	99.296803
3753.000000	99.303547
3752.000000	99.310286
3751.000000	99.312696
3750.000000	99.306799
3749.000000	99.294975
3748.000000	99.285453
3747.000000	99.286334
3746.000000	99.300354
3745.000000	99.320950
3744.000000	99.331716
3743.000000	99.323749
3742.000000	99.310708
3741.000000	99.306245
3740.000000	99.307650
3739.000000	99.309232
3738.000000	99.311260
3737.000000	99.315576
3736.000000	99.320622
3735.000000	99.323670
3734.000000	99.326362
3733.000000	99.331817
3732.000000	99.338671
3731.000000	99.343386
3730.000000	99.345682
3729.000000	99.347406
3728.000000	99.347996
3727.000000	99.344807
3726.000000	99.336924
3725.000000	99.327227
3724.000000	99.320463
3723.000000	99.319287
3722.000000	99.323229
3721.000000	99.330572
3720.000000	99.339373
3719.000000	99.346870
3718.000000	99.349613
3717.000000	99.345722
3716.000000	99.336454
3715.000000	99.325232
3714.000000	99.315204
3713.000000	99.309146
3712.000000	99.310128
3711.000000	99.318787
3710.000000	99.330575
3709.000000	99.338992
3708.000000	99.340681
3707.000000	99.336995
3706.000000	99.332134
3705.000000	99.329822
3704.000000	99.331400
3703.000000	99.335566
3702.000000	99.340000
3701.000000	99.343289
3700.000000	99.345713
3699.000000	99.347713
3698.000000	99.347957
3697.000000	99.343748
3696.000000	99.333676
3695.000000	99.319790
3694.000000	99.306648
3693.000000	99.298950
3692.000000	99.300011
3691.000000	99.310798
3690.000000	99.327195
3689.000000	99.339845
3688.000000	99.341452
3687.000000	99.334107
3686.000000	99.325627
3685.000000	99.320281
3684.000000	99.316652
3683.000000	99.312666
3682.000000	99.308786
3681.000000	99.305695
3680.000000	99.301527
3679.000000	99.293110
3678.000000	99.280528
3677.000000	99.269317
3676.000000	99.266805
3675.000000	99.271904
3674.000000	99.276889
3673.000000	99.281407
3672.000000	99.288983
3671.000000	99.298686
3670.000000	99.305541
3669.000000	99.304073
3668.000000	99.295619
3667.000000	99.287100
3666.000000	99.281711
3665.000000	99.278127
3664.000000	99.274685
3663.000000	99.271130
3662.000000	99.268181
3661.000000	99.266726
3660.000000	99.267609
3659.000000	99.271381
3658.000000	99.277066
3657.000000	99.280783
3656.000000	99.277737
3655.000000	99.267411
3654.000000	99.254791
3653.000000	99.243693
3652.000000	99.233229
3651.000000	99.222745
3650.000000	99.216420
3649.000000	99.219593
3648.000000	99.231360
3647.000000	99.244117
3646.000000	99.250718
3645.000000	99.249929
3644.000000	99.244698
3643.000000	99.238759
3642.000000	99.234991
3641.000000	99.234667
3640.000000	99.237124
3639.000000	99.240270
3638.000000	99.241684
3637.000000	99.239957
3636.000000	99.235235
3635.000000	99.228235
3634.000000	99.219576
3633.000000	99.210285
3632.000000	99.202624
3631.000000	99.199344
3630.000000	99.201860
3629.000000	99.206461
3628.000000	99.204952
3627.000000	99.196706
3626.000000	99.189170
3625.000000	99.185478
3624.000000	99.183045
3623.000000	99.179262
3622.000000	99.173817
3621.000000	99.168078
3620.000000	99.163970
3619.000000	99.162450
3618.000000	99.162388
3617.000000	99.161805
3616.000000	99.159218
3615.000000	99.153337
3614.000000	99.143380
3613.000000	99.130496
3612.000000	99.118039
3611.000000	99.109234
3610.000000	99.104523
3609.000000	99.102021
3608.000000	99.100349
3607.000000	99.100047
3606.000000	99.101760
3605.000000	99.103951
3604.000000	99.103886
3603.000000	99.100085
3602.000000	99.093379
3601.000000	99.085791
3600.000000	99.078700
3599.000000	99.072000
3598.000000	99.064644
3597.000000	99.055860
3596.000000	99.046254
3595.000000	99.037751
3594.000000	99.031802
3593.000000	99.027888
3592.000000	99.024156
3591.000000	99.019365
3590.000000	99.013880
3589.000000	99.009407
3588.000000	99.007167
3587.000000	99.005900
3586.000000	99.003223
3585.000000	98.998585
3584.000000	98.993489
3583.000000	98.989223
3582.000000	98.985148
3581.000000	98.979248
3580.000000	98.970594
3579.000000	98.960878
3578.000000	98.952955
3577.000000	98.948088
3576.000000	98.944941
3575.000000	98.941187
3574.000000	98.935367
3573.000000	98.927447
3572.000000	98.918071
3571.000000	98.907992
3570.000000	98.897806
3569.000000	98.888021
3568.000000	98.879061
3567.000000	98.871326
3566.000000	98.865153
3565.000000	98.860413
3564.000000	98.856425
3563.000000	98.852750
3562.000000	98.849282
3561.000000	98.845675
3560.000000	98.841168
3559.000000	98.834933
3558.000000	98.826536
3557.000000	98.816100
3556.000000	98.804080
3555.000000	98.791186
3554.000000	98.778466
3553.000000	98.767109
3552.000000	98.757663
3551.000000	98.749567
3550.000000	98.741890
3549.000000	98.734488
3548.000000	98.728253
3547.000000	98.724479
3546.000000	98.723904
3545.000000	98.725798
3544.000000	98.727755
3543.000000	98.726628
3542.000000	98.720165
3541.000000	98.708445
3540.000000	98.694019
3539.000000	98.680438
3538.000000	98.669824
3537.000000	98.661285
3536.000000	98.651773
3535.000000	98.639114
3534.000000	98.624519
3533.000000	98.612036
3532.000000	98.605348
3531.000000	98.604581
3530.000000	98.605994
3529.000000	98.605289
3528.000000	98.601637
3527.000000	98.597991
3526.000000	98.597145
3525.000000	98.598116
3524.000000	98.596758
3523.000000	98.589646
3522.000000	98.576959
3521.000000	98.561601
3520.000000	98.546386
3519.000000	98.532539
3518.000000	98.520148
3517.000000	98.509080
3516.000000	98.499282
3515.000000	98.490636
3514.000000	98.482932
3513.000000	98.475956
3512.000000	98.469512
3511.000000	98.463451
3510.000000	98.457929
3509.000000	98.453575
3508.000000	98.451164
3507.000000	98.451035
3506.000000	98.452631
3505.000000	98.454265
3504.000000	98.453497
3503.000000	98.448634
3502.000000	98.440187
3501.000000	98.430247
3500.000000	98.420414
3499.000000	98.410994
3498.000000	98.402075
3497.000000	98.394446
3496.000000	98.388770
3495.000000	98.384218
3494.000000	98.378858
3493.000000	98.371564
3492.000000	98.362895
3491.000000	98.354109
3490.000000	98.346039
3489.000000	98.339015
3488.000000	98.332983
3487.000000	98.327188
3486.000000	98.320340
3485.000000	98.311859
3484.000000	98.302865
3483.000000	98.295532
3482.000000	98.291289
3481.000000	98.289737
3480.000000	98.289328
3479.000000	98.288808
3478.000000	98.287825
3477.000000	98.286352
3476.000000	98.284026
3475.000000	98.280401
3474.000000	98.275627
3473.000000	98.270081
3472.000000	98.263081
3471.000000	98.252932
3470.000000	98.239331
3469.000000	98.225356
3468.000000	98.215631
3467.000000	98.211984
3466.000000	98.211844
3465.000000	98.211447
3464.000000	98.209487
3463.000000	98.206933
3462.000000	98.204328
3461.000000	98.200683
3460.000000	98.194830
3459.000000	98.186694
3458.000000	98.177026
3457.000000	98.166745
3456.000000	98.156881
3455.000000	98.148614
3454.000000	98.142927
3453.000000	98.140262
3452.000000	98.140474
3451.000000	98.142960
3450.000000	98.146868
3449.000000	98.151228
3448.000000	98.154840
3447.000000	98.156094
3446.000000	98.153293
3445.000000	98.145475
3444.000000	98.133023
3443.000000	98.117821
3442.000000	98.103171
3441.000000	98.093040
3440.000000	98.090058
3439.000000	98.093331
3438.000000	98.098358
3437.000000	98.099947
3436.000000	98.095929
3435.000000	98.088249
3434.000000	98.080592
3433.000000	98.074973
3432.000000	98.070387
3431.000000	98.064429
3430.000000	98.056062
3429.000000	98.046794
3428.000000	98.039256
3427.000000	98.034816
3426.000000	98.032789
3425.000000	98.031581
3424.000000	98.029865
3423.000000	98.026584
3422.000000	98.020723
3421.000000	98.012069
3420.000000	98.002132
3419.000000	97.993627
3418.000000	97.988662
3417.000000	97.987284
3416.000000	97.987357
3415.000000	97.985684
3414.000000	97.979934
3413.000000	97.970145
3412.000000	97.958308
3411.000000	97.946492
3410.000000	97.935838
3409.000000	97.927380
3408.000000	97.922636
3407.000000	97.922172
3406.000000	97.923817
3405.000000	97.923417
3404.000000	97.917931
3403.000000	97.907763
3402.000000	97.896332
3401.000000	97.887719
3400.000000	97.884150
3399.000000	97.884483
3398.000000	97.884654
3397.000000	97.880434
3396.000000	97.870634
3395.000000	97.857763
3394.000000	97.845593
3393.000000	97.836265
3392.000000	97.829441
3391.000000	97.823585
3390.000000	97.817651
3389.000000	97.811725
3388.000000	97.806442
3387.000000	97.802011
3386.000000	97.797761
3385.000000	97.792582
3384.000000	97.785764
3383.000000	97.777490
3382.000000	97.768806
3381.000000	97.761142
3380.000000	97.755553
3379.000000	97.752086
3378.000000	97.749906
3377.000000	97.747940
3376.000000	97.745091
3375.000000	97.740058
3374.000000	97.731940
3373.000000	97.721546
3372.000000	97.711331
3371.000000	97.703138
3370.000000	97.696303
3369.000000	97.688719
3368.000000	97.679521
3367.000000	97.669794
3366.000000	97.660638
3365.000000	97.651693
3364.000000	97.642059
3363.000000	97.631801
3362.000000	97.621772
3361.000000	97.612341
3360.000000	97.603044
3359.000000	97.593399
3358.000000	97.583403
3357.000000	97.572960
3356.000000	97.561402
3355.000000	97.548255
3354.000000	97.534440
3353.000000	97.521884
3352.000000	97.511431
3351.000000	97.501620
3350.000000	97.490386
3349.000000	97.477849
3348.000000	97.466408
3347.000000	97.457684
3346.000000	97.450070
3345.000000	97.440032
3344.000000	97.425648
3343.000000	97.408595
3342.000000	97.392961
3341.000000	97.382370
3340.000000	97.377553
3339.000000	97.375792
3338.000000	97.372719
3337.000000	97.365278
3336.000000	97.353283
3335.000000	97.338393
3334.000000	97.322231
3333.000000	97.305910
3332.000000	97.290587
3331.000000	97.277310
3330.000000	97.266199
3329.000000	97.256373
3328.000000	97.246730
3327.000000	97.236551
3326.000000	97.225578
3325.000000	97.214028
3324.000000	97.202600
3323.000000	97.192124
3322.000000	97.183153
3321.000000	97.175988
3320.000000	97.170511
3319.000000	97.165496
3318.000000	97.158630
3317.000000	97.148231
3316.000000	97.135201
3315.000000	97.122674
3314.000000	97.113387
3313.000000	97.107546
3312.000000	97.103037
3311.000000	97.097337
3310.000000	97.089417
3309.000000	97.080455
3308.000000	97.072880
3307.000000	97.068259
3306.000000	97.065803
3305.000000	97.062947
3304.000000	97.057326
3303.000000	97.048311
3302.000000	97.037163
3301.000000	97.026198
3300.000000	97.017588
3299.000000	97.012390
3298.000000	97.010414
3297.000000	97.010729
3296.000000	97.011807
3295.000000	97.011214
3294.000000	97.006343
3293.000000	96.996730
3292.000000	96.985415
3291.000000	96.976907
3290.000000	96.973484
3289.000000	96.973830
3288.000000	96.975107
3287.000000	96.975576
3286.000000	96.975272
3285.000000	96.975035
3284.000000	96.975248
3283.000000	96.975125
3282.000000	96.973183
3281.000000	96.968939
3280.000000	96.964197
3279.000000	96.961995
3278.000000	96.964029
3277.000000	96.969349
3276.000000	96.975649
3275.000000	96.981560
3274.000000	96.987527
3273.000000	96.994801
3272.000000	97.003565
3271.000000	97.011720
3270.000000	97.015858
3269.000000	97.014203
3268.000000	97.008729
3267.000000	97.003858
3266.000000	97.002854
3265.000000	97.005784
3264.000000	97.010998
3263.000000	97.017677
3262.000000	97.026272
3261.000000	97.036819
3260.000000	97.047432
3259.000000	97.054916
3258.000000	97.057394
3257.000000	97.056736
3256.000000	97.058095
3255.000000	97.066117
3254.000000	97.081088
3253.000000	97.098988
3252.000000	97.115068
3251.000000	97.126730
3250.000000	97.133427
3249.000000	97.135625
3248.000000	97.135067
3247.000000	97.135022
3246.000000	97.138476
3245.000000	97.145528
3244.000000	97.153365
3243.000000	97.159162
3242.000000	97.162365
3241.000000	97.164191
3240.000000	97.165987
3239.000000	97.168863
3238.000000	97.174130
3237.000000	97.182714
3236.000000	97.193923
3235.000000	97.205906
3234.000000	97.217732
3233.000000	97.229893
3232.000000	97.241815
3231.000000	97.249957
3230.000000	97.250437
3229.000000	97.243844
3228.000000	97.236048
3227.000000	97.233249
3226.000000	97.236896
3225.000000	97.243804
3224.000000	97.249954
3223.000000	97.253428
3222.000000	97.254875
3221.000000	97.256816
3220.000000	97.262132
3219.000000	97.271465
3218.000000	97.281850
3217.000000	97.289122
3216.000000	97.291969
3215.000000	97.292924
3214.000000	97.295154
3213.000000	97.299186
3212.000000	97.303195
3211.000000	97.305583
3210.000000	97.306477
3209.000000	97.307023
3208.000000	97.308139
3207.000000	97.310206
3206.000000	97.313641
3205.000000	97.319198
3204.000000	97.327131
3203.000000	97.336003
3202.000000	97.343145
3201.000000	97.347022
3200.000000	97.348858
3199.000000	97.351177
3198.000000	97.354901
3197.000000	97.358723
3196.000000	97.361267
3195.000000	97.362900
3194.000000	97.365134
3193.000000	97.369109
3192.000000	97.375163
3191.000000	97.383244
3190.000000	97.393161
3189.000000	97.404495
3188.000000	97.416431
3187.000000	97.427585
3186.000000	97.436459
3185.000000	97.442849
3184.000000	97.448726
3183.000000	97.456762
3182.000000	97.467676
3181.000000	97.479592
3180.000000	97.490087
3179.000000	97.498004
3178.000000	97.503383
3177.000000	97.507032
3176.000000	97.510990
3175.000000	97.518150
3174.000000	97.529793
3173.000000	97.543645
3172.000000	97.555291
3171.000000	97.561741
3170.000000	97.563204
3169.000000	97.562003
3168.000000	97.560883
3167.000000	97.562180
3166.000000	97.567223
3165.000000	97.575577
3164.000000	97.585313
3163.000000	97.594649
3162.000000	97.603432
3161.000000	97.612862
3160.000000	97.623843
3159.000000	97.635689
3158.000000	97.646329
3157.000000	97.653763
3156.000000	97.657607
3155.000000	97.659451
3154.000000	97.661745
3153.000000	97.666143
3152.000000	97.672624
3151.000000	97.680022
3150.000000	97.687503
3149.000000	97.695655
3148.000000	97.705875
3147.000000	97.718275
3146.000000	97.730479
3145.000000	97.739297
3144.000000	97.743811
3143.000000	97.746236
3142.000000	97.749514
3141.000000	97.754730
3140.000000	97.761185
3139.000000	97.767940
3138.000000	97.774357
3137.000000	97.779771
3136.000000	97.783741
3135.000000	97.786561
3134.000000	97.788870
3133.000000	97.791043
3132.000000	97.793650
3131.000000	97.797863
3130.000000	97.804183
3129.000000	97.811080
3128.000000	97.816410
3127.000000	97.820345
3126.000000	97.825374
3125.000000	97.832677
3124.000000	97.839917
3123.000000	97.843706
3122.000000	97.843452
3121.000000	97.841697
3120.000000	97.841315
3119.000000	97.843408
3118.000000	97.847133
3117.000000	97.850255
3116.000000	97.850243
3115.000000	97.846340
3114.000000	97.840695
3113.000000	97.836305
3112.000000	97.833893
3111.000000	97.831919
3110.000000	97.829656
3109.000000	97.828615
3108.000000	97.830112
3107.000000	97.832677
3106.000000	97.833167
3105.000000	97.829984
3104.000000	97.824246
3103.000000	97.818058
3102.000000	97.812446
3101.000000	97.806991
3100.000000	97.800978
3099.000000	97.794909
3098.000000	97.790966
3097.000000	97.791443
3096.000000	97.796133
3095.000000	97.801553
3094.000000	97.803521
3093.000000	97.800593
3092.000000	97.794662
3091.000000	97.788559
3090.000000	97.783586
3089.000000	97.779121
3088.000000	97.773878
3087.000000	97.767432
3086.000000	97.760763
3085.000000	97.755366
3084.000000	97.751766
3083.000000	97.749167
3082.000000	97.746778
3081.000000	97.745037
3080.000000	97.745113
3079.000000	97.747419
3078.000000	97.750912
3077.000000	97.753419
3076.000000	97.752516
3075.000000	97.747119
3074.000000	97.739246
3073.000000	97.733475
3072.000000	97.733251
3071.000000	97.737655
3070.000000	97.742605
3069.000000	97.745038
3068.000000	97.745021
3067.000000	97.744342
3066.000000	97.744585
3065.000000	97.746736
3064.000000	97.750992
3063.000000	97.756271
3062.000000	97.761041
3061.000000	97.765185
3060.000000	97.769947
3059.000000	97.775509
3058.000000	97.780001
3057.000000	97.782006
3056.000000	97.783078
3055.000000	97.786391
3054.000000	97.793168
3053.000000	97.801403
3052.000000	97.807865
3051.000000	97.810809
3050.000000	97.811365
3049.000000	97.813014
3048.000000	97.819045
3047.000000	97.829622
3046.000000	97.841645
3045.000000	97.852063
3044.000000	97.860690
3043.000000	97.869070
3042.000000	97.877384
3041.000000	97.883953
3040.000000	97.887749
3039.000000	97.890127
3038.000000	97.893639
3037.000000	97.899733
3036.000000	97.907952
3035.000000	97.916857
3034.000000	97.925393
3033.000000	97.933489
3032.000000	97.941302
3031.000000	97.947980
3030.000000	97.951926
3029.000000	97.952925
3028.000000	97.953457
3027.000000	97.956760
3026.000000	97.963439
3025.000000	97.970609
3024.000000	97.974604
3023.000000	97.974306
3022.000000	97.971908
3021.000000	97.971089
3020.000000	97.974416
3019.000000	97.981630
3018.000000	97.989817
3017.000000	97.995535
3016.000000	97.997425
3015.000000	97.997111
3014.000000	97.997558
3013.000000	98.000235
3012.000000	98.003550
3011.000000	98.004055
3010.000000	97.999608
3009.000000	97.991414
3008.000000	97.982804
3007.000000	97.976236
3006.000000	97.971976
3005.000000	97.969064
3004.000000	97.966093
3003.000000	97.960880
3002.000000	97.951270
3001.000000	97.937719
3000.000000	97.924055
2999.000000	97.914137
2998.000000	97.907988
2997.000000	97.902348
2996.000000	97.894481
2995.000000	97.884021
2994.000000	97.871424
2993.000000	97.856537
2992.000000	97.839442
2991.000000	97.821375
2990.000000	97.803828
2989.000000	97.787110
2988.000000	97.770341
2987.000000	97.752508
2986.000000	97.733222
2985.000000	97.712810
2984.000000	97.691732
2983.000000	97.669586
2982.000000	97.644599
2981.000000	97.614493
2980.000000	97.578321
2979.000000	97.537451
2978.000000	97.494946
2977.000000	97.453880
2976.000000	97.415481
2975.000000	97.378292
2974.000000	97.339346
2973.000000	97.296698
2972.000000	97.250484
2971.000000	97.201302
2970.000000	97.148755
2969.000000	97.092774
2968.000000	97.035604
2967.000000	96.980623
2966.000000	96.929018
2965.000000	96.879141
2964.000000	96.829614
2963.000000	96.782167
2962.000000	96.740837
2961.000000	96.709245
2960.000000	96.688817
2959.000000	96.678580
2958.000000	96.676088
2957.000000	96.679012
2956.000000	96.686736
2955.000000	96.700119
2954.000000	96.719717
2953.000000	96.744558
2952.000000	96.772369
2951.000000	96.800186
2950.000000	96.824248
2949.000000	96.840426
2948.000000	96.845588
2947.000000	96.838872
2946.000000	96.821851
2945.000000	96.797866
2944.000000	96.770726
2943.000000	96.742256
2942.000000	96.710447
2941.000000	96.670803
2940.000000	96.620684
2939.000000	96.562193
2938.000000	96.500434
2937.000000	96.439516
2936.000000	96.380609
2935.000000	96.323323
2934.000000	96.267914
2933.000000	96.216173
2932.000000	96.170802
2931.000000	96.133896
2930.000000	96.105564
2929.000000	96.083708
2928.000000	96.065655
2927.000000	96.050465
2926.000000	96.039806
2925.000000	96.036644
2924.000000	96.042976
2923.000000	96.058865
2922.000000	96.083314
2921.000000	96.115633
2920.000000	96.155381
2919.000000	96.201012
2918.000000	96.249716
2917.000000	96.299513
2916.000000	96.351395
2915.000000	96.408270
2914.000000	96.471239
2913.000000	96.537499
2912.000000	96.602338
2911.000000	96.662869
2910.000000	96.719225
2909.000000	96.772529
2908.000000	96.822709
2907.000000	96.868668
2906.000000	96.910187
2905.000000	96.949059
2904.000000	96.988203
2903.000000	97.029657
2902.000000	97.073433
2901.000000	97.117969
2900.000000	97.161446
2899.000000	97.202711
2898.000000	97.241522
2897.000000	97.278446
2896.000000	97.314259
2895.000000	97.348976
2894.000000	97.381385
2893.000000	97.410006
2892.000000	97.434599
2891.000000	97.456473
2890.000000	97.477060
2889.000000	97.496224
2888.000000	97.511955
2887.000000	97.521763
2886.000000	97.524780
2885.000000	97.522875
2884.000000	97.519533
2883.000000	97.517047
2882.000000	97.514561
2881.000000	97.508878
2880.000000	97.497011
2879.000000	97.477969
2878.000000	97.452824
2877.000000	97.424065
2876.000000	97.394743
2875.000000	97.367397
2874.000000	97.343474
2873.000000	97.323933
2872.000000	97.310260
2871.000000	97.304022
2870.000000	97.304971
2869.000000	97.309907
2868.000000	97.313982
2867.000000	97.313419
2866.000000	97.307273
2865.000000	97.296709
2864.000000	97.282508
2863.000000	97.263616
2862.000000	97.238768
2861.000000	97.209668
2860.000000	97.181206
2859.000000	97.157543
2858.000000	97.138740
2857.000000	97.122541
2856.000000	97.108911
2855.000000	97.101127
2854.000000	97.102847
2853.000000	97.115916
2852.000000	97.141300
2851.000000	97.180073
2850.000000	97.232070
2849.000000	97.294674
2848.000000	97.364165
2847.000000	97.437486
2846.000000	97.511732
2845.000000	97.583044
2844.000000	97.647736
2843.000000	97.704795
2842.000000	97.756036
2841.000000	97.803402
2840.000000	97.846964
2839.000000	97.885637
2838.000000	97.918947
2837.000000	97.947442
2836.000000	97.971716
2835.000000	97.991785
2834.000000	98.007736
2833.000000	98.020692
2832.000000	98.032675
2831.000000	98.045236
2830.000000	98.058389
2829.000000	98.071173
2828.000000	98.082892
2827.000000	98.093453
2826.000000	98.102900
2825.000000	98.111413
2824.000000	98.119691
2823.000000	98.128493
2822.000000	98.137687
2821.000000	98.146478
2820.000000	98.154635
2819.000000	98.162609
2818.000000	98.170239
2817.000000	98.176403
2816.000000	98.180529
2815.000000	98.183690
2814.000000	98.187562
2813.000000	98.192888
2812.000000	98.199445
2811.000000	98.206747
2810.000000	98.214115
2809.000000	98.220747
2808.000000	98.226607
2807.000000	98.232744
2806.000000	98.239874
2805.000000	98.247116
2804.000000	98.252969
2803.000000	98.257243
2802.000000	98.261008
2801.000000	98.264892
2800.000000	98.268518
2799.000000	98.271680
2798.000000	98.275048
2797.000000	98.279319
2796.000000	98.284326
2795.000000	98.289306
2794.000000	98.293518
2793.000000	98.296373
2792.000000	98.297601
2791.000000	98.297881
2790.000000	98.299065
2789.000000	98.303215
2788.000000	98.311212
2787.000000	98.322189
2786.000000	98.334098
2785.000000	98.344752
2784.000000	98.352609
2783.000000	98.357025
2782.000000	98.358182
2781.000000	98.357078
2780.000000	98.355488
2779.000000	98.355413
2778.000000	98.357944
2777.000000	98.362471
2776.000000	98.367125
2775.000000	98.370197
2774.000000	98.371409
2773.000000	98.372109
2772.000000	98.374188
2771.000000	98.378342
2770.000000	98.383226
2769.000000	98.386602
2768.000000	98.387578
2767.000000	98.387547
2766.000000	98.388731
2765.000000	98.391965
2764.000000	98.396033
2763.000000	98.398977
2762.000000	98.399897
2761.000000	98.399741
2760.000000	98.400537
2759.000000	98.403752
2758.000000	98.409190
2757.000000	98.415437
2756.000000	98.421174
2755.000000	98.425830
2754.000000	98.429288
2753.000000	98.431757
2752.000000	98.434033
2751.000000	98.437019
2750.000000	98.440358
2749.000000	98.442081
2748.000000	98.440429
2747.000000	98.436006
2746.000000	98.431651
2745.000000	98.430233
2744.000000	98.432774
2743.000000	98.438329
2742.000000	98.444992
2741.000000	98.450918
2740.000000	98.454985
2739.000000	98.457028
2738.000000	98.457564
2737.000000	98.457319
2736.000000	98.457002
2735.000000	98.457358
2734.000000	98.459104
2733.000000	98.462520
2732.000000	98.466942
2731.000000	98.470866
2730.000000	98.473105
2729.000000	98.474255
2728.000000	98.476579
2727.000000	98.481667
2726.000000	98.488282
2725.000000	98.493246
2724.000000	98.494687
2723.000000	98.493758
2722.000000	98.492970
2721.000000	98.493755
2720.000000	98.496166
2719.000000	98.499989
2718.000000	98.504890
2717.000000	98.509692
2716.000000	98.512709
2715.000000	98.513237
2714.000000	98.512113
2713.000000	98.510558
2712.000000	98.509022
2711.000000	98.507608
2710.000000	98.507174
2709.000000	98.509100
2708.000000	98.513539
2707.000000	98.518366
2706.000000	98.520719
2705.000000	98.519878
2704.000000	98.518064
2703.000000	98.517888
2702.000000	98.519547
2701.000000	98.521285
2700.000000	98.522170
2699.000000	98.523121
2698.000000	98.525113
2697.000000	98.527762
2696.000000	98.530359
2695.000000	98.533124
2694.000000	98.536298
2693.000000	98.538726
2692.000000	98.538658
2691.000000	98.535837
2690.000000	98.531898
2689.000000	98.528845
2688.000000	98.527974
2687.000000	98.529961
2686.000000	98.534728
2685.000000	98.540876
2684.000000	98.546244
2683.000000	98.549632
2682.000000	98.551520
2681.000000	98.552931
2680.000000	98.554300
2679.000000	98.555805
2678.000000	98.557965
2677.000000	98.560945
2676.000000	98.563533
2675.000000	98.563709
2674.000000	98.560455
2673.000000	98.554749
2672.000000	98.548829
2671.000000	98.544800
2670.000000	98.543798
2669.000000	98.545745
2668.000000	98.549356
2667.000000	98.552598
2666.000000	98.553769
2665.000000	98.552519
2664.000000	98.549801
2663.000000	98.546876
2662.000000	98.544473
2661.000000	98.542841
2660.000000	98.542055
2659.000000	98.541814
2658.000000	98.541250
2657.000000	98.539685
2656.000000	98.537753
2655.000000	98.537248
2654.000000	98.539551
2653.000000	98.544628
2652.000000	98.551664
2651.000000	98.559920
2650.000000	98.568376
2649.000000	98.575294
2648.000000	98.579407
2647.000000	98.581512
2646.000000	98.583759
2645.000000	98.587008
2644.000000	98.589829
2643.000000	98.590659
2642.000000	98.590111
2641.000000	98.590276
2640.000000	98.592239
2639.000000	98.595364
2638.000000	98.598910
2637.000000	98.603209
2636.000000	98.608761
2635.000000	98.614884
2634.000000	98.619987
2633.000000	98.623044
2632.000000	98.624437
2631.000000	98.625513
2630.000000	98.627647
2629.000000	98.631606
2628.000000	98.637443
2627.000000	98.644814
2626.000000	98.653278
2625.000000	98.661914
2624.000000	98.668554
2623.000000	98.670289
2622.000000	98.665989
2621.000000	98.658538
2620.000000	98.653473
2619.000000	98.654537
2618.000000	98.660739
2617.000000	98.668167
2616.000000	98.674178
2615.000000	98.679132
2614.000000	98.684584
2613.000000	98.691066
2612.000000	98.697813
2611.000000	98.703450
2610.000000	98.706269
2609.000000	98.704992
2608.000000	98.700646
2607.000000	98.697315
2606.000000	98.699327
2605.000000	98.706989
2604.000000	98.715971
2603.000000	98.721565
2602.000000	98.722992
2601.000000	98.722882
2600.000000	98.723540
2599.000000	98.725140
2598.000000	98.727204
2597.000000	98.730018
2596.000000	98.733736
2595.000000	98.737231
2594.000000	98.738843
2593.000000	98.737805
2592.000000	98.734514
2591.000000	98.730410
2590.000000	98.728200
2589.000000	98.730769
2588.000000	98.738170
2587.000000	98.746459
2586.000000	98.751346
2585.000000	98.752723
2584.000000	98.753978
2583.000000	98.757016
2582.000000	98.760056
2581.000000	98.760485
2580.000000	98.757710
2579.000000	98.752681
2578.000000	98.746938
2577.000000	98.743425
2576.000000	98.745927
2575.000000	98.755234
2574.000000	98.766691
2573.000000	98.773516
2572.000000	98.772413
2571.000000	98.765205
2570.000000	98.756300
2569.000000	98.750295
2568.000000	98.750786
2567.000000	98.758513
2566.000000	98.769931
2565.000000	98.779487
2564.000000	98.784608
2563.000000	98.787787
2562.000000	98.793139
2561.000000	98.801378
2560.000000	98.808644
2559.000000	98.810416
2558.000000	98.806412
2557.000000	98.801197
2556.000000	98.799365
2555.000000	98.800444
2554.000000	98.800062
2553.000000	98.796330
2552.000000	98.792707
2551.000000	98.793021
2550.000000	98.795419
2549.000000	98.794018
2548.000000	98.786085
2547.000000	98.775293
2546.000000	98.767888
2545.000000	98.767794
2544.000000	98.775575
2543.000000	98.789152
2542.000000	98.803637
2541.000000	98.812294
2540.000000	98.810846
2539.000000	98.801757
2538.000000	98.792933
2537.000000	98.790956
2536.000000	98.795499
2535.000000	98.800934
2534.000000	98.803210
2533.000000	98.803918
2532.000000	98.806795
2531.000000	98.811364
2530.000000	98.812450
2529.000000	98.806320
2528.000000	98.795382
2527.000000	98.785500
2526.000000	98.780090
2525.000000	98.778398
2524.000000	98.778445
2523.000000	98.779491
2522.000000	98.781627
2521.000000	98.784653
2520.000000	98.788079
2519.000000	98.791625
2518.000000	98.795108
2517.000000	98.797913
2516.000000	98.798845
2515.000000	98.797285
2514.000000	98.795334
2513.000000	98.797881
2512.000000	98.808286
2511.000000	98.823395
2510.000000	98.834978
2509.000000	98.837228
2508.000000	98.831437
2507.000000	98.822584
2506.000000	98.813977
2505.000000	98.807402
2504.000000	98.805787
2503.000000	98.811694
2502.000000	98.823454
2501.000000	98.835929
2500.000000	98.845383
2499.000000	98.851463
2498.000000	98.854501
2497.000000	98.853764
2496.000000	98.849351
2495.000000	98.843468
2494.000000	98.838561
2493.000000	98.835710
2492.000000	98.835852
2491.000000	98.840752
2490.000000	98.850761
2489.000000	98.862157
2488.000000	98.868900
2487.000000	98.868210
2486.000000	98.863998
2485.000000	98.863752
2484.000000	98.871129
2483.000000	98.881746
2482.000000	98.887181
2481.000000	98.883136
2480.000000	98.873282
2479.000000	98.864995
2478.000000	98.862476
2477.000000	98.864357
2476.000000	98.866435
2475.000000	98.865731
2474.000000	98.862607
2473.000000	98.859916
2472.000000	98.859952
2471.000000	98.862171
2470.000000	98.864548
2469.000000	98.866603
2468.000000	98.869201
2467.000000	98.871652
2466.000000	98.871903
2465.000000	98.870548
2464.000000	98.871753
2463.000000	98.878246
2462.000000	98.887608
2461.000000	98.895423
2460.000000	98.899966
2459.000000	98.901504
2458.000000	98.899306
2457.000000	98.892645
2456.000000	98.883407
2455.000000	98.874822
2454.000000	98.868566
2453.000000	98.865671
2452.000000	98.868552
2451.000000	98.878377
2450.000000	98.890999
2449.000000	98.899264
2448.000000	98.899959
2447.000000	98.896127
2446.000000	98.892714
2445.000000	98.892530
2444.000000	98.895991
2443.000000	98.901520
2442.000000	98.905920
2441.000000	98.907029
2440.000000	98.906441
2439.000000	98.907267
2438.000000	98.909351
2437.000000	98.909482
2436.000000	98.906578
2435.000000	98.903578
2434.000000	98.903434
2433.000000	98.905812
2432.000000	98.908729
2431.000000	98.911377
2430.000000	98.914245
2429.000000	98.917946
2428.000000	98.922496
2427.000000	98.926455
2426.000000	98.927027
2425.000000	98.922830
2424.000000	98.916445
2423.000000	98.912166
2422.000000	98.911242
2421.000000	98.911392
2420.000000	98.910636
2419.000000	98.909009
2418.000000	98.906640
2417.000000	98.903324
2416.000000	98.900752
2415.000000	98.902318
2414.000000	98.909063
2413.000000	98.917589
2412.000000	98.923268
2411.000000	98.924450
2410.000000	98.923202
2409.000000	98.923436
2408.000000	98.928315
2407.000000	98.937169
2406.000000	98.944373
2405.000000	98.943490
2404.000000	98.934042
2403.000000	98.922853
2402.000000	98.917573
2401.000000	98.919767
2400.000000	98.924734
2399.000000	98.926842
2398.000000	98.924315
2397.000000	98.919593
2396.000000	98.916092
2395.000000	98.915099
2394.000000	98.916040
2393.000000	98.919099
2392.000000	98.925393
2391.000000	98.933853
2390.000000	98.940443
2389.000000	98.942756
2388.000000	98.943661
2387.000000	98.947592
2386.000000	98.954665
2385.000000	98.961135
2384.000000	98.964560
2383.000000	98.965384
2382.000000	98.963923
2381.000000	98.959956
2380.000000	98.955192
2379.000000	98.952299
2378.000000	98.950784
2377.000000	98.947579
2376.000000	98.942998
2375.000000	98.941749
2374.000000	98.945877
2373.000000	98.950964
2372.000000	98.952862
2371.000000	98.954027
2370.000000	98.958912
2369.000000	98.966304
2368.000000	98.970484
2367.000000	98.968587
2366.000000	98.962401
2365.000000	98.954061
2364.000000	98.944409
2363.000000	98.935278
2362.000000	98.929095
2361.000000	98.926130
2360.000000	98.926301
2359.000000	98.929583
2358.000000	98.934758
2357.000000	98.939285
2356.000000	98.938518
2355.000000	98.932416
2354.000000	98.927079
2353.000000	98.927157
2352.000000	98.929540
2351.000000	98.928572
2350.000000	98.922890
2349.000000	98.911847
2348.000000	98.895737
2347.000000	98.878588
2346.000000	98.867835
2345.000000	98.868347
2344.000000	98.878012
2343.000000	98.893020
2342.000000	98.906982
2341.000000	98.914630
2340.000000	98.915322
2339.000000	98.911054
2338.000000	98.904030
2337.000000	98.896065
2336.000000	98.889458
2335.000000	98.886038
2334.000000	98.886731
2333.000000	98.889227
2332.000000	98.890042
2331.000000	98.887758
2330.000000	98.887163
2329.000000	98.889234
2328.000000	98.887904
2327.000000	98.872927
2326.000000	98.843038
2325.000000	98.810113
2324.000000	98.791028
2323.000000	98.794629
2322.000000	98.813325
2321.000000	98.831034
2320.000000	98.838441
2319.000000	98.838583
2318.000000	98.840690
2317.000000	98.849166
2316.000000	98.862887
2315.000000	98.876632
2314.000000	98.886885
2313.000000	98.893754
2312.000000	98.902747
2311.000000	98.918538
2310.000000	98.940044
2309.000000	98.959414
2308.000000	98.970187
2307.000000	98.971517
2306.000000	98.966141
2305.000000	98.955683
2304.000000	98.941630
2303.000000	98.927057
2302.000000	98.915608
2301.000000	98.907923
2300.000000	98.903302
2299.000000	98.901711
2298.000000	98.904065
2297.000000	98.908436
2296.000000	98.910563
2295.000000	98.907208
2294.000000	98.900027
2293.000000	98.893934
2292.000000	98.892725
2291.000000	98.895722
2290.000000	98.898600
2289.000000	98.897087
2288.000000	98.889800
2287.000000	98.878710
2286.000000	98.867674
2285.000000	98.861202
2284.000000	98.862492
2283.000000	98.871637
2282.000000	98.885924
2281.000000	98.902508
2280.000000	98.918434
2279.000000	98.927641
2278.000000	98.922300
2277.000000	98.902089
2276.000000	98.879799
2275.000000	98.871313
2274.000000	98.880187
2273.000000	98.896436
2272.000000	98.910926
2271.000000	98.924967
2270.000000	98.943962
2269.000000	98.966922
2268.000000	98.986465
2267.000000	98.996525
2266.000000	98.996837
2265.000000	98.991376
2264.000000	98.985179
2263.000000	98.981363
2262.000000	98.979149
2261.000000	98.974585
2260.000000	98.963456
2259.000000	98.944495
2258.000000	98.921402
2257.000000	98.903219
2256.000000	98.899526
2255.000000	98.911860
2254.000000	98.931360
2253.000000	98.947523
2252.000000	98.957428
2251.000000	98.963232
2250.000000	98.965384
2249.000000	98.964275
2248.000000	98.965456
2247.000000	98.973854
2246.000000	98.983581
2245.000000	98.982222
2244.000000	98.968059
2243.000000	98.955515
2242.000000	98.959494
2241.000000	98.979502
2240.000000	99.001802
2239.000000	99.012935
2238.000000	99.008699
2237.000000	98.995223
2236.000000	98.984826
2235.000000	98.987492
2234.000000	99.003203
2233.000000	99.023600
2232.000000	99.039862
2231.000000	99.045529
2230.000000	99.034077
2229.000000	99.002859
2228.000000	98.961790
2227.000000	98.930747
2226.000000	98.924276
2225.000000	98.941738
2224.000000	98.972317
2223.000000	99.003880
2222.000000	99.026221
2221.000000	99.033326
2220.000000	99.027632
2219.000000	99.018176
2218.000000	99.012154
2217.000000	99.011523
2216.000000	99.017093
2215.000000	99.028971
2214.000000	99.041772
2213.000000	99.046909
2212.000000	99.043409
2211.000000	99.040916
2210.000000	99.048409
2209.000000	99.064265
2208.000000	99.079783
2207.000000	99.088155
2206.000000	99.087701
2205.000000	99.079945
2204.000000	99.066985
2203.000000	99.049374
2202.000000	99.028341
2201.000000	99.012174
2200.000000	99.014217
2199.000000	99.037003
2198.000000	99.063619
2197.000000	99.075434
2196.000000	99.076222
2195.000000	99.086102
2194.000000	99.112028
2193.000000	99.137515
2192.000000	99.143842
2191.000000	99.129060
2190.000000	99.102363
2189.000000	99.074375
2188.000000	99.057882
2187.000000	99.064228
2186.000000	99.089733
2185.000000	99.114758
2184.000000	99.125365
2183.000000	99.129460
2182.000000	99.142598
2181.000000	99.163830
2180.000000	99.175106
2179.000000	99.161908
2178.000000	99.128841
2177.000000	99.097708
2176.000000	99.091466
2175.000000	99.113803
2174.000000	99.142841
2173.000000	99.150745
2172.000000	99.130899
2171.000000	99.101157
2170.000000	99.083247
2169.000000	99.084708
2168.000000	99.095629
2167.000000	99.095550
2166.000000	99.069297
2165.000000	99.027067
2164.000000	99.003551
2163.000000	99.021323
2162.000000	99.062401
2161.000000	99.095996
2160.000000	99.128608
2159.000000	99.195095
2158.000000	99.289466
2157.000000	99.350253
2156.000000	99.337081
2155.000000	99.276439
2154.000000	99.218846
2153.000000	99.187390
2152.000000	99.176489
2151.000000	99.176900
2150.000000	99.187862
2149.000000	99.211052
2148.000000	99.242002
2147.000000	99.267200
2146.000000	99.269457
2145.000000	99.242065
2144.000000	99.197829
2143.000000	99.157147
2142.000000	99.129553
2141.000000	99.113975
2140.000000	99.111161
2139.000000	99.123660
2138.000000	99.144477
2137.000000	99.158089
2136.000000	99.156382
2135.000000	99.146213
2134.000000	99.139432
2133.000000	99.142955
2132.000000	99.158064
2131.000000	99.180158
2130.000000	99.197723
2129.000000	99.198944
2128.000000	99.182096
2127.000000	99.155344
2126.000000	99.127739
2125.000000	99.105372
2124.000000	99.092806
2123.000000	99.089488
2122.000000	99.086122
2121.000000	99.073426
2120.000000	99.055029
2119.000000	99.043186
2118.000000	99.041056
2117.000000	99.038168
2116.000000	99.025433
2115.000000	99.006434
2114.000000	98.990295
2113.000000	98.981093
2112.000000	98.978043
2111.000000	98.979624
2110.000000	98.982846
2109.000000	98.983503
2108.000000	98.981537
2107.000000	98.982222
2106.000000	98.988619
2105.000000	98.996740
2104.000000	99.001060
2103.000000	99.001031
2102.000000	98.999817
2101.000000	98.999623
2100.000000	99.000365
2099.000000	99.000950
2098.000000	99.002476
2097.000000	99.012052
2096.000000	99.038384
2095.000000	99.077448
2094.000000	99.107307
2093.000000	99.107367
2092.000000	99.081701
2091.000000	99.053405
2090.000000	99.038175
2089.000000	99.033254
2088.000000	99.030720
2087.000000	99.029767
2086.000000	99.032251
2085.000000	99.036804
2084.000000	99.042097
2083.000000	99.048351
2082.000000	99.052193
2081.000000	99.047864
2080.000000	99.036752
2079.000000	99.027687
2078.000000	99.024351
2077.000000	99.020454
2076.000000	99.010184
2075.000000	98.995697
2074.000000	98.982010
2073.000000	98.974030
2072.000000	98.980664
2071.000000	99.008697
2070.000000	99.047745
2069.000000	99.073147
2068.000000	99.072752
2067.000000	99.061603
2066.000000	99.062502
2065.000000	99.079872
2064.000000	99.098916
2063.000000	99.104291
2062.000000	99.092650
2061.000000	99.073355
2060.000000	99.062457
2059.000000	99.068265
2058.000000	99.080246
2057.000000	99.080959
2056.000000	99.069832
2055.000000	99.062464
2054.000000	99.063623
2053.000000	99.058345
2052.000000	99.038603
2051.000000	99.021534
2050.000000	99.028517
2049.000000	99.055721
2048.000000	99.079327
2047.000000	99.085721
2046.000000	99.080646
2045.000000	99.072127
2044.000000	99.061123
2043.000000	99.047319
2042.000000	99.033038
2041.000000	99.023184
2040.000000	99.025830
2039.000000	99.046404
2038.000000	99.078212
2037.000000	99.107668
2036.000000	99.132278
2035.000000	99.161197
2034.000000	99.193718
2033.000000	99.216312
2032.000000	99.229562
2031.000000	99.254992
2030.000000	99.300672
2029.000000	99.342089
2028.000000	99.354399
2027.000000	99.346861
2026.000000	99.346656
2025.000000	99.361256
2024.000000	99.373265
2023.000000	99.362727
2022.000000	99.325721
2021.000000	99.279604
2020.000000	99.255431
2019.000000	99.272339
2018.000000	99.313925
2017.000000	99.340501
2016.000000	99.331945
2015.000000	99.304527
2014.000000	99.280836
2013.000000	99.265968
2012.000000	99.257749
2011.000000	99.259864
2010.000000	99.276168
2009.000000	99.304888
2008.000000	99.341701
2007.000000	99.374917
2006.000000	99.379891
2005.000000	99.340586
2004.000000	99.279064
2003.000000	99.237735
2002.000000	99.231590
2001.000000	99.236234
2000.000000	99.223693
1999.000000	99.194012
1998.000000	99.165456
1997.000000	99.155388
1996.000000	99.173891
1995.000000	99.216231
1994.000000	99.253506
1993.000000	99.250115
1992.000000	99.205129
1991.000000	99.158141
1990.000000	99.139084
1989.000000	99.137643
1988.000000	99.132665
1987.000000	99.124706
1986.000000	99.124678
1985.000000	99.131459
1984.000000	99.138350
1983.000000	99.145031
1982.000000	99.145857
1981.000000	99.123029
1980.000000	99.074450
1979.000000	99.038646
1978.000000	99.063752
1977.000000	99.151581
1976.000000	99.251184
1975.000000	99.312667
1974.000000	99.326130
1973.000000	99.315383
1972.000000	99.314057
1971.000000	99.338020
1970.000000	99.367495
1969.000000	99.363552
1968.000000	99.312501
1967.000000	99.246434
1966.000000	99.209401
1965.000000	99.214341
1964.000000	99.243762
1963.000000	99.277031
1962.000000	99.302809
1961.000000	99.315660
1960.000000	99.314172
1959.000000	99.300033
1958.000000	99.277206
1957.000000	99.255898
1956.000000	99.251696
1955.000000	99.269871
1954.000000	99.293307
1953.000000	99.299400
1952.000000	99.289165
1951.000000	99.285169
1950.000000	99.301671
1949.000000	99.327612
1948.000000	99.343330
1947.000000	99.341865
1946.000000	99.328569
1945.000000	99.312097
1944.000000	99.301300
1943.000000	99.300442
1942.000000	99.301891
1941.000000	99.295019
1940.000000	99.283660
1939.000000	99.278372
1938.000000	99.276477
1937.000000	99.264583
1936.000000	99.241097
1935.000000	99.223257
1934.000000	99.226226
1933.000000	99.245722
1932.000000	99.265577
1931.000000	99.273614
1930.000000	99.267035
1929.000000	99.247808
1928.000000	99.224491
1927.000000	99.210948
1926.000000	99.214608
1925.000000	99.232263
1924.000000	99.253549
1923.000000	99.271238
1922.000000	99.281230
1921.000000	99.280911
1920.000000	99.270639
1919.000000	99.254295
1918.000000	99.237349
1917.000000	99.223993
1916.000000	99.215920
1915.000000	99.212670
1914.000000	99.211482
1913.000000	99.213452
1912.000000	99.224565
1911.000000	99.245419
1910.000000	99.262902
1909.000000	99.259085
1908.000000	99.233536
1907.000000	99.205356
1906.000000	99.191957
1905.000000	99.198704
1904.000000	99.219743
1903.000000	99.246286
1902.000000	99.267819
1901.000000	99.275451
1900.000000	99.272007
1899.000000	99.269938
1898.000000	99.275119
1897.000000	99.282588
1896.000000	99.285274
1895.000000	99.283307
1894.000000	99.279951
1893.000000	99.276467
1892.000000	99.273928
1891.000000	99.273380
1890.000000	99.272325
1889.000000	99.267064
1888.000000	99.262461
1887.000000	99.269153
1886.000000	99.286622
1885.000000	99.301715
1884.000000	99.305751
1883.000000	99.303130
1882.000000	99.299959
1881.000000	99.293863
1880.000000	99.283710
1879.000000	99.277110
1878.000000	99.280202
1877.000000	99.289847
1876.000000	99.298241
1875.000000	99.301456
1874.000000	99.301982
1873.000000	99.304591
1872.000000	99.312290
1871.000000	99.323841
1870.000000	99.333108
1869.000000	99.334434
1868.000000	99.331074
1867.000000	99.332201
1866.000000	99.337447
1865.000000	99.335903
1864.000000	99.322577
1863.000000	99.305651
1862.000000	99.294458
1861.000000	99.289363
1860.000000	99.288439
1859.000000	99.294429
1858.000000	99.307042
1857.000000	99.316861
1856.000000	99.315287
1855.000000	99.304912
1854.000000	99.294463
1853.000000	99.288542
1852.000000	99.288547
1851.000000	99.297093
1850.000000	99.309905
1849.000000	99.321633
1848.000000	99.333248
1847.000000	99.348549
1846.000000	99.360592
1845.000000	99.354068
1844.000000	99.327268
1843.000000	99.302667
1842.000000	99.299496
1841.000000	99.308663
1840.000000	99.313358
1839.000000	99.311229
1838.000000	99.308739
1837.000000	99.309197
1836.000000	99.309822
1835.000000	99.311886
1834.000000	99.319029
1833.000000	99.329005
1832.000000	99.335680
1831.000000	99.336192
1830.000000	99.331106
1829.000000	99.324475
1828.000000	99.321811
1827.000000	99.323997
1826.000000	99.323285
1825.000000	99.315653
1824.000000	99.308244
1823.000000	99.309600
1822.000000	99.317192
1821.000000	99.321997
1820.000000	99.322818
1819.000000	99.324697
1818.000000	99.328568
1817.000000	99.331266
1816.000000	99.332016
1815.000000	99.335959
1814.000000	99.342935
1813.000000	99.344227
1812.000000	99.335941
1811.000000	99.323876
1810.000000	99.316297
1809.000000	99.310871
1808.000000	99.299824
1807.000000	99.283982
1806.000000	99.270924
1805.000000	99.264636
1804.000000	99.263223
1803.000000	99.265010
1802.000000	99.269074
1801.000000	99.271565
1800.000000	99.270774
1799.000000	99.266735
1798.000000	99.262290
1797.000000	99.258331
1796.000000	99.256469
1795.000000	99.259428
1794.000000	99.265073
1793.000000	99.267490
1792.000000	99.267762
1791.000000	99.272466
1790.000000	99.285152
1789.000000	99.299668
1788.000000	99.308795
1787.000000	99.312635
1786.000000	99.315179
1785.000000	99.316738
1784.000000	99.316300
1783.000000	99.317073
1782.000000	99.317836
1781.000000	99.312279
1780.000000	99.306898
1779.000000	99.310477
1778.000000	99.323997
1777.000000	99.338347
1776.000000	99.350990
1775.000000	99.366475
1774.000000	99.376088
1773.000000	99.363010
1772.000000	99.333189
1771.000000	99.313966
1770.000000	99.311842
1769.000000	99.306099
1768.000000	99.280360
1767.000000	99.246759
1766.000000	99.226167
1765.000000	99.215028
1764.000000	99.191838
1763.000000	99.143949
1762.000000	99.077851
1761.000000	99.007680
1760.000000	98.943429
1759.000000	98.876761
1758.000000	98.784123
1757.000000	98.643715
1756.000000	98.474305
1755.000000	98.320851
1754.000000	98.191134
1753.000000	98.047524
1752.000000	97.858154
1751.000000	97.638319
1750.000000	97.430467
1749.000000	97.248749
1748.000000	97.082796
1747.000000	96.941500
1746.000000	96.832537
1745.000000	96.746063
1744.000000	96.676687
1743.000000	96.632804
1742.000000	96.621970
1741.000000	96.636139
1740.000000	96.667927
1739.000000	96.724448
1738.000000	96.812221
1737.000000	96.918973
1736.000000	97.031700
1735.000000	97.165424
1734.000000	97.339290
1733.000000	97.519956
1732.000000	97.679551
1731.000000	97.821444
1730.000000	97.950998
1729.000000	98.071631
1728.000000	98.187009
1727.000000	98.302458
1726.000000	98.414878
1725.000000	98.518862
1724.000000	98.614680
1723.000000	98.702517
1722.000000	98.783423
1721.000000	98.855156
1720.000000	98.917712
1719.000000	98.979159
1718.000000	99.048445
1717.000000	99.111156
1716.000000	99.140600
1715.000000	99.135866
1714.000000	99.110335
1713.000000	99.076467
1712.000000	99.047348
1711.000000	99.023989
1710.000000	99.007361
1709.000000	98.976444
1708.000000	98.899444
1707.000000	98.861013
1706.000000	98.815264
1705.000000	98.766344
1704.000000	98.711759
1703.000000	98.661729
1702.000000	98.613402
1701.000000	98.549852
1700.000000	98.463355
1699.000000	98.380160
1698.000000	98.310217
1697.000000	98.232405
1696.000000	98.135603
1695.000000	98.039144
1694.000000	97.959337
1693.000000	97.886905
1692.000000	97.812692
1691.000000	97.736621
1690.000000	97.665756
1689.000000	97.591255
1688.000000	97.524611
1687.000000	97.442287
1686.000000	97.393863
1685.000000	97.442931
1684.000000	97.273438
1683.000000	97.153663
1682.000000	97.070510
1681.000000	97.006468
1680.000000	96.900660
1679.000000	96.743639
1678.000000	96.660548
1677.000000	96.565727
1676.000000	96.465200
1675.000000	96.358742
1674.000000	96.260159
1673.000000	96.162192
1672.000000	96.057465
1671.000000	95.948414
1670.000000	95.839814
1669.000000	95.734094
1668.000000	95.627023
1667.000000	95.531958
1666.000000	95.467118
1665.000000	95.372461
1664.000000	95.253013
1663.000000	95.116527
1662.000000	94.995137
1661.000000	94.894067
1660.000000	94.803099
1659.000000	94.713919
1658.000000	94.629571
1657.000000	94.558377
1656.000000	94.503515
1655.000000	94.447913
1654.000000	94.364225
1653.000000	94.250980
1652.000000	94.153340
1651.000000	94.123787
1650.000000	94.123237
1649.000000	94.088372
1648.000000	94.023210
1647.000000	93.956976
1646.000000	93.909309
1645.000000	93.875054
1644.000000	93.850610
1643.000000	93.831426
1642.000000	93.813267
1641.000000	93.793784
1640.000000	93.778246
1639.000000	93.773946
1638.000000	93.779317
1637.000000	93.782058
1636.000000	93.774232
1635.000000	93.760321
1634.000000	93.751525
1633.000000	93.758846
1632.000000	93.766496
1631.000000	93.768472
1630.000000	93.774991
1629.000000	93.795498
1628.000000	93.833894
1627.000000	93.889296
1626.000000	93.954318
1625.000000	94.019324
1624.000000	94.085927
1623.000000	94.164960
1622.000000	94.256962
1621.000000	94.349572
1620.000000	94.436958
1619.000000	94.520675
1618.000000	94.612275
1617.000000	94.725934
1616.000000	94.852948
1615.000000	94.967832
1614.000000	95.060218
1613.000000	95.135432
1612.000000	95.207031
1611.000000	95.289791
1610.000000	95.386021
1609.000000	95.486516
1608.000000	95.584368
1607.000000	95.678071
1606.000000	95.764721
1605.000000	95.840650
1604.000000	95.909941
1603.000000	95.975237
1602.000000	96.034089
1601.000000	96.086097
1600.000000	96.135902
1599.000000	96.186640
1598.000000	96.235195
1597.000000	96.278371
1596.000000	96.316846
1595.000000	96.350845
1594.000000	96.378400
1593.000000	96.399597
1592.000000	96.418013
1591.000000	96.434527
1590.000000	96.445352
1589.000000	96.448213
1588.000000	96.446013
1587.000000	96.441426
1586.000000	96.434556
1585.000000	96.425052
1584.000000	96.414948
1583.000000	96.403715
1582.000000	96.383642
1581.000000	96.356754
1580.000000	96.336884
1579.000000	96.330569
1578.000000	96.324250
1577.000000	96.301444
1576.000000	96.259175
1575.000000	96.210102
1574.000000	96.166190
1573.000000	96.127325
1572.000000	96.079062
1571.000000	96.018238
1570.000000	95.931294
1569.000000	95.830840
1568.000000	95.777892
1567.000000	95.721445
1566.000000	95.664179
1565.000000	95.596937
1564.000000	95.526237
1563.000000	95.454811
1562.000000	95.381544
1561.000000	95.302039
1560.000000	95.215893
1559.000000	95.128178
1558.000000	95.045811
1557.000000	94.963792
1556.000000	94.889034
1555.000000	94.810997
1554.000000	94.750883
1553.000000	94.717043
1552.000000	94.635083
1551.000000	94.571232
1550.000000	94.497701
1549.000000	94.429174
1548.000000	94.369542
1547.000000	94.320212
1546.000000	94.270536
1545.000000	94.226268
1544.000000	94.202995
1543.000000	94.200578
1542.000000	94.202395
1541.000000	94.202699
1540.000000	94.200809
1539.000000	94.181444
1538.000000	94.151285
1537.000000	94.133390
1536.000000	94.114233
1535.000000	94.090801
1534.000000	94.079423
1533.000000	94.092104
1532.000000	94.117727
1531.000000	94.139214
1530.000000	94.152783
1529.000000	94.162427
1528.000000	94.178242
1527.000000	94.208543
1526.000000	94.248122
1525.000000	94.285999
1524.000000	94.320597
1523.000000	94.354910
1522.000000	94.393487
1521.000000	94.429798
1520.000000	94.452636
1519.000000	94.469558
1518.000000	94.485729
1517.000000	94.503169
1516.000000	94.523032
1515.000000	94.544353
1514.000000	94.568851
1513.000000	94.596993
1512.000000	94.636182
1511.000000	94.696039
1510.000000	94.777293
1509.000000	94.868738
1508.000000	94.969121
1507.000000	95.083384
1506.000000	95.160399
1505.000000	95.178117
1504.000000	95.201305
1503.000000	95.235231
1502.000000	95.266394
1501.000000	95.296980
1500.000000	95.332193
1499.000000	95.379110
1498.000000	95.440870
1497.000000	95.510816
1496.000000	95.572018
1495.000000	95.620677
1494.000000	95.666874
1493.000000	95.710926
1492.000000	95.751369
1491.000000	95.797184
1490.000000	95.855502
1489.000000	95.907209
1488.000000	95.928996
1487.000000	95.926147
1486.000000	95.915599
1485.000000	95.899444
1484.000000	95.877276
1483.000000	95.853294
1482.000000	95.826510
1481.000000	95.794310
1480.000000	95.755009
1479.000000	95.710108
1478.000000	95.656222
1477.000000	95.592725
1476.000000	95.529457
1475.000000	95.477090
1474.000000	95.422580
1473.000000	95.333520
1472.000000	95.203843
1471.000000	95.066505
1470.000000	94.949177
1469.000000	94.846990
1468.000000	94.751037
1467.000000	94.663988
1466.000000	94.588133
1465.000000	94.517155
1464.000000	94.451075
1463.000000	94.396640
1462.000000	94.353058
1461.000000	94.311526
1460.000000	94.268725
1459.000000	94.226642
1458.000000	94.174332
1457.000000	94.093097
1456.000000	93.997436
1455.000000	93.930948
1454.000000	93.890009
1453.000000	93.846463
1452.000000	93.802874
1451.000000	93.771275
1450.000000	93.752004
1449.000000	93.735598
1448.000000	93.720250
1447.000000	93.712922
1446.000000	93.712348
1445.000000	93.709402
1444.000000	93.703890
1443.000000	93.696986
1442.000000	93.690197
1441.000000	93.685522
1440.000000	93.686379
1439.000000	93.690344
1438.000000	93.690281
1437.000000	93.686130
1436.000000	93.687144
1435.000000	93.702186
1434.000000	93.725253
1433.000000	93.744274
1432.000000	93.756860
1431.000000	93.767895
1430.000000	93.775464
1429.000000	93.772639
1428.000000	93.758706
1427.000000	93.743908
1426.000000	93.733506
1425.000000	93.725304
1424.000000	93.722604
1423.000000	93.724830
1422.000000	93.725262
1421.000000	93.716751
1420.000000	93.702034
1419.000000	93.693660
1418.000000	93.693579
1417.000000	93.693088
1416.000000	93.689645
1415.000000	93.686490
1414.000000	93.685809
1413.000000	93.689256
1412.000000	93.698843
1411.000000	93.713596
1410.000000	93.729413
1409.000000	93.744637
1408.000000	93.760518
1407.000000	93.780175
1406.000000	93.804520
1405.000000	93.829550
1404.000000	93.851830
1403.000000	93.867984
1402.000000	93.875932
1401.000000	93.875846
1400.000000	93.876252
1399.000000	93.889627
1398.000000	93.915069
1397.000000	93.939578
1396.000000	93.954080
1395.000000	93.960386
1394.000000	93.963429
1393.000000	93.969891
1392.000000	93.987172
1391.000000	94.014393
1390.000000	94.046462
1389.000000	94.081876
1388.000000	94.123745
1387.000000	94.171491
1386.000000	94.215797
1385.000000	94.249663
1384.000000	94.277708
1383.000000	94.308066
1382.000000	94.345874
1381.000000	94.391930
1380.000000	94.444948
1379.000000	94.504396
1378.000000	94.568553
1377.000000	94.636301
1376.000000	94.710179
1375.000000	94.793189
1374.000000	94.877639
1373.000000	94.949061
1372.000000	95.005048
1371.000000	95.054692
1370.000000	95.103784
1369.000000	95.153053
1368.000000	95.203889
1367.000000	95.256192
1366.000000	95.308439
1365.000000	95.360517
1364.000000	95.415527
1363.000000	95.473938
1362.000000	95.526512
1361.000000	95.563424
1360.000000	95.586850
1359.000000	95.604470
1358.000000	95.619801
1357.000000	95.633520
1356.000000	95.646932
1355.000000	95.660900
1354.000000	95.673686
1353.000000	95.682691
1352.000000	95.686677
1351.000000	95.686966
1350.000000	95.685191
1349.000000	95.680828
1348.000000	95.672580
1347.000000	95.657397
1346.000000	95.633298
1345.000000	95.602384
1344.000000	95.571391
1343.000000	95.546382
1342.000000	95.528597
1341.000000	95.515520
1340.000000	95.503422
1339.000000	95.487139
1338.000000	95.462720
1337.000000	95.433324
1336.000000	95.408335
1335.000000	95.396016
1334.000000	95.398769
1333.000000	95.414618
1332.000000	95.440930
1331.000000	95.475155
1330.000000	95.513310
1329.000000	95.551051
1328.000000	95.586466
1327.000000	95.619848
1326.000000	95.651005
1325.000000	95.678557
1324.000000	95.701853
1323.000000	95.721046
1322.000000	95.736996
1321.000000	95.751655
1320.000000	95.767557
1319.000000	95.785127
1318.000000	95.801899
1317.000000	95.816629
1316.000000	95.832609
1315.000000	95.854268
1314.000000	95.881351
1313.000000	95.908887
1312.000000	95.932961
1311.000000	95.954895
1310.000000	95.978962
1309.000000	96.007682
1308.000000	96.040001
1307.000000	96.072951
1306.000000	96.104004
1305.000000	96.132350
1304.000000	96.158977
1303.000000	96.185205
1302.000000	96.211795
1301.000000	96.238787
1300.000000	96.266005
1299.000000	96.293238
1298.000000	96.320066
1297.000000	96.345229
1296.000000	96.366189
1295.000000	96.379845
1294.000000	96.384761
1293.000000	96.382937
1292.000000	96.378842
1291.000000	96.376193
1290.000000	96.374687
1289.000000	96.370012
1288.000000	96.357802
1287.000000	96.338505
1286.000000	96.318107
1285.000000	96.303092
1284.000000	96.295245
1283.000000	96.292019
1282.000000	96.290801
1281.000000	96.290719
1280.000000	96.290168
1279.000000	96.285372
1278.000000	96.273789
1277.000000	96.257803
1276.000000	96.242248
1275.000000	96.228123
1274.000000	96.210904
1273.000000	96.185681
1272.000000	96.152073
1271.000000	96.113133
1270.000000	96.070433
1269.000000	96.022583
1268.000000	95.968676
1267.000000	95.910937
1266.000000	95.852902
1265.000000	95.795630
1264.000000	95.737121
1263.000000	95.675582
1262.000000	95.612484
1261.000000	95.551936
1260.000000	95.497025
1259.000000	95.446876
1258.000000	95.397836
1257.000000	95.348201
1256.000000	95.300444
1255.000000	95.258043
1254.000000	95.221166
1253.000000	95.186912
1252.000000	95.152816
1251.000000	95.117675
1250.000000	95.079740
1249.000000	95.037449
1248.000000	94.992521
1247.000000	94.949515
1246.000000	94.910952
1245.000000	94.874981
1244.000000	94.838777
1243.000000	94.802366
1242.000000	94.768199
1241.000000	94.738742
1240.000000	94.715856
1239.000000	94.701059
1238.000000	94.694838
1237.000000	94.697073
1236.000000	94.708007
1235.000000	94.727469
1234.000000	94.753665
1233.000000	94.784410
1232.000000	94.820479
1231.000000	94.865608
1230.000000	94.923014
1229.000000	94.993361
1228.000000	95.074797
1227.000000	95.163558
1226.000000	95.254767
1225.000000	95.344696
1224.000000	95.432752
1223.000000	95.520276
1222.000000	95.608261
1221.000000	95.696431
1220.000000	95.782883
1219.000000	95.863741
1218.000000	95.935243
1217.000000	95.996955
1216.000000	96.051274
1215.000000	96.099460
1214.000000	96.139889
1213.000000	96.171603
1212.000000	96.196307
1211.000000	96.214878
1210.000000	96.224541
1209.000000	96.221772
1208.000000	96.207604
1207.000000	96.187577
1206.000000	96.167148
1205.000000	96.149215
1204.000000	96.134977
1203.000000	96.124504
1202.000000	96.116047
1201.000000	96.107476
1200.000000	96.099397
1199.000000	96.095143
1198.000000	96.096952
1197.000000	96.103858
1196.000000	96.113739
1195.000000	96.125256
1194.000000	96.136793
1193.000000	96.145241
1192.000000	96.147700
1191.000000	96.144159
1190.000000	96.137784
1189.000000	96.132419
1188.000000	96.129760
1187.000000	96.128119
1186.000000	96.123274
1185.000000	96.111174
1184.000000	96.089996
1183.000000	96.060309
1182.000000	96.024427
1181.000000	95.985612
1180.000000	95.946622
1179.000000	95.907364
1178.000000	95.865029
1177.000000	95.818265
1176.000000	95.770024
1175.000000	95.724470
1174.000000	95.681763
1173.000000	95.638470
1172.000000	95.592838
1171.000000	95.546597
1170.000000	95.501579
1169.000000	95.458119
1168.000000	95.417751
1167.000000	95.383577
1166.000000	95.356346
1165.000000	95.333115
1164.000000	95.312177
1163.000000	95.296967
1162.000000	95.292470
1161.000000	95.300495
1160.000000	95.320082
1159.000000	95.350666
1158.000000	95.393085
1157.000000	95.448126
1156.000000	95.516011
1155.000000	95.595386
1154.000000	95.682199
1153.000000	95.772062
1152.000000	95.864140
1151.000000	95.961687
1150.000000	96.067577
1149.000000	96.180538
1148.000000	96.296324
1147.000000	96.410697
1146.000000	96.520711
1145.000000	96.624570
1144.000000	96.721851
1143.000000	96.813758
1142.000000	96.902601
1141.000000	96.990012
1140.000000	97.075102
1139.000000	97.154845
1138.000000	97.226540
1137.000000	97.290239
1136.000000	97.347566
1135.000000	97.398256
1134.000000	97.439869
1133.000000	97.471282
1132.000000	97.495562
1131.000000	97.517258
1130.000000	97.537099
1129.000000	97.551811
1128.000000	97.559386
1127.000000	97.562849
1126.000000	97.566845
1125.000000	97.571609
1124.000000	97.572983
1123.000000	97.567738
1122.000000	97.556850
1121.000000	97.542870
1120.000000	97.525739
1119.000000	97.502545
1118.000000	97.469944
1117.000000	97.426521
1116.000000	97.373559
1115.000000	97.313688
1114.000000	97.248726
1113.000000	97.179646
1112.000000	97.110244
1111.000000	97.048972
1110.000000	97.003831
1109.000000	96.975828
1108.000000	96.960672
1107.000000	96.955854
1106.000000	96.962041
1105.000000	96.977865
1104.000000	96.997139
1103.000000	97.012894
1102.000000	97.021529
1101.000000	97.021461
1100.000000	97.010805
1099.000000	96.988289
1098.000000	96.955065
1097.000000	96.914602
1096.000000	96.871821
1095.000000	96.832539
1094.000000	96.800611
1093.000000	96.774952
1092.000000	96.752801
1091.000000	96.736622
1090.000000	96.733794
1089.000000	96.746763
1088.000000	96.767401
1087.000000	96.785082
1086.000000	96.797931
1085.000000	96.813326
1084.000000	96.838472
1083.000000	96.874064
1082.000000	96.916269
1081.000000	96.960553
1080.000000	97.003599
1079.000000	97.044760
1078.000000	97.086951
1077.000000	97.133915
1076.000000	97.185480
1075.000000	97.236907
1074.000000	97.282966
1073.000000	97.320886
1072.000000	97.349624
1071.000000	97.369640
1070.000000	97.383812
1069.000000	97.395697
1068.000000	97.406070
1067.000000	97.412994
1066.000000	97.416026
1065.000000	97.417839
1064.000000	97.421125
1063.000000	97.426142
1062.000000	97.431574
1061.000000	97.435876
1060.000000	97.437662
1059.000000	97.437238
1058.000000	97.437847
1057.000000	97.442882
1056.000000	97.451733
1055.000000	97.461251
1054.000000	97.471436
1053.000000	97.485946
1052.000000	97.505891
1051.000000	97.526605
1050.000000	97.542901
1049.000000	97.554579
1048.000000	97.564604
1047.000000	97.574730
1046.000000	97.584866
1045.000000	97.593799
1044.000000	97.598437
1043.000000	97.595504
1042.000000	97.585961
1041.000000	97.574854
1040.000000	97.564070
1039.000000	97.547644
1038.000000	97.517747
1037.000000	97.474010
1036.000000	97.424717
1035.000000	97.380223
1034.000000	97.346918
1033.000000	97.324827
1032.000000	97.307856
1031.000000	97.288149
1030.000000	97.264281
1029.000000	97.245754
1028.000000	97.245743
1027.000000	97.268087
1026.000000	97.303028
1025.000000	97.336176
1024.000000	97.360454
1023.000000	97.379458
1022.000000	97.401497
1021.000000	97.430743
1020.000000	97.462905
1019.000000	97.489713
1018.000000	97.508690
1017.000000	97.526868
1016.000000	97.552563
1015.000000	97.585603
1014.000000	97.619312
1013.000000	97.651048
1012.000000	97.685658
1011.000000	97.727411
1010.000000	97.773133
1009.000000	97.816100
1008.000000	97.854102
1007.000000	97.890830
1006.000000	97.930673
1005.000000	97.974100
1004.000000	98.017160
1003.000000	98.054315
1002.000000	98.082740
1001.000000	98.104859
1000.000000	98.126427
999.000000	98.151615
998.000000	98.180328
997.000000	98.209784
996.000000	98.236790
995.000000	98.258693
994.000000	98.274458
993.000000	98.286179
992.000000	98.298197
991.000000	98.313244
990.000000	98.329878
989.000000	98.344162
988.000000	98.353192
987.000000	98.356699
986.000000	98.356483
985.000000	98.355328
984.000000	98.355565
983.000000	98.357503
982.000000	98.359570
981.000000	98.360627
980.000000	98.361651
979.000000	98.363927
978.000000	98.365916
977.000000	98.363446
976.000000	98.353510
975.000000	98.337370
974.000000	98.319566
973.000000	98.304705
972.000000	98.295715
971.000000	98.294198
970.000000	98.300575
969.000000	98.313406
968.000000	98.329816
967.000000	98.347480
966.000000	98.366243
965.000000	98.386833
964.000000	98.407901
963.000000	98.425740
962.000000	98.438275
961.000000	98.449240
960.000000	98.466316
959.000000	98.493767
958.000000	98.527598
957.000000	98.559198
956.000000	98.583795
955.000000	98.604038
954.000000	98.625401
953.000000	98.650026
952.000000	98.675777
951.000000	98.699535
950.000000	98.719515
949.000000	98.735602
948.000000	98.749929
947.000000	98.766964
946.000000	98.789952
945.000000	98.816045
944.000000	98.837238
943.000000	98.847739
942.000000	98.849494
941.000000	98.848799
940.000000	98.848985
939.000000	98.848617
938.000000	98.845795
937.000000	98.842114
936.000000	98.842081
935.000000	98.849839
934.000000	98.866259
933.000000	98.888267
932.000000	98.911244
931.000000	98.932422
930.000000	98.951162
929.000000	98.966052
928.000000	98.974203
927.000000	98.975283
926.000000	98.974385
925.000000	98.978257
924.000000	98.989359
923.000000	99.005117
922.000000	99.021519
921.000000	99.035395
920.000000	99.044985
919.000000	99.051678
918.000000	99.060776
917.000000	99.077254
916.000000	99.100696
915.000000	99.126639
914.000000	99.151943
913.000000	99.175722
912.000000	99.195943
911.000000	99.209832
910.000000	99.218496
909.000000	99.227162
908.000000	99.238937
907.000000	99.251486
906.000000	99.261493
905.000000	99.269137
904.000000	99.276085
903.000000	99.281705
902.000000	99.284210
901.000000	99.284297
900.000000	99.285571
899.000000	99.291688
898.000000	99.303968
897.000000	99.320810
896.000000	99.338504
895.000000	99.353370
894.000000	99.363549
893.000000	99.368621
892.000000	99.368517
891.000000	99.364239
890.000000	99.356751
889.000000	99.340524
888.000000	99.299318
887.000000	99.214185
886.000000	99.080262
885.000000	98.913561
884.000000	98.739131
883.000000	98.573927
882.000000	98.418990
881.000000	98.263509
880.000000	98.094672
879.000000	97.907563
878.000000	97.710134
877.000000	97.520906
876.000000	97.361494
875.000000	97.250462
874.000000	97.201395
873.000000	97.221605
872.000000	97.310990
871.000000	97.460631
870.000000	97.653250
869.000000	97.865613
868.000000	98.071283
867.000000	98.247205
866.000000	98.383925
865.000000	98.489646
864.000000	98.579724
863.000000	98.661542
862.000000	98.731089
861.000000	98.783164
860.000000	98.820959
859.000000	98.854206
858.000000	98.891125
857.000000	98.932753
856.000000	98.973459
855.000000	99.006424
854.000000	99.029619
853.000000	99.046776
852.000000	99.061102
851.000000	99.069542
850.000000	99.067209
849.000000	99.057761
848.000000	99.055175
847.000000	99.071562
846.000000	99.104491
845.000000	99.139683
844.000000	99.165660
843.000000	99.183298
842.000000	99.201106
841.000000	99.224260
840.000000	99.250412
839.000000	99.274039
838.000000	99.291541
837.000000	99.301325
836.000000	99.301521
835.000000	99.291085
834.000000	99.273658
833.000000	99.258165
832.000000	99.253266
831.000000	99.260709
830.000000	99.274658
829.000000	99.287755
828.000000	99.297437
827.000000	99.305899
826.000000	99.315098
825.000000	99.323521
824.000000	99.327996
823.000000	99.327280
822.000000	99.323158
821.000000	99.319051
820.000000	99.318405
819.000000	99.322808
818.000000	99.329795
817.000000	99.333497
816.000000	99.329524
815.000000	99.319691
814.000000	99.311094
813.000000	99.310659
812.000000	99.321286
811.000000	99.341281
810.000000	99.364153
809.000000	99.379504
808.000000	99.378823
807.000000	99.363110
806.000000	99.342783
805.000000	99.328294
804.000000	99.322598
803.000000	99.323961
802.000000	99.331899
801.000000	99.345551
800.000000	99.358273
799.000000	99.359826
798.000000	99.345989
797.000000	99.323058
796.000000	99.300999
795.000000	99.284181
794.000000	99.270245
793.000000	99.256303
792.000000	99.243781
791.000000	99.236858
790.000000	99.236936
789.000000	99.239082
788.000000	99.234715
787.000000	99.219423
786.000000	99.199100
785.000000	99.187117
784.000000	99.193424
783.000000	99.215406
782.000000	99.239737
781.000000	99.253981
780.000000	99.256484
779.000000	99.254703
778.000000	99.254914
777.000000	99.255408
776.000000	99.250376
775.000000	99.238335
774.000000	99.224297
773.000000	99.214318
772.000000	99.210446
771.000000	99.211167
770.000000	99.214104
769.000000	99.217323
768.000000	99.220209
767.000000	99.224160
766.000000	99.230157
765.000000	99.234591
764.000000	99.230449
763.000000	99.215267
762.000000	99.195600
761.000000	99.179902
760.000000	99.168280
759.000000	99.153385
758.000000	99.131104
757.000000	99.105842
756.000000	99.084294
755.000000	99.068768
754.000000	99.059376
753.000000	99.058420
752.000000	99.066900
751.000000	99.077865
750.000000	99.079091
749.000000	99.064626
748.000000	99.040656
747.000000	99.018183
746.000000	99.002822
745.000000	98.993741
744.000000	98.989231
743.000000	98.988954
742.000000	98.991828
741.000000	98.995993
740.000000	99.001368
739.000000	99.008529
738.000000	99.013894
737.000000	99.009391
736.000000	98.989792
735.000000	98.959205
734.000000	98.927780
733.000000	98.902662
732.000000	98.883684
731.000000	98.866328
730.000000	98.846724
729.000000	98.824195
728.000000	98.801766
727.000000	98.784063
726.000000	98.772164
725.000000	98.762008
724.000000	98.749765
723.000000	98.736313
722.000000	98.723171
721.000000	98.705666
720.000000	98.675165
719.000000	98.628078
718.000000	98.566294
717.000000	98.486856
716.000000	98.378657
715.000000	98.237105
714.000000	98.082198
713.000000	97.956227
712.000000	97.897513
711.000000	97.912632
710.000000	97.973710
709.000000	98.041847
708.000000	98.093236
707.000000	98.126282
706.000000	98.148361
705.000000	98.163022
704.000000	98.171034
703.000000	98.175316
702.000000	98.179145
701.000000	98.180956
700.000000	98.175412
699.000000	98.161139
698.000000	98.143400
697.000000	98.128915
696.000000	98.120966
695.000000	98.118819
694.000000	98.120918
693.000000	98.126889
692.000000	98.136354
691.000000	98.147348
690.000000	98.154167
689.000000	98.148511
688.000000	98.126837
687.000000	98.096579
686.000000	98.072354
685.000000	98.063464
684.000000	98.065792
683.000000	98.067926
682.000000	98.062961
681.000000	98.051777
680.000000	98.037299
679.000000	98.021649
678.000000	98.008899
677.000000	98.004528
676.000000	98.010943
675.000000	98.023540
674.000000	98.034632
673.000000	98.038777
672.000000	98.035452
671.000000	98.028733
670.000000	98.027800
669.000000	98.044262
668.000000	98.067259
667.000000	98.089883
666.000000	98.117368
665.000000	98.128531
664.000000	98.115497
663.000000	98.091712
662.000000	98.071280
661.000000	98.062443
660.000000	98.064811
659.000000	98.076404
658.000000	98.091232
657.000000	98.099081
656.000000	98.094223
655.000000	98.080685
654.000000	98.065466
653.000000	98.051786
652.000000	98.040649
651.000000	98.032009
650.000000	98.022273
649.000000	98.006763
648.000000	97.986842
647.000000	97.966958
646.000000	97.943211
645.000000	97.906949
644.000000	97.861481
643.000000	97.823823
642.000000	97.806150
641.000000	97.803139
640.000000	97.803061
639.000000	97.802610
638.000000	97.803331
637.000000	97.802800
636.000000	97.797506
635.000000	97.788455
634.000000	97.779062
633.000000	97.771854
632.000000	97.769427
631.000000	97.772052
630.000000	97.771572
629.000000	97.756964
628.000000	97.731051
627.000000	97.712908
626.000000	97.715855
625.000000	97.730380
624.000000	97.736210
623.000000	97.724348
622.000000	97.701264
621.000000	97.678282
620.000000	97.664469
619.000000	97.663715
618.000000	97.669290
617.000000	97.665069
616.000000	97.641043
615.000000	97.605507
614.000000	97.576003
613.000000	97.561633
612.000000	97.558944
611.000000	97.561330
610.000000	97.566537
609.000000	97.575248
608.000000	97.586203
607.000000	97.594089
606.000000	97.594309
605.000000	97.593906
604.000000	97.612032
603.000000	97.659742
602.000000	97.721416
601.000000	97.767426
600.000000	97.786148
599.000000	97.793080
598.000000	97.806611
597.000000	97.827803
596.000000	97.850428
595.000000	97.876321
594.000000	97.909204
593.000000	97.941507
592.000000	97.960064
591.000000	97.963126
590.000000	97.962064
589.000000	97.966828
588.000000	97.976778
587.000000	97.984168
586.000000	97.981103
585.000000	97.966071
584.000000	97.947983
583.000000	97.939481
582.000000	97.942799
581.000000	97.947746
580.000000	97.946811
579.000000	97.945377
578.000000	97.951628
577.000000	97.964954
576.000000	97.981501
575.000000	98.002744
574.000000	98.028988
573.000000	98.049606
572.000000	98.050188
571.000000	98.027411
570.000000	97.992204
569.000000	97.960664
568.000000	97.945667
567.000000	97.952042
566.000000	97.971171
565.000000	97.984407
564.000000	97.979944
563.000000	97.964597
562.000000	97.954650
561.000000	97.957370
560.000000	97.965752
559.000000	97.968523
558.000000	97.960833
557.000000	97.948952
556.000000	97.947055
555.000000	97.963092
554.000000	97.985982
553.000000	97.996157
552.000000	97.990957
551.000000	97.989336
550.000000	98.007527
549.000000	98.040376
548.000000	98.071847
547.000000	98.089853
546.000000	98.085394
545.000000	98.053857
544.000000	98.007885
543.000000	97.976788
542.000000	97.979820
541.000000	98.005153
540.000000	98.024111
539.000000	98.019125
538.000000	97.991648
537.000000	97.954995
536.000000	97.929802
535.000000	97.934787
534.000000	97.967114
533.000000	97.996970
532.000000	97.992461
531.000000	97.946908
530.000000	97.881064
529.000000	97.827483
528.000000	97.814235
527.000000	97.846951
526.000000	97.891371
525.000000	97.897520
524.000000	97.861110
523.000000	97.830161
522.000000	97.843363
521.000000	97.890673
520.000000	97.939731
519.000000	97.977356
518.000000	98.007274
517.000000	98.026650
516.000000	98.035016
515.000000	98.049718
514.000000	98.082568
513.000000	98.116304
512.000000	98.128830
511.000000	98.127111
510.000000	98.134885
509.000000	98.157091
508.000000	98.182520
507.000000	98.213453
506.000000	98.257965
505.000000	98.299216
504.000000	98.309308
503.000000	98.294079
502.000000	98.296908
501.000000	98.343763
500.000000	98.410495
499.000000	98.460562
498.000000	98.481202
497.000000	98.474365
496.000000	98.439608
495.000000	98.380681
494.000000	98.318491
493.000000	98.282536
492.000000	98.288993
491.000000	98.331888
490.000000	98.393467
489.000000	98.458295
488.000000	98.518239
487.000000	98.566416
486.000000	98.590346
485.000000	98.581062
484.000000	98.552052
483.000000	98.535610
482.000000	98.549179
481.000000	98.577793
480.000000	98.599215
479.000000	98.610394
478.000000	98.619257
477.000000	98.625666
476.000000	98.624561
475.000000	98.617316
474.000000	98.608746
473.000000	98.605300
472.000000	98.624747
471.000000	98.685238
470.000000	98.769205
469.000000	98.825827
468.000000	98.824473
467.000000	98.788118
466.000000	98.754757
465.000000	98.723698
464.000000	98.683675
463.000000	98.670703
462.000000	98.741591
461.000000	98.892258
460.000000	99.055579
459.000000	99.172450
458.000000	99.230825
457.000000	99.248990
456.000000	99.266313
455.000000	99.295141
454.000000	99.356520
453.000000	99.408668
452.000000	99.399222
451.000000	99.342978
450.000000	99.290327
