PE IR       SUBTECH     SPECTRUM    ASCII       PEDS        4.00        
   -1
3C-XXX-C003_1.ASC
23/09/07
10:21:38.00
23/09/07
11:30:09.00
uco
Sample 003 By uco Date Thursday, September 07 2023
450.000000
#HDR
-1
-1
#GR
cm-1
%T
1.0
0.0
4000.000000
-1.000000
3551
8
99.412778
92.968691
#DATA
4000.000000	99.352623
3999.000000	99.353867
3998.000000	99.354533
3997.000000	99.355024
3996.000000	99.355359
3995.000000	99.355313
3994.000000	99.354489
3993.000000	99.352444
3992.000000	99.348923
3991.000000	99.344102
3990.000000	99.338651
3989.000000	99.333533
3988.000000	99.329690
3987.000000	99.327697
3986.000000	99.327592
3985.000000	99.329089
3984.000000	99.332000
3983.000000	99.336351
3982.000000	99.341853
3981.000000	99.347323
3980.000000	99.350864
3979.000000	99.350865
3978.000000	99.346930
3977.000000	99.340084
3976.000000	99.332306
3975.000000	99.325791
3974.000000	99.322095
3973.000000	99.321306
3972.000000	99.321900
3971.000000	99.321688
3970.000000	99.319617
3969.000000	99.316878
3968.000000	99.316152
3967.000000	99.319380
3966.000000	99.325944
3965.000000	99.332922
3964.000000	99.337278
3963.000000	99.338023
3962.000000	99.336550
3961.000000	99.334932
3960.000000	99.333915
3959.000000	99.332564
3958.000000	99.329530
3957.000000	99.324480
3956.000000	99.318592
3955.000000	99.314013
3954.000000	99.312555
3953.000000	99.314511
3952.000000	99.318398
3951.000000	99.321898
3950.000000	99.323472
3949.000000	99.323259
3948.000000	99.322473
3947.000000	99.321958
3946.000000	99.321372
3945.000000	99.319789
3944.000000	99.317270
3943.000000	99.315788
3942.000000	99.317738
3941.000000	99.323418
3940.000000	99.330346
3939.000000	99.334635
3938.000000	99.333288
3937.000000	99.325970
3936.000000	99.315378
3935.000000	99.306143
3934.000000	99.302765
3933.000000	99.307563
3932.000000	99.318859
3931.000000	99.331114
3930.000000	99.338536
3929.000000	99.338925
3928.000000	99.334171
3927.000000	99.328117
3926.000000	99.324429
3925.000000	99.325168
3924.000000	99.329482
3923.000000	99.334348
3922.000000	99.337383
3921.000000	99.337926
3920.000000	99.335666
3919.000000	99.329728
3918.000000	99.320524
3917.000000	99.311815
3916.000000	99.308561
3915.000000	99.311832
3914.000000	99.317570
3913.000000	99.320292
3912.000000	99.317489
3911.000000	99.310911
3910.000000	99.304535
3909.000000	99.301187
3908.000000	99.300834
3907.000000	99.301243
3906.000000	99.300299
3905.000000	99.298824
3904.000000	99.300276
3903.000000	99.306370
3902.000000	99.314628
3901.000000	99.321411
3900.000000	99.325683
3899.000000	99.328355
3898.000000	99.329609
3897.000000	99.328751
3896.000000	99.326162
3895.000000	99.323247
3894.000000	99.320672
3893.000000	99.317831
3892.000000	99.315156
3891.000000	99.314384
3890.000000	99.315953
3889.000000	99.318361
3888.000000	99.319096
3887.000000	99.317230
3886.000000	99.316186
3885.000000	99.319254
3884.000000	99.323727
3883.000000	99.323631
3882.000000	99.315877
3881.000000	99.304335
3880.000000	99.296997
3879.000000	99.297483
3878.000000	99.303023
3877.000000	99.308943
3876.000000	99.312183
3875.000000	99.313218
3874.000000	99.314413
3873.000000	99.315226
3872.000000	99.311666
3871.000000	99.303208
3870.000000	99.297810
3869.000000	99.302770
3868.000000	99.315203
3867.000000	99.326454
3866.000000	99.330730
3865.000000	99.328670
3864.000000	99.324841
3863.000000	99.321806
3862.000000	99.318488
3861.000000	99.312838
3860.000000	99.304745
3859.000000	99.296415
3858.000000	99.290956
3857.000000	99.289909
3856.000000	99.290808
3855.000000	99.288119
3854.000000	99.284475
3853.000000	99.288565
3852.000000	99.297681
3851.000000	99.304508
3850.000000	99.308282
3849.000000	99.311554
3848.000000	99.315707
3847.000000	99.319751
3846.000000	99.321750
3845.000000	99.320597
3844.000000	99.317213
3843.000000	99.313880
3842.000000	99.312470
3841.000000	99.313424
3840.000000	99.316922
3839.000000	99.323722
3838.000000	99.333040
3837.000000	99.341150
3836.000000	99.344912
3835.000000	99.344491
3834.000000	99.341700
3833.000000	99.337990
3832.000000	99.334168
3831.000000	99.329970
3830.000000	99.324393
3829.000000	99.316585
3828.000000	99.307354
3827.000000	99.300043
3826.000000	99.298097
3825.000000	99.301274
3824.000000	99.305381
3823.000000	99.305240
3822.000000	99.301696
3821.000000	99.302916
3820.000000	99.311365
3819.000000	99.320676
3818.000000	99.324583
3817.000000	99.322631
3816.000000	99.319929
3815.000000	99.318803
3814.000000	99.315688
3813.000000	99.308215
3812.000000	99.299175
3811.000000	99.294339
3810.000000	99.297230
3809.000000	99.305463
3808.000000	99.313450
3807.000000	99.318120
3806.000000	99.320302
3805.000000	99.322196
3804.000000	99.323844
3803.000000	99.323305
3802.000000	99.322700
3801.000000	99.325268
3800.000000	99.327679
3799.000000	99.325375
3798.000000	99.318206
3797.000000	99.310054
3796.000000	99.304914
3795.000000	99.302376
3794.000000	99.298995
3793.000000	99.293242
3792.000000	99.287333
3791.000000	99.284902
3790.000000	99.287754
3789.000000	99.294266
3788.000000	99.300488
3787.000000	99.302800
3786.000000	99.300713
3785.000000	99.297576
3784.000000	99.297579
3783.000000	99.301581
3782.000000	99.306361
3781.000000	99.307417
3780.000000	99.303327
3779.000000	99.297094
3778.000000	99.292603
3777.000000	99.291097
3776.000000	99.291638
3775.000000	99.293131
3774.000000	99.294616
3773.000000	99.294188
3772.000000	99.289930
3771.000000	99.283726
3770.000000	99.282150
3769.000000	99.289699
3768.000000	99.303417
3767.000000	99.316439
3766.000000	99.324357
3765.000000	99.326825
3764.000000	99.325035
3763.000000	99.319416
3762.000000	99.310351
3761.000000	99.300129
3760.000000	99.293085
3759.000000	99.292305
3758.000000	99.296916
3757.000000	99.304118
3756.000000	99.311988
3755.000000	99.319612
3754.000000	99.326353
3753.000000	99.332058
3752.000000	99.337095
3751.000000	99.340924
3750.000000	99.341004
3749.000000	99.337665
3748.000000	99.336311
3747.000000	99.340964
3746.000000	99.350275
3745.000000	99.361991
3744.000000	99.371601
3743.000000	99.371794
3742.000000	99.362304
3741.000000	99.348658
3740.000000	99.336427
3739.000000	99.329186
3738.000000	99.327279
3737.000000	99.329354
3736.000000	99.334592
3735.000000	99.340730
3734.000000	99.343646
3733.000000	99.342402
3732.000000	99.340514
3731.000000	99.341777
3730.000000	99.347106
3729.000000	99.354461
3728.000000	99.360347
3727.000000	99.362386
3726.000000	99.360610
3725.000000	99.356773
3724.000000	99.352913
3723.000000	99.349762
3722.000000	99.346443
3721.000000	99.341905
3720.000000	99.336639
3719.000000	99.332342
3718.000000	99.330360
3717.000000	99.330707
3716.000000	99.332389
3715.000000	99.334755
3714.000000	99.338470
3713.000000	99.345328
3712.000000	99.356159
3711.000000	99.366989
3710.000000	99.370910
3709.000000	99.365708
3708.000000	99.355126
3707.000000	99.344240
3706.000000	99.336119
3705.000000	99.330946
3704.000000	99.327067
3703.000000	99.323738
3702.000000	99.323537
3701.000000	99.329935
3700.000000	99.342284
3699.000000	99.355409
3698.000000	99.363687
3697.000000	99.364529
3696.000000	99.358700
3695.000000	99.348861
3694.000000	99.338814
3693.000000	99.332857
3692.000000	99.333694
3691.000000	99.340141
3690.000000	99.348428
3689.000000	99.355264
3688.000000	99.358544
3687.000000	99.357501
3686.000000	99.352689
3685.000000	99.345522
3684.000000	99.338309
3683.000000	99.333092
3682.000000	99.329501
3681.000000	99.325762
3680.000000	99.321939
3679.000000	99.319902
3678.000000	99.319401
3677.000000	99.317920
3676.000000	99.318777
3675.000000	99.326565
3674.000000	99.336582
3673.000000	99.342185
3672.000000	99.340622
3671.000000	99.333435
3670.000000	99.326675
3669.000000	99.322750
3668.000000	99.318095
3667.000000	99.310895
3666.000000	99.302811
3665.000000	99.295608
3664.000000	99.289031
3663.000000	99.281541
3662.000000	99.272995
3661.000000	99.266021
3660.000000	99.263537
3659.000000	99.265304
3658.000000	99.267616
3657.000000	99.267852
3656.000000	99.267695
3655.000000	99.270191
3654.000000	99.276472
3653.000000	99.285151
3652.000000	99.292100
3651.000000	99.291625
3650.000000	99.281786
3649.000000	99.267518
3648.000000	99.255031
3647.000000	99.245422
3646.000000	99.236478
3645.000000	99.227283
3644.000000	99.219508
3643.000000	99.215922
3642.000000	99.217715
3641.000000	99.222793
3640.000000	99.227186
3639.000000	99.228328
3638.000000	99.226204
3637.000000	99.221754
3636.000000	99.215597
3635.000000	99.208811
3634.000000	99.203468
3633.000000	99.200700
3632.000000	99.198840
3631.000000	99.193538
3630.000000	99.183163
3629.000000	99.174982
3628.000000	99.173589
3627.000000	99.172275
3626.000000	99.164698
3625.000000	99.151480
3624.000000	99.137382
3623.000000	99.126862
3622.000000	99.120716
3621.000000	99.116338
3620.000000	99.111365
3619.000000	99.105878
3618.000000	99.100321
3617.000000	99.094329
3616.000000	99.087732
3615.000000	99.081086
3614.000000	99.075697
3613.000000	99.072510
3612.000000	99.070578
3611.000000	99.067395
3610.000000	99.060465
3609.000000	99.049440
3608.000000	99.037366
3607.000000	99.028069
3606.000000	99.022396
3605.000000	99.018265
3604.000000	99.013394
3603.000000	99.007217
3602.000000	99.000768
3601.000000	98.995374
3600.000000	98.991124
3599.000000	98.986863
3598.000000	98.981169
3597.000000	98.972767
3596.000000	98.960861
3595.000000	98.946889
3594.000000	98.934826
3593.000000	98.928040
3592.000000	98.926323
3591.000000	98.926265
3590.000000	98.923241
3589.000000	98.913943
3588.000000	98.899717
3587.000000	98.885589
3586.000000	98.874666
3585.000000	98.866688
3584.000000	98.860376
3583.000000	98.854563
3582.000000	98.848210
3581.000000	98.840816
3580.000000	98.832881
3579.000000	98.825442
3578.000000	98.818796
3577.000000	98.811680
3576.000000	98.801980
3575.000000	98.788604
3574.000000	98.772918
3573.000000	98.758406
3572.000000	98.748869
3571.000000	98.746332
3570.000000	98.749367
3569.000000	98.752715
3568.000000	98.750099
3567.000000	98.739099
3566.000000	98.722773
3565.000000	98.706595
3564.000000	98.694230
3563.000000	98.685997
3562.000000	98.680038
3561.000000	98.674061
3560.000000	98.666468
3559.000000	98.656684
3558.000000	98.645077
3557.000000	98.632718
3556.000000	98.620698
3555.000000	98.609126
3554.000000	98.596978
3553.000000	98.583445
3552.000000	98.569365
3551.000000	98.556841
3550.000000	98.547384
3549.000000	98.540620
3548.000000	98.534878
3547.000000	98.529187
3546.000000	98.524506
3545.000000	98.522084
3544.000000	98.520601
3543.000000	98.516252
3542.000000	98.506065
3541.000000	98.490564
3540.000000	98.472816
3539.000000	98.455524
3538.000000	98.439563
3537.000000	98.425260
3536.000000	98.413651
3535.000000	98.405551
3534.000000	98.400142
3533.000000	98.395574
3532.000000	98.390745
3531.000000	98.385930
3530.000000	98.381863
3529.000000	98.378560
3528.000000	98.375000
3527.000000	98.369523
3526.000000	98.360713
3525.000000	98.348319
3524.000000	98.333593
3523.000000	98.318601
3522.000000	98.305009
3521.000000	98.293508
3520.000000	98.283991
3519.000000	98.275822
3518.000000	98.267950
3517.000000	98.259312
3516.000000	98.249540
3515.000000	98.239342
3514.000000	98.230063
3513.000000	98.222577
3512.000000	98.216286
3511.000000	98.209251
3510.000000	98.199813
3509.000000	98.188469
3508.000000	98.177811
3507.000000	98.170228
3506.000000	98.165696
3505.000000	98.161879
3504.000000	98.156142
3503.000000	98.147476
3502.000000	98.136879
3501.000000	98.126326
3500.000000	98.117411
3499.000000	98.110551
3498.000000	98.105111
3497.000000	98.100051
3496.000000	98.094404
3495.000000	98.087283
3494.000000	98.078037
3493.000000	98.066979
3492.000000	98.055838
3491.000000	98.046867
3490.000000	98.040994
3489.000000	98.036820
3488.000000	98.031739
3487.000000	98.024146
3486.000000	98.014464
3485.000000	98.004113
3484.000000	97.994078
3483.000000	97.984948
3482.000000	97.977882
3481.000000	97.974393
3480.000000	97.974662
3479.000000	97.976584
3478.000000	97.977112
3477.000000	97.974436
3476.000000	97.968796
3475.000000	97.961690
3474.000000	97.954631
3473.000000	97.948208
3472.000000	97.941605
3471.000000	97.933089
3470.000000	97.921829
3469.000000	97.909466
3468.000000	97.899195
3467.000000	97.892797
3466.000000	97.889018
3465.000000	97.885367
3464.000000	97.880919
3463.000000	97.876721
3462.000000	97.873721
3461.000000	97.871034
3460.000000	97.866455
3459.000000	97.858427
3458.000000	97.847404
3457.000000	97.835521
3456.000000	97.824937
3455.000000	97.816302
3454.000000	97.808931
3453.000000	97.802521
3452.000000	97.798173
3451.000000	97.797249
3450.000000	97.799395
3449.000000	97.802145
3448.000000	97.802493
3447.000000	97.798758
3446.000000	97.791131
3445.000000	97.780910
3444.000000	97.769489
3443.000000	97.758028
3442.000000	97.747779
3441.000000	97.740186
3440.000000	97.736098
3439.000000	97.734725
3438.000000	97.733706
3437.000000	97.730733
3436.000000	97.725195
3435.000000	97.718072
3434.000000	97.710482
3433.000000	97.702736
3432.000000	97.694636
3431.000000	97.686115
3430.000000	97.677394
3429.000000	97.668818
3428.000000	97.660750
3427.000000	97.653589
3426.000000	97.647886
3425.000000	97.644288
3424.000000	97.642771
3423.000000	97.641421
3422.000000	97.636511
3421.000000	97.625084
3420.000000	97.608256
3419.000000	97.591407
3418.000000	97.580204
3417.000000	97.576249
3416.000000	97.576561
3415.000000	97.576916
3414.000000	97.575403
3413.000000	97.572781
3412.000000	97.570011
3411.000000	97.566537
3410.000000	97.561351
3409.000000	97.554923
3408.000000	97.548967
3407.000000	97.544272
3406.000000	97.539579
3405.000000	97.533028
3404.000000	97.524410
3403.000000	97.515842
3402.000000	97.510231
3401.000000	97.508801
3400.000000	97.509541
3399.000000	97.508105
3398.000000	97.500983
3397.000000	97.488309
3396.000000	97.473516
3395.000000	97.460412
3394.000000	97.450942
3393.000000	97.445242
3392.000000	97.442550
3391.000000	97.441574
3390.000000	97.440832
3389.000000	97.439489
3388.000000	97.437772
3387.000000	97.436215
3386.000000	97.434523
3385.000000	97.431281
3384.000000	97.424825
3383.000000	97.414644
3382.000000	97.402288
3381.000000	97.390713
3380.000000	97.382144
3379.000000	97.376333
3378.000000	97.371237
3377.000000	97.365110
3376.000000	97.357338
3375.000000	97.347632
3374.000000	97.335880
3373.000000	97.323355
3372.000000	97.312897
3371.000000	97.306638
3370.000000	97.303708
3369.000000	97.300890
3368.000000	97.295430
3367.000000	97.286801
3366.000000	97.276115
3365.000000	97.264640
3364.000000	97.252907
3363.000000	97.240642
3362.000000	97.227337
3361.000000	97.213149
3360.000000	97.199240
3359.000000	97.186956
3358.000000	97.176553
3357.000000	97.166880
3356.000000	97.156435
3355.000000	97.144726
3354.000000	97.132567
3353.000000	97.120841
3352.000000	97.108980
3351.000000	97.095176
3350.000000	97.078597
3349.000000	97.061090
3348.000000	97.045945
3347.000000	97.034853
3346.000000	97.026462
3345.000000	97.017742
3344.000000	97.006167
3343.000000	96.990928
3342.000000	96.973259
3341.000000	96.955970
3340.000000	96.941654
3339.000000	96.930698
3338.000000	96.921380
3337.000000	96.911944
3336.000000	96.901749
3335.000000	96.890299
3334.000000	96.876575
3333.000000	96.860394
3332.000000	96.843568
3331.000000	96.828505
3330.000000	96.815940
3329.000000	96.804687
3328.000000	96.793166
3327.000000	96.780501
3326.000000	96.766675
3325.000000	96.752605
3324.000000	96.740013
3323.000000	96.730416
3322.000000	96.724047
3321.000000	96.720036
3320.000000	96.717234
3319.000000	96.714356
3318.000000	96.709760
3317.000000	96.702007
3316.000000	96.691025
3315.000000	96.678642
3314.000000	96.667932
3313.000000	96.661594
3312.000000	96.659856
3311.000000	96.659491
3310.000000	96.655849
3309.000000	96.646969
3308.000000	96.635607
3307.000000	96.626603
3306.000000	96.622536
3305.000000	96.622159
3304.000000	96.622082
3303.000000	96.619258
3302.000000	96.612825
3301.000000	96.604954
3300.000000	96.599701
3299.000000	96.599714
3298.000000	96.603676
3297.000000	96.607299
3296.000000	96.606678
3295.000000	96.600521
3294.000000	96.590161
3293.000000	96.578874
3292.000000	96.570758
3291.000000	96.568409
3290.000000	96.570919
3289.000000	96.574754
3288.000000	96.576841
3287.000000	96.576378
3286.000000	96.574139
3285.000000	96.571337
3284.000000	96.569154
3283.000000	96.568119
3282.000000	96.567424
3281.000000	96.565810
3280.000000	96.563686
3279.000000	96.563405
3278.000000	96.566926
3277.000000	96.573882
3276.000000	96.582552
3275.000000	96.591992
3274.000000	96.602001
3273.000000	96.611465
3272.000000	96.618025
3271.000000	96.619825
3270.000000	96.617223
3269.000000	96.612642
3268.000000	96.609097
3267.000000	96.608781
3266.000000	96.612348
3265.000000	96.618972
3264.000000	96.627078
3263.000000	96.635346
3262.000000	96.643282
3261.000000	96.650934
3260.000000	96.658173
3259.000000	96.664509
3258.000000	96.669883
3257.000000	96.675489
3256.000000	96.683228
3255.000000	96.693838
3254.000000	96.705711
3253.000000	96.716143
3252.000000	96.723864
3251.000000	96.729995
3250.000000	96.736497
3249.000000	96.744100
3248.000000	96.751874
3247.000000	96.758242
3246.000000	96.761922
3245.000000	96.762341
3244.000000	96.760101
3243.000000	96.757294
3242.000000	96.756547
3241.000000	96.759068
3240.000000	96.763843
3239.000000	96.769290
3238.000000	96.775353
3237.000000	96.783253
3236.000000	96.793351
3235.000000	96.804488
3234.000000	96.815777
3233.000000	96.827675
3232.000000	96.840195
3231.000000	96.850848
3230.000000	96.855927
3229.000000	96.853957
3228.000000	96.847101
3227.000000	96.839372
3226.000000	96.834342
3225.000000	96.834213
3224.000000	96.839219
3223.000000	96.847160
3222.000000	96.854858
3221.000000	96.861120
3220.000000	96.867725
3219.000000	96.876697
3218.000000	96.887228
3217.000000	96.896463
3216.000000	96.902724
3215.000000	96.906825
3214.000000	96.910218
3213.000000	96.912966
3212.000000	96.914115
3211.000000	96.913608
3210.000000	96.913279
3209.000000	96.915677
3208.000000	96.921895
3207.000000	96.930507
3206.000000	96.938836
3205.000000	96.945145
3204.000000	96.949360
3203.000000	96.952049
3202.000000	96.953556
3201.000000	96.954445
3200.000000	96.956036
3199.000000	96.959827
3198.000000	96.966496
3197.000000	96.975548
3196.000000	96.985372
3195.000000	96.993623
3194.000000	96.998570
3193.000000	97.000892
3192.000000	97.003711
3191.000000	97.010113
3190.000000	97.020906
3189.000000	97.034886
3188.000000	97.050246
3187.000000	97.065015
3186.000000	97.077351
3185.000000	97.087032
3184.000000	97.096115
3183.000000	97.106646
3182.000000	97.117872
3181.000000	97.127088
3180.000000	97.133053
3179.000000	97.137054
3178.000000	97.140735
3177.000000	97.144823
3176.000000	97.150625
3175.000000	97.160665
3174.000000	97.176031
3173.000000	97.193914
3172.000000	97.209180
3171.000000	97.218430
3170.000000	97.221956
3169.000000	97.222593
3168.000000	97.223871
3167.000000	97.228744
3166.000000	97.238483
3165.000000	97.251989
3164.000000	97.266728
3163.000000	97.280594
3162.000000	97.292784
3161.000000	97.303333
3160.000000	97.312581
3159.000000	97.321126
3158.000000	97.329384
3157.000000	97.336940
3156.000000	97.342983
3155.000000	97.347879
3154.000000	97.353789
3153.000000	97.362920
3152.000000	97.375017
3151.000000	97.387046
3150.000000	97.395809
3149.000000	97.400974
3148.000000	97.405349
3147.000000	97.412116
3146.000000	97.421882
3145.000000	97.432550
3144.000000	97.441730
3143.000000	97.448844
3142.000000	97.455006
3141.000000	97.461579
3140.000000	97.469247
3139.000000	97.477833
3138.000000	97.486241
3137.000000	97.492767
3136.000000	97.496175
3135.000000	97.496777
3134.000000	97.496317
3133.000000	97.496871
3132.000000	97.499957
3131.000000	97.506080
3130.000000	97.514318
3129.000000	97.522515
3128.000000	97.528956
3127.000000	97.534268
3126.000000	97.540888
3125.000000	97.549980
3124.000000	97.559364
3123.000000	97.565230
3122.000000	97.565897
3121.000000	97.563572
3120.000000	97.562427
3119.000000	97.565169
3118.000000	97.571086
3117.000000	97.576907
3116.000000	97.579580
3115.000000	97.578516
3114.000000	97.575200
3113.000000	97.570893
3112.000000	97.565656
3111.000000	97.559810
3110.000000	97.555166
3109.000000	97.553499
3108.000000	97.554115
3107.000000	97.554224
3106.000000	97.551879
3105.000000	97.547724
3104.000000	97.543775
3103.000000	97.541424
3102.000000	97.540719
3101.000000	97.540456
3100.000000	97.538587
3099.000000	97.533780
3098.000000	97.527392
3097.000000	97.522933
3096.000000	97.522482
3095.000000	97.524096
3094.000000	97.523723
3093.000000	97.519184
3092.000000	97.511401
3091.000000	97.502502
3090.000000	97.494266
3089.000000	97.488175
3088.000000	97.485234
3087.000000	97.484980
3086.000000	97.485466
3085.000000	97.484813
3084.000000	97.482468
3083.000000	97.478932
3082.000000	97.474969
3081.000000	97.471229
3080.000000	97.468006
3079.000000	97.465052
3078.000000	97.462088
3077.000000	97.459483
3076.000000	97.457799
3075.000000	97.456728
3074.000000	97.455302
3073.000000	97.453407
3072.000000	97.452290
3071.000000	97.453133
3070.000000	97.455698
3069.000000	97.458760
3068.000000	97.461403
3067.000000	97.463647
3066.000000	97.466330
3065.000000	97.470676
3064.000000	97.477368
3063.000000	97.485744
3062.000000	97.494386
3061.000000	97.502549
3060.000000	97.510337
3059.000000	97.517401
3058.000000	97.522662
3057.000000	97.526023
3056.000000	97.529477
3055.000000	97.535523
3054.000000	97.544791
3053.000000	97.555766
3052.000000	97.566308
3051.000000	97.574952
3050.000000	97.581551
3049.000000	97.587595
3048.000000	97.595311
3047.000000	97.605469
3046.000000	97.616318
3045.000000	97.625466
3044.000000	97.632529
3043.000000	97.639145
3042.000000	97.646728
3041.000000	97.655144
3040.000000	97.663513
3039.000000	97.671331
3038.000000	97.678718
3037.000000	97.686446
3036.000000	97.695998
3035.000000	97.708713
3034.000000	97.724193
3033.000000	97.739887
3032.000000	97.752703
3031.000000	97.761100
3030.000000	97.765711
3029.000000	97.768532
3028.000000	97.771804
3027.000000	97.777053
3026.000000	97.784374
3025.000000	97.792411
3024.000000	97.799361
3023.000000	97.804363
3022.000000	97.808147
3021.000000	97.812521
3020.000000	97.819130
3019.000000	97.828326
3018.000000	97.838906
3017.000000	97.848870
3016.000000	97.856553
3015.000000	97.861398
3014.000000	97.864047
3013.000000	97.865781
3012.000000	97.867495
3011.000000	97.868832
3010.000000	97.868420
3009.000000	97.865202
3008.000000	97.859687
3007.000000	97.853923
3006.000000	97.850307
3005.000000	97.850012
3004.000000	97.851907
3003.000000	97.852856
3002.000000	97.849791
3001.000000	97.842161
3000.000000	97.832417
2999.000000	97.823921
2998.000000	97.818417
2997.000000	97.815399
2996.000000	97.813197
2995.000000	97.810124
2994.000000	97.804992
2993.000000	97.797409
2992.000000	97.787961
2991.000000	97.777865
2990.000000	97.768260
2989.000000	97.759634
2988.000000	97.751565
2987.000000	97.742894
2986.000000	97.732545
2985.000000	97.720572
2984.000000	97.708107
2983.000000	97.695950
2982.000000	97.683475
2981.000000	97.669284
2980.000000	97.652820
2979.000000	97.634939
2978.000000	97.617087
2977.000000	97.600228
2976.000000	97.584347
2975.000000	97.568522
2974.000000	97.551482
2973.000000	97.532357
2972.000000	97.510907
2971.000000	97.487190
2970.000000	97.461743
2969.000000	97.436409
2968.000000	97.413984
2967.000000	97.395795
2966.000000	97.379669
2965.000000	97.361439
2964.000000	97.338939
2963.000000	97.314064
2962.000000	97.290783
2961.000000	97.271789
2960.000000	97.257417
2959.000000	97.247066
2958.000000	97.240766
2957.000000	97.239121
2956.000000	97.242191
2955.000000	97.248834
2954.000000	97.257281
2953.000000	97.266371
2952.000000	97.276045
2951.000000	97.286596
2950.000000	97.297224
2949.000000	97.305346
2948.000000	97.307393
2947.000000	97.300959
2946.000000	97.286951
2945.000000	97.269564
2944.000000	97.253339
2943.000000	97.239511
2942.000000	97.225399
2941.000000	97.207391
2940.000000	97.184177
2939.000000	97.157183
2938.000000	97.129010
2937.000000	97.102342
2936.000000	97.079437
2935.000000	97.061238
2934.000000	97.046711
2933.000000	97.033928
2932.000000	97.021973
2931.000000	97.011168
2930.000000	97.001569
2929.000000	96.992298
2928.000000	96.982940
2927.000000	96.974889
2926.000000	96.970664
2925.000000	96.972182
2924.000000	96.980027
2923.000000	96.993956
2922.000000	97.013290
2921.000000	97.036897
2920.000000	97.063436
2919.000000	97.091852
2918.000000	97.121582
2917.000000	97.152245
2916.000000	97.183485
2915.000000	97.215010
2914.000000	97.246441
2913.000000	97.277131
2912.000000	97.306615
2911.000000	97.335495
2910.000000	97.365308
2909.000000	97.396758
2908.000000	97.428093
2907.000000	97.455991
2906.000000	97.478571
2905.000000	97.497427
2904.000000	97.516336
2903.000000	97.537992
2902.000000	97.561990
2901.000000	97.585678
2900.000000	97.606546
2899.000000	97.623887
2898.000000	97.638707
2897.000000	97.652318
2896.000000	97.664981
2895.000000	97.675957
2894.000000	97.684997
2893.000000	97.693491
2892.000000	97.703641
2891.000000	97.716423
2890.000000	97.730520
2889.000000	97.743131
2888.000000	97.751509
2887.000000	97.754147
2886.000000	97.751504
2885.000000	97.745942
2884.000000	97.740279
2883.000000	97.735795
2882.000000	97.731692
2881.000000	97.726507
2880.000000	97.719661
2879.000000	97.711619
2878.000000	97.703215
2877.000000	97.695234
2876.000000	97.688078
2875.000000	97.681452
2874.000000	97.674852
2873.000000	97.668742
2872.000000	97.664937
2871.000000	97.665407
2870.000000	97.670861
2869.000000	97.680330
2868.000000	97.691384
2867.000000	97.700660
2866.000000	97.705442
2865.000000	97.705700
2864.000000	97.703744
2863.000000	97.701111
2862.000000	97.696694
2861.000000	97.689161
2860.000000	97.680220
2859.000000	97.673451
2858.000000	97.670055
2857.000000	97.667783
2856.000000	97.664763
2855.000000	97.662699
2854.000000	97.665402
2853.000000	97.675186
2852.000000	97.691737
2851.000000	97.713703
2850.000000	97.740068
2849.000000	97.770097
2848.000000	97.802925
2847.000000	97.837376
2846.000000	97.871800
2845.000000	97.904274
2844.000000	97.933467
2843.000000	97.959495
2842.000000	97.983550
2841.000000	98.006502
2840.000000	98.027989
2839.000000	98.046830
2838.000000	98.062264
2837.000000	98.074836
2836.000000	98.086129
2835.000000	98.097526
2834.000000	98.109136
2833.000000	98.119900
2832.000000	98.128662
2831.000000	98.135068
2830.000000	98.139718
2829.000000	98.143845
2828.000000	98.148701
2827.000000	98.154670
2826.000000	98.160910
2825.000000	98.166297
2824.000000	98.170852
2823.000000	98.175846
2822.000000	98.182450
2821.000000	98.190689
2820.000000	98.199697
2819.000000	98.208278
2818.000000	98.215028
2817.000000	98.218797
2816.000000	98.219743
2815.000000	98.219589
2814.000000	98.220262
2813.000000	98.222488
2812.000000	98.225888
2811.000000	98.229802
2810.000000	98.233515
2809.000000	98.236444
2808.000000	98.239203
2807.000000	98.244023
2806.000000	98.252763
2805.000000	98.264267
2804.000000	98.274677
2803.000000	98.280835
2802.000000	98.282654
2801.000000	98.282007
2800.000000	98.280465
2799.000000	98.278902
2798.000000	98.278326
2797.000000	98.279681
2796.000000	98.282835
2795.000000	98.286689
2794.000000	98.290428
2793.000000	98.294008
2792.000000	98.297396
2791.000000	98.300177
2790.000000	98.302310
2789.000000	98.304797
2788.000000	98.309150
2787.000000	98.316269
2786.000000	98.325759
2785.000000	98.335833
2784.000000	98.343887
2783.000000	98.348011
2782.000000	98.348635
2781.000000	98.348420
2780.000000	98.349919
2779.000000	98.353368
2778.000000	98.357013
2777.000000	98.359252
2776.000000	98.359939
2775.000000	98.359871
2774.000000	98.359850
2773.000000	98.360662
2772.000000	98.363293
2771.000000	98.368299
2770.000000	98.374728
2769.000000	98.380158
2768.000000	98.382530
2767.000000	98.382306
2766.000000	98.382551
2765.000000	98.386229
2764.000000	98.393238
2763.000000	98.400455
2762.000000	98.404859
2761.000000	98.406185
2760.000000	98.406362
2759.000000	98.407112
2758.000000	98.408760
2757.000000	98.410818
2756.000000	98.412713
2755.000000	98.414034
2754.000000	98.414940
2753.000000	98.416496
2752.000000	98.419883
2751.000000	98.424988
2750.000000	98.430291
2749.000000	98.434288
2748.000000	98.436589
2747.000000	98.437642
2746.000000	98.438152
2745.000000	98.439085
2744.000000	98.441562
2743.000000	98.446069
2742.000000	98.451868
2741.000000	98.457357
2740.000000	98.460886
2739.000000	98.461426
2738.000000	98.459276
2737.000000	98.456477
2736.000000	98.455852
2735.000000	98.458965
2734.000000	98.465049
2733.000000	98.472039
2732.000000	98.478253
2731.000000	98.482982
2730.000000	98.486302
2729.000000	98.489024
2728.000000	98.492319
2727.000000	98.496537
2726.000000	98.500485
2725.000000	98.502523
2724.000000	98.502390
2723.000000	98.501437
2722.000000	98.501038
2721.000000	98.501376
2720.000000	98.502018
2719.000000	98.503086
2718.000000	98.505199
2717.000000	98.508229
2716.000000	98.510757
2715.000000	98.511399
2714.000000	98.510592
2713.000000	98.510344
2712.000000	98.511866
2711.000000	98.514093
2710.000000	98.515250
2709.000000	98.515327
2708.000000	98.515940
2707.000000	98.518007
2706.000000	98.520847
2705.000000	98.523741
2704.000000	98.526964
2703.000000	98.530615
2702.000000	98.533664
2701.000000	98.535255
2700.000000	98.536169
2699.000000	98.537846
2698.000000	98.540525
2697.000000	98.543440
2696.000000	98.546461
2695.000000	98.550187
2694.000000	98.554384
2693.000000	98.557538
2692.000000	98.558364
2691.000000	98.557016
2690.000000	98.554536
2689.000000	98.551864
2688.000000	98.549861
2687.000000	98.549666
2686.000000	98.552216
2685.000000	98.557217
2684.000000	98.562812
2683.000000	98.566603
2682.000000	98.567502
2681.000000	98.566914
2680.000000	98.567772
2679.000000	98.571819
2678.000000	98.577808
2677.000000	98.582665
2676.000000	98.584247
2675.000000	98.582627
2674.000000	98.579077
2673.000000	98.574814
2672.000000	98.570968
2671.000000	98.568828
2670.000000	98.569163
2669.000000	98.571347
2668.000000	98.573619
2667.000000	98.574378
2666.000000	98.573141
2665.000000	98.570445
2664.000000	98.567226
2663.000000	98.564356
2662.000000	98.562280
2661.000000	98.560521
2660.000000	98.557634
2659.000000	98.552377
2658.000000	98.545457
2657.000000	98.539803
2656.000000	98.538487
2655.000000	98.542293
2654.000000	98.549567
2653.000000	98.558040
2652.000000	98.565998
2651.000000	98.572115
2650.000000	98.575669
2649.000000	98.577594
2648.000000	98.580360
2647.000000	98.585808
2646.000000	98.593490
2645.000000	98.601670
2644.000000	98.609199
2643.000000	98.615499
2642.000000	98.619545
2641.000000	98.620358
2640.000000	98.618670
2639.000000	98.617080
2638.000000	98.618181
2637.000000	98.622953
2636.000000	98.630695
2635.000000	98.639542
2634.000000	98.646985
2633.000000	98.651049
2632.000000	98.651776
2631.000000	98.651322
2630.000000	98.652200
2629.000000	98.655580
2628.000000	98.661199
2627.000000	98.668263
2626.000000	98.675926
2625.000000	98.683101
2624.000000	98.688344
2623.000000	98.690338
2622.000000	98.688850
2621.000000	98.685364
2620.000000	98.682550
2619.000000	98.682793
2618.000000	98.687075
2617.000000	98.694862
2616.000000	98.704328
2615.000000	98.712733
2614.000000	98.717867
2613.000000	98.720155
2612.000000	98.722633
2611.000000	98.727506
2610.000000	98.732968
2609.000000	98.734770
2608.000000	98.731100
2607.000000	98.724786
2606.000000	98.720259
2605.000000	98.719593
2604.000000	98.722308
2603.000000	98.727711
2602.000000	98.735342
2601.000000	98.742942
2600.000000	98.746300
2599.000000	98.743178
2598.000000	98.737269
2597.000000	98.736481
2596.000000	98.746155
2595.000000	98.764408
2594.000000	98.784103
2593.000000	98.798296
2592.000000	98.803564
2591.000000	98.800333
2590.000000	98.792350
2589.000000	98.785060
2588.000000	98.781775
2587.000000	98.780879
2586.000000	98.778642
2585.000000	98.774895
2584.000000	98.773811
2583.000000	98.778256
2582.000000	98.785572
2581.000000	98.790377
2580.000000	98.790032
2579.000000	98.786143
2578.000000	98.782138
2577.000000	98.781008
2576.000000	98.784019
2575.000000	98.789568
2574.000000	98.793790
2573.000000	98.793888
2572.000000	98.790780
2571.000000	98.787692
2570.000000	98.786979
2569.000000	98.789419
2568.000000	98.795441
2567.000000	98.804951
2566.000000	98.815891
2565.000000	98.824571
2564.000000	98.828352
2563.000000	98.827869
2562.000000	98.826582
2561.000000	98.827970
2560.000000	98.832452
2559.000000	98.837002
2558.000000	98.838607
2557.000000	98.837767
2556.000000	98.837221
2555.000000	98.837398
2554.000000	98.835578
2553.000000	98.830393
2552.000000	98.824655
2551.000000	98.822205
2550.000000	98.823802
2549.000000	98.827637
2548.000000	98.831710
2547.000000	98.833841
2546.000000	98.831723
2545.000000	98.825984
2544.000000	98.821738
2543.000000	98.823695
2542.000000	98.830130
2541.000000	98.834356
2540.000000	98.832348
2539.000000	98.826803
2538.000000	98.823816
2537.000000	98.827344
2536.000000	98.836692
2535.000000	98.847569
2534.000000	98.855643
2533.000000	98.860218
2532.000000	98.863831
2531.000000	98.867273
2530.000000	98.866970
2529.000000	98.859677
2528.000000	98.848226
2527.000000	98.839304
2526.000000	98.836154
2525.000000	98.836733
2524.000000	98.838619
2523.000000	98.841840
2522.000000	98.846167
2521.000000	98.849375
2520.000000	98.850190
2519.000000	98.850461
2518.000000	98.852217
2517.000000	98.854214
2516.000000	98.853716
2515.000000	98.850987
2514.000000	98.850132
2513.000000	98.854920
2512.000000	98.864112
2511.000000	98.871393
2510.000000	98.870827
2509.000000	98.863128
2508.000000	98.855669
2507.000000	98.854994
2506.000000	98.860231
2505.000000	98.865640
2504.000000	98.868513
2503.000000	98.871720
2502.000000	98.878330
2501.000000	98.886874
2500.000000	98.893388
2499.000000	98.895987
2498.000000	98.895837
2497.000000	98.894823
2496.000000	98.893621
2495.000000	98.891324
2494.000000	98.886123
2493.000000	98.877469
2492.000000	98.868287
2491.000000	98.863610
2490.000000	98.865741
2489.000000	98.871620
2488.000000	98.876682
2487.000000	98.880802
2486.000000	98.888528
2485.000000	98.902768
2484.000000	98.919468
2483.000000	98.930237
2482.000000	98.930488
2481.000000	98.923772
2480.000000	98.917464
2479.000000	98.914865
2478.000000	98.912920
2477.000000	98.907508
2476.000000	98.898960
2475.000000	98.891897
2474.000000	98.890936
2473.000000	98.897172
2472.000000	98.907451
2471.000000	98.916269
2470.000000	98.919850
2469.000000	98.919368
2468.000000	98.918908
2467.000000	98.919753
2466.000000	98.918868
2465.000000	98.914325
2464.000000	98.909715
2463.000000	98.910460
2462.000000	98.917339
2461.000000	98.926255
2460.000000	98.933078
2459.000000	98.935814
2458.000000	98.933114
2457.000000	98.924486
2456.000000	98.912392
2455.000000	98.901551
2454.000000	98.895714
2453.000000	98.896900
2452.000000	98.906550
2451.000000	98.923790
2450.000000	98.942429
2449.000000	98.953609
2448.000000	98.953293
2447.000000	98.945101
2446.000000	98.935142
2445.000000	98.926837
2444.000000	98.921607
2443.000000	98.920716
2442.000000	98.923687
2441.000000	98.926963
2440.000000	98.927086
2439.000000	98.924460
2438.000000	98.922175
2437.000000	98.922048
2436.000000	98.923512
2435.000000	98.925587
2434.000000	98.928049
2433.000000	98.930922
2432.000000	98.934291
2431.000000	98.938563
2430.000000	98.943884
2429.000000	98.949227
2428.000000	98.952734
2427.000000	98.953026
2426.000000	98.949979
2425.000000	98.944533
2424.000000	98.938134
2423.000000	98.932059
2422.000000	98.927080
2421.000000	98.923777
2420.000000	98.922633
2419.000000	98.923086
2418.000000	98.923150
2417.000000	98.921561
2416.000000	98.920387
2415.000000	98.923870
2414.000000	98.933776
2413.000000	98.946980
2412.000000	98.958552
2411.000000	98.966452
2410.000000	98.972226
2409.000000	98.977818
2408.000000	98.983007
2407.000000	98.986010
2406.000000	98.985667
2405.000000	98.982302
2404.000000	98.976855
2403.000000	98.969890
2402.000000	98.961955
2401.000000	98.954565
2400.000000	98.949887
2399.000000	98.949019
2398.000000	98.951059
2397.000000	98.954208
2396.000000	98.957231
2395.000000	98.959666
2394.000000	98.961530
2393.000000	98.963520
2392.000000	98.966714
2391.000000	98.971178
2390.000000	98.975574
2389.000000	98.979149
2388.000000	98.983438
2387.000000	98.990460
2386.000000	98.999485
2385.000000	99.007084
2384.000000	99.011035
2383.000000	99.013394
2382.000000	99.019020
2381.000000	99.031050
2380.000000	99.047244
2379.000000	99.060373
2378.000000	99.063233
2377.000000	99.054767
2376.000000	99.041593
2375.000000	99.032321
2374.000000	99.030059
2373.000000	99.031214
2372.000000	99.030977
2371.000000	99.028135
2370.000000	99.024393
2369.000000	99.021224
2368.000000	99.018624
2367.000000	99.016285
2366.000000	99.015116
2365.000000	99.017363
2364.000000	99.024127
2363.000000	99.032184
2362.000000	99.035135
2361.000000	99.028488
2360.000000	99.014414
2359.000000	99.001445
2358.000000	98.997447
2357.000000	99.004435
2356.000000	99.016757
2355.000000	99.024544
2354.000000	99.021013
2353.000000	99.007916
2352.000000	98.994856
2351.000000	98.989706
2350.000000	98.991817
2349.000000	98.994649
2348.000000	98.993028
2347.000000	98.986162
2346.000000	98.975848
2345.000000	98.966465
2344.000000	98.961660
2343.000000	98.961426
2342.000000	98.964563
2341.000000	98.970346
2340.000000	98.976316
2339.000000	98.976488
2338.000000	98.966759
2337.000000	98.951360
2336.000000	98.941239
2335.000000	98.943583
2334.000000	98.955138
2333.000000	98.965138
2332.000000	98.965257
2331.000000	98.955333
2330.000000	98.942752
2329.000000	98.934038
2328.000000	98.926971
2327.000000	98.912681
2326.000000	98.886015
2325.000000	98.855064
2324.000000	98.835947
2323.000000	98.837984
2322.000000	98.854510
2321.000000	98.870542
2320.000000	98.878322
2319.000000	98.880929
2318.000000	98.884937
2317.000000	98.893057
2316.000000	98.903833
2315.000000	98.913440
2314.000000	98.918503
2313.000000	98.919923
2312.000000	98.923300
2311.000000	98.933162
2310.000000	98.947432
2309.000000	98.960314
2308.000000	98.968461
2307.000000	98.971788
2306.000000	98.969378
2305.000000	98.959923
2304.000000	98.946257
2303.000000	98.935049
2302.000000	98.930392
2301.000000	98.929886
2300.000000	98.929029
2299.000000	98.926681
2298.000000	98.924754
2297.000000	98.924044
2296.000000	98.922715
2295.000000	98.918719
2294.000000	98.912144
2293.000000	98.905450
2292.000000	98.901312
2291.000000	98.900604
2290.000000	98.901703
2289.000000	98.901973
2288.000000	98.899381
2287.000000	98.893605
2286.000000	98.886666
2285.000000	98.882619
2284.000000	98.884730
2283.000000	98.892565
2282.000000	98.903323
2281.000000	98.915456
2280.000000	98.927736
2279.000000	98.934906
2278.000000	98.930275
2277.000000	98.915807
2276.000000	98.904741
2275.000000	98.908720
2274.000000	98.925394
2273.000000	98.943172
2272.000000	98.955373
2271.000000	98.964575
2270.000000	98.975538
2269.000000	98.989540
2268.000000	99.004088
2267.000000	99.012945
2266.000000	99.008365
2265.000000	98.989279
2264.000000	98.966105
2263.000000	98.951899
2262.000000	98.949445
2261.000000	98.951636
2260.000000	98.951882
2259.000000	98.949148
2258.000000	98.945768
2257.000000	98.947127
2256.000000	98.960964
2255.000000	98.988264
2254.000000	99.015776
2253.000000	99.026384
2252.000000	99.018466
2251.000000	99.007607
2250.000000	99.008518
2249.000000	99.021700
2248.000000	99.037167
2247.000000	99.043251
2246.000000	99.031832
2245.000000	99.004663
2244.000000	98.977547
2243.000000	98.970034
2242.000000	98.986339
2241.000000	99.011251
2240.000000	99.026819
2239.000000	99.028243
2238.000000	99.021993
2237.000000	99.015861
2236.000000	99.014302
2235.000000	99.018002
2234.000000	99.024213
2233.000000	99.030581
2232.000000	99.039006
2231.000000	99.050698
2230.000000	99.058053
2229.000000	99.049959
2228.000000	99.027598
2227.000000	99.007154
2226.000000	99.003073
2225.000000	99.014524
2224.000000	99.030933
2223.000000	99.043810
2222.000000	99.049378
2221.000000	99.046587
2220.000000	99.038809
2219.000000	99.033427
2218.000000	99.035053
2217.000000	99.042107
2216.000000	99.052369
2215.000000	99.066891
2214.000000	99.084493
2213.000000	99.097289
2212.000000	99.097787
2211.000000	99.088999
2210.000000	99.082936
2209.000000	99.089015
2208.000000	99.105856
2207.000000	99.123659
2206.000000	99.132731
2205.000000	99.128712
2204.000000	99.110691
2203.000000	99.078003
2202.000000	99.034696
2201.000000	98.996767
2200.000000	98.984846
2199.000000	99.002573
2198.000000	99.028957
2197.000000	99.040751
2196.000000	99.039435
2195.000000	99.046826
2194.000000	99.075969
2193.000000	99.115025
2192.000000	99.139345
2191.000000	99.132647
2190.000000	99.097271
2189.000000	99.053317
2188.000000	99.027055
2187.000000	99.030099
2186.000000	99.048373
2185.000000	99.057536
2184.000000	99.049990
2183.000000	99.041406
2182.000000	99.050663
2181.000000	99.079290
2180.000000	99.110239
2179.000000	99.122368
2178.000000	99.108709
2177.000000	99.085865
2176.000000	99.080143
2175.000000	99.096653
2174.000000	99.108844
2173.000000	99.089191
2172.000000	99.043724
2171.000000	99.004074
2170.000000	98.993366
2169.000000	99.011285
2168.000000	99.043680
2167.000000	99.071992
2166.000000	99.078744
2165.000000	99.062416
2164.000000	99.047056
2163.000000	99.058577
2162.000000	99.092310
2161.000000	99.123530
2160.000000	99.149602
2159.000000	99.196901
2158.000000	99.273162
2157.000000	99.342309
2156.000000	99.366156
2155.000000	99.344543
2154.000000	99.305049
2153.000000	99.274953
2152.000000	99.264224
2151.000000	99.262501
2150.000000	99.254541
2149.000000	99.245272
2148.000000	99.259420
2147.000000	99.303953
2146.000000	99.342390
2145.000000	99.327356
2144.000000	99.255952
2143.000000	99.172080
2142.000000	99.116927
2141.000000	99.097471
2140.000000	99.100291
2139.000000	99.113927
2138.000000	99.131012
2137.000000	99.145622
2136.000000	99.159644
2135.000000	99.181384
2134.000000	99.209981
2133.000000	99.230937
2132.000000	99.233806
2131.000000	99.225307
2130.000000	99.218111
2129.000000	99.214014
2128.000000	99.204726
2127.000000	99.185504
2126.000000	99.162316
2125.000000	99.145586
2124.000000	99.138842
2123.000000	99.134427
2122.000000	99.121681
2121.000000	99.100491
2120.000000	99.083354
2119.000000	99.080175
2118.000000	99.084336
2117.000000	99.079692
2116.000000	99.060267
2115.000000	99.036420
2114.000000	99.020940
2113.000000	99.015652
2112.000000	99.013746
2111.000000	99.010344
2110.000000	99.007232
2109.000000	99.009356
2108.000000	99.019020
2107.000000	99.032469
2106.000000	99.042188
2105.000000	99.043789
2104.000000	99.039780
2103.000000	99.035312
2102.000000	99.032813
2101.000000	99.033547
2100.000000	99.040478
2099.000000	99.055007
2098.000000	99.073840
2097.000000	99.093223
2096.000000	99.112373
2095.000000	99.127490
2094.000000	99.128237
2093.000000	99.108948
2092.000000	99.079915
2091.000000	99.058248
2090.000000	99.050099
2089.000000	99.049102
2088.000000	99.049050
2087.000000	99.049372
2086.000000	99.049533
2085.000000	99.048376
2084.000000	99.049311
2083.000000	99.057119
2082.000000	99.068490
2081.000000	99.074099
2080.000000	99.070855
2079.000000	99.064142
2078.000000	99.057683
2077.000000	99.050823
2076.000000	99.046795
2075.000000	99.053221
2074.000000	99.071639
2073.000000	99.094669
2072.000000	99.115738
2071.000000	99.132672
2070.000000	99.140566
2069.000000	99.133066
2068.000000	99.115671
2067.000000	99.106724
2066.000000	99.118337
2065.000000	99.141506
2064.000000	99.154134
2063.000000	99.140821
2062.000000	99.103941
2061.000000	99.062754
2060.000000	99.041823
2059.000000	99.049948
2058.000000	99.070901
2057.000000	99.083197
2056.000000	99.085569
2055.000000	99.090713
2054.000000	99.097042
2053.000000	99.086863
2052.000000	99.056984
2051.000000	99.031207
2050.000000	99.032912
2049.000000	99.057743
2048.000000	99.084798
2047.000000	99.106243
2046.000000	99.129134
2045.000000	99.154408
2044.000000	99.171435
2043.000000	99.170968
2042.000000	99.153333
2041.000000	99.128624
2040.000000	99.114224
2039.000000	99.123687
2038.000000	99.153499
2037.000000	99.188073
2036.000000	99.220195
2035.000000	99.256320
2034.000000	99.297551
2033.000000	99.331080
2032.000000	99.348339
2031.000000	99.354309
2030.000000	99.349714
2029.000000	99.324857
2028.000000	99.284545
2027.000000	99.260193
2026.000000	99.278814
2025.000000	99.327607
2024.000000	99.362200
2023.000000	99.348833
2022.000000	99.292465
2021.000000	99.229403
2020.000000	99.196433
2019.000000	99.200583
2018.000000	99.215594
2017.000000	99.209702
2016.000000	99.177598
2015.000000	99.140136
2014.000000	99.120477
2013.000000	99.132118
2012.000000	99.177394
2011.000000	99.241847
2010.000000	99.297204
2009.000000	99.326348
2008.000000	99.343349
2007.000000	99.371019
2006.000000	99.403145
2005.000000	99.412778
2004.000000	99.393101
2003.000000	99.362497
2002.000000	99.330592
2001.000000	99.285915
2000.000000	99.220909
1999.000000	99.151633
1998.000000	99.106438
1997.000000	99.105120
1996.000000	99.148371
1995.000000	99.215984
1994.000000	99.273073
1993.000000	99.290757
1992.000000	99.271958
1991.000000	99.247214
1990.000000	99.237751
1989.000000	99.237361
1988.000000	99.231217
1987.000000	99.216073
1986.000000	99.198999
1985.000000	99.187229
1984.000000	99.181194
1983.000000	99.169873
1982.000000	99.136854
1981.000000	99.084129
1980.000000	99.046103
1979.000000	99.062780
1978.000000	99.136078
1977.000000	99.224952
1976.000000	99.287063
1975.000000	99.309882
1974.000000	99.302684
1973.000000	99.286389
1972.000000	99.288031
1971.000000	99.316075
1970.000000	99.342768
1969.000000	99.333205
1968.000000	99.291353
1967.000000	99.255849
1966.000000	99.249971
1965.000000	99.263142
1964.000000	99.281982
1963.000000	99.307845
1962.000000	99.339776
1961.000000	99.365919
1960.000000	99.378837
1959.000000	99.381224
1958.000000	99.373477
1957.000000	99.354345
1956.000000	99.333599
1955.000000	99.324763
1954.000000	99.325938
1953.000000	99.325000
1952.000000	99.323188
1951.000000	99.333494
1950.000000	99.354397
1949.000000	99.366227
1948.000000	99.357871
1947.000000	99.338566
1946.000000	99.317945
1945.000000	99.292200
1944.000000	99.257502
1943.000000	99.223100
1942.000000	99.202187
1941.000000	99.199148
1940.000000	99.213729
1939.000000	99.245054
1938.000000	99.283033
1937.000000	99.307991
1936.000000	99.309291
1935.000000	99.296466
1934.000000	99.285239
1933.000000	99.280873
1932.000000	99.279751
1931.000000	99.277509
1930.000000	99.270342
1929.000000	99.257275
1928.000000	99.244538
1927.000000	99.241551
1926.000000	99.248593
1925.000000	99.256803
1924.000000	99.261862
1923.000000	99.268213
1922.000000	99.276664
1921.000000	99.278923
1920.000000	99.270189
1919.000000	99.256998
1918.000000	99.247915
1917.000000	99.243080
1916.000000	99.238615
1915.000000	99.235549
1914.000000	99.237708
1913.000000	99.245302
1912.000000	99.254473
1911.000000	99.260050
1910.000000	99.257270
1909.000000	99.246027
1908.000000	99.233778
1907.000000	99.229660
1906.000000	99.234270
1905.000000	99.241087
1904.000000	99.246907
1903.000000	99.253328
1902.000000	99.259205
1901.000000	99.260818
1900.000000	99.260124
1899.000000	99.264435
1898.000000	99.274630
1897.000000	99.281805
1896.000000	99.279390
1895.000000	99.272073
1894.000000	99.268432
1893.000000	99.270648
1892.000000	99.275474
1891.000000	99.279258
1890.000000	99.279671
1889.000000	99.278783
1888.000000	99.283776
1887.000000	99.297988
1886.000000	99.313660
1885.000000	99.318926
1884.000000	99.311687
1883.000000	99.300532
1882.000000	99.291545
1881.000000	99.283290
1880.000000	99.274675
1879.000000	99.268296
1878.000000	99.264206
1877.000000	99.258491
1876.000000	99.251884
1875.000000	99.251264
1874.000000	99.258844
1873.000000	99.268548
1872.000000	99.277174
1871.000000	99.290794
1870.000000	99.313618
1869.000000	99.335314
1868.000000	99.339482
1867.000000	99.323089
1866.000000	99.294942
1865.000000	99.264557
1864.000000	99.240409
1863.000000	99.228554
1862.000000	99.227779
1861.000000	99.230711
1860.000000	99.232950
1859.000000	99.237633
1858.000000	99.248522
1857.000000	99.262879
1856.000000	99.274215
1855.000000	99.278252
1854.000000	99.273783
1853.000000	99.264192
1852.000000	99.256764
1851.000000	99.257730
1850.000000	99.267465
1849.000000	99.281455
1848.000000	99.295630
1847.000000	99.307380
1846.000000	99.312150
1845.000000	99.304856
1844.000000	99.289991
1843.000000	99.281495
1842.000000	99.282899
1841.000000	99.285400
1840.000000	99.284155
1839.000000	99.281923
1838.000000	99.279720
1837.000000	99.275425
1836.000000	99.272101
1835.000000	99.277074
1834.000000	99.290731
1833.000000	99.305087
1832.000000	99.312882
1831.000000	99.312943
1830.000000	99.307352
1829.000000	99.298117
1828.000000	99.287784
1827.000000	99.280275
1826.000000	99.278645
1825.000000	99.281635
1824.000000	99.284985
1823.000000	99.286142
1822.000000	99.285054
1821.000000	99.283635
1820.000000	99.285656
1819.000000	99.294229
1818.000000	99.306487
1817.000000	99.315677
1816.000000	99.320305
1815.000000	99.324274
1814.000000	99.328245
1813.000000	99.326762
1812.000000	99.317243
1811.000000	99.306213
1810.000000	99.299688
1809.000000	99.294301
1808.000000	99.285333
1807.000000	99.275833
1806.000000	99.271922
1805.000000	99.274780
1804.000000	99.282157
1803.000000	99.291428
1802.000000	99.299335
1801.000000	99.300880
1800.000000	99.295480
1799.000000	99.289986
1798.000000	99.289520
1797.000000	99.291618
1796.000000	99.292296
1795.000000	99.292384
1794.000000	99.295577
1793.000000	99.300770
1792.000000	99.302723
1791.000000	99.301299
1790.000000	99.299580
1789.000000	99.296934
1788.000000	99.292450
1787.000000	99.288678
1786.000000	99.288985
1785.000000	99.293778
1784.000000	99.301240
1783.000000	99.307187
1782.000000	99.308199
1781.000000	99.304232
1780.000000	99.300969
1779.000000	99.306475
1778.000000	99.322755
1777.000000	99.345069
1776.000000	99.365865
1775.000000	99.379383
1774.000000	99.383823
1773.000000	99.378395
1772.000000	99.365060
1771.000000	99.349039
1770.000000	99.328404
1769.000000	99.301015
1768.000000	99.278479
1767.000000	99.274704
1766.000000	99.285589
1765.000000	99.293401
1764.000000	99.288111
1763.000000	99.272282
1762.000000	99.251805
1761.000000	99.228049
1760.000000	99.199853
1759.000000	99.164437
1758.000000	99.116575
1757.000000	99.055653
1756.000000	98.992377
1755.000000	98.938025
1754.000000	98.888627
1753.000000	98.833722
1752.000000	98.771622
1751.000000	98.710819
1750.000000	98.653724
1749.000000	98.590439
1748.000000	98.520929
1747.000000	98.461229
1746.000000	98.421734
1745.000000	98.397931
1744.000000	98.385365
1743.000000	98.386045
1742.000000	98.398486
1741.000000	98.418265
1740.000000	98.452237
1739.000000	98.506847
1738.000000	98.562775
1737.000000	98.595057
1736.000000	98.609741
1735.000000	98.647234
1734.000000	98.738324
1733.000000	98.848774
1732.000000	98.933136
1731.000000	98.992774
1730.000000	99.043788
1729.000000	99.091723
1728.000000	99.134734
1727.000000	99.173461
1726.000000	99.210959
1725.000000	99.245297
1724.000000	99.275276
1723.000000	99.305768
1722.000000	99.336631
1721.000000	99.359101
1720.000000	99.369618
1719.000000	99.376767
1718.000000	99.385777
1717.000000	99.386787
1716.000000	99.371362
1715.000000	99.346103
1714.000000	99.314849
1713.000000	99.274786
1712.000000	99.228815
1711.000000	99.186524
1710.000000	99.153008
1709.000000	99.123209
1708.000000	99.087297
1707.000000	99.041045
1706.000000	98.985960
1705.000000	98.925650
1704.000000	98.862662
1703.000000	98.794687
1702.000000	98.717297
1701.000000	98.621626
1700.000000	98.513004
1699.000000	98.423917
1698.000000	98.342537
1697.000000	98.223140
1696.000000	98.067837
1695.000000	97.937347
1694.000000	97.862273
1693.000000	97.808239
1692.000000	97.744712
1691.000000	97.672453
1690.000000	97.600684
1689.000000	97.531813
1688.000000	97.463244
1687.000000	97.395852
1686.000000	97.326931
1685.000000	97.228223
1684.000000	97.086816
1683.000000	96.959348
1682.000000	96.864791
1681.000000	96.767543
1680.000000	96.657308
1679.000000	96.549384
1678.000000	96.450171
1677.000000	96.344479
1676.000000	96.217604
1675.000000	96.083083
1674.000000	95.971356
1673.000000	95.880676
1672.000000	95.784925
1671.000000	95.665941
1670.000000	95.516913
1669.000000	95.349678
1668.000000	95.194405
1667.000000	95.069958
1666.000000	94.967430
1665.000000	94.863267
1664.000000	94.740505
1663.000000	94.601048
1662.000000	94.468982
1661.000000	94.355357
1660.000000	94.262304
1659.000000	94.153752
1658.000000	94.067140
1657.000000	93.988795
1656.000000	93.907019
1655.000000	93.828928
1654.000000	93.758856
1653.000000	93.692738
1652.000000	93.624130
1651.000000	93.561525
1650.000000	93.507268
1649.000000	93.450302
1648.000000	93.393824
1647.000000	93.339826
1646.000000	93.348276
1645.000000	93.310684
1644.000000	93.270370
1643.000000	93.243069
1642.000000	93.216982
1641.000000	93.200969
1640.000000	93.189323
1639.000000	93.179832
1638.000000	93.166803
1637.000000	93.139740
1636.000000	93.086716
1635.000000	93.028878
1634.000000	92.995957
1633.000000	92.982287
1632.000000	92.973058
1631.000000	92.968691
1630.000000	92.975981
1629.000000	92.996425
1628.000000	93.028584
1627.000000	93.072937
1626.000000	93.129959
1625.000000	93.198221
1624.000000	93.277037
1623.000000	93.367315
1622.000000	93.465047
1621.000000	93.559529
1620.000000	93.642974
1619.000000	93.719294
1618.000000	93.805819
1617.000000	93.921189
1616.000000	94.060338
1615.000000	94.193560
1614.000000	94.304333
1613.000000	94.402021
1612.000000	94.505084
1611.000000	94.620789
1610.000000	94.740805
1609.000000	94.855716
1608.000000	94.964806
1607.000000	95.068229
1606.000000	95.164213
1605.000000	95.254804
1604.000000	95.342575
1603.000000	95.424046
1602.000000	95.493902
1601.000000	95.555126
1600.000000	95.615825
1599.000000	95.677311
1598.000000	95.734229
1597.000000	95.784623
1596.000000	95.831374
1595.000000	95.873417
1594.000000	95.905045
1593.000000	95.925214
1592.000000	95.939099
1591.000000	95.949836
1590.000000	95.956396
1589.000000	95.959583
1588.000000	95.961712
1587.000000	95.960823
1586.000000	95.952038
1585.000000	95.936804
1584.000000	95.919375
1583.000000	95.898476
1582.000000	95.872108
1581.000000	95.844547
1580.000000	95.818374
1579.000000	95.786842
1578.000000	95.741276
1577.000000	95.679227
1576.000000	95.610768
1575.000000	95.550467
1574.000000	95.498436
1573.000000	95.446627
1572.000000	95.390892
1571.000000	95.323974
1570.000000	95.231685
1569.000000	95.124261
1568.000000	95.030175
1567.000000	94.950832
1566.000000	94.867170
1565.000000	94.774749
1564.000000	94.686701
1563.000000	94.612082
1562.000000	94.550092
1561.000000	94.502279
1560.000000	94.442818
1559.000000	94.301796
1558.000000	94.135584
1557.000000	94.027494
1556.000000	93.949525
1555.000000	93.869661
1554.000000	93.789998
1553.000000	93.722046
1552.000000	93.665827
1551.000000	93.612913
1550.000000	93.558921
1549.000000	93.507104
1548.000000	93.463649
1547.000000	93.431738
1546.000000	93.413106
1545.000000	93.407023
1544.000000	93.407100
1543.000000	93.405993
1542.000000	93.396845
1541.000000	93.370585
1540.000000	93.332845
1539.000000	93.313682
1538.000000	93.321055
1537.000000	93.336632
1536.000000	93.349060
1535.000000	93.363853
1534.000000	93.389072
1533.000000	93.419152
1532.000000	93.443914
1531.000000	93.466925
1530.000000	93.496814
1529.000000	93.534868
1528.000000	93.578535
1527.000000	93.628430
1526.000000	93.685290
1525.000000	93.740089
1524.000000	93.781832
1523.000000	93.816445
1522.000000	93.865433
1521.000000	93.936981
1520.000000	94.009267
1519.000000	94.065920
1518.000000	94.111601
1517.000000	94.155051
1516.000000	94.198213
1515.000000	94.238083
1514.000000	94.279998
1513.000000	94.336619
1512.000000	94.416944
1511.000000	94.515354
1510.000000	94.619846
1509.000000	94.725561
1508.000000	94.836338
1507.000000	94.946472
1506.000000	95.041758
1505.000000	95.117092
1504.000000	95.183014
1503.000000	95.245418
1502.000000	95.311222
1501.000000	95.387182
1500.000000	95.470280
1499.000000	95.553359
1498.000000	95.635760
1497.000000	95.719998
1496.000000	95.805461
1495.000000	95.890471
1494.000000	95.972888
1493.000000	96.050636
1492.000000	96.128357
1491.000000	96.213804
1490.000000	96.300604
1489.000000	96.366123
1488.000000	96.400285
1487.000000	96.418852
1486.000000	96.435833
1485.000000	96.450639
1484.000000	96.459522
1483.000000	96.465196
1482.000000	96.470818
1481.000000	96.470924
1480.000000	96.459239
1479.000000	96.439721
1478.000000	96.420357
1477.000000	96.400061
1476.000000	96.371848
1475.000000	96.332489
1474.000000	96.279860
1473.000000	96.205627
1472.000000	96.113783
1471.000000	96.026487
1470.000000	95.952516
1469.000000	95.883598
1468.000000	95.816535
1467.000000	95.755011
1466.000000	95.698773
1465.000000	95.640879
1464.000000	95.579898
1463.000000	95.525383
1462.000000	95.481570
1461.000000	95.442509
1460.000000	95.399619
1459.000000	95.344690
1458.000000	95.263254
1457.000000	95.154186
1456.000000	95.058977
1455.000000	95.002848
1454.000000	94.964230
1453.000000	94.925756
1452.000000	94.892465
1451.000000	94.872674
1450.000000	94.864412
1449.000000	94.861488
1448.000000	94.864972
1447.000000	94.876730
1446.000000	94.894039
1445.000000	94.914317
1444.000000	94.937816
1443.000000	94.966875
1442.000000	95.001181
1441.000000	95.035373
1440.000000	95.062532
1439.000000	95.083561
1438.000000	95.111768
1437.000000	95.163065
1436.000000	95.235081
1435.000000	95.305939
1434.000000	95.362568
1433.000000	95.409420
1432.000000	95.455162
1431.000000	95.500999
1430.000000	95.540831
1429.000000	95.571212
1428.000000	95.595804
1427.000000	95.618454
1426.000000	95.641348
1425.000000	95.665550
1424.000000	95.685450
1423.000000	95.691142
1422.000000	95.681134
1421.000000	95.667595
1420.000000	95.666241
1419.000000	95.678642
1418.000000	95.690528
1417.000000	95.690537
1416.000000	95.680190
1415.000000	95.667273
1414.000000	95.657001
1413.000000	95.647570
1412.000000	95.634025
1411.000000	95.615089
1410.000000	95.593635
1409.000000	95.571441
1408.000000	95.548421
1407.000000	95.523744
1406.000000	95.496743
1405.000000	95.469045
1404.000000	95.444385
1403.000000	95.424729
1402.000000	95.408657
1401.000000	95.396604
1400.000000	95.393665
1399.000000	95.402257
1398.000000	95.414521
1397.000000	95.419942
1396.000000	95.417853
1395.000000	95.414900
1394.000000	95.415857
1393.000000	95.421451
1392.000000	95.431253
1391.000000	95.444359
1390.000000	95.459408
1389.000000	95.476836
1388.000000	95.500634
1387.000000	95.532852
1386.000000	95.566741
1385.000000	95.593919
1384.000000	95.614948
1383.000000	95.636718
1382.000000	95.662464
1381.000000	95.690008
1380.000000	95.719142
1379.000000	95.753038
1378.000000	95.791980
1377.000000	95.833473
1376.000000	95.879016
1375.000000	95.932285
1374.000000	95.989336
1373.000000	96.039212
1372.000000	96.078025
1371.000000	96.112046
1370.000000	96.147860
1369.000000	96.188099
1368.000000	96.233949
1367.000000	96.286379
1366.000000	96.343955
1365.000000	96.402618
1364.000000	96.457260
1363.000000	96.502221
1362.000000	96.533476
1361.000000	96.552598
1360.000000	96.566653
1359.000000	96.581864
1358.000000	96.598220
1357.000000	96.610567
1356.000000	96.614574
1355.000000	96.610588
1354.000000	96.601463
1353.000000	96.588227
1352.000000	96.570801
1351.000000	96.549931
1350.000000	96.526363
1349.000000	96.499466
1348.000000	96.467850
1347.000000	96.431188
1346.000000	96.390210
1345.000000	96.346651
1344.000000	96.304252
1343.000000	96.267442
1342.000000	96.237155
1341.000000	96.209334
1340.000000	96.179815
1339.000000	96.150340
1338.000000	96.126321
1337.000000	96.109949
1336.000000	96.100470
1335.000000	96.098422
1334.000000	96.105494
1333.000000	96.121886
1332.000000	96.145968
1331.000000	96.175804
1330.000000	96.209290
1329.000000	96.243542
1328.000000	96.276352
1327.000000	96.307568
1326.000000	96.337621
1325.000000	96.365199
1324.000000	96.387414
1323.000000	96.402382
1322.000000	96.410908
1321.000000	96.415713
1320.000000	96.419714
1319.000000	96.424844
1318.000000	96.431474
1317.000000	96.439371
1316.000000	96.449743
1315.000000	96.465262
1314.000000	96.487020
1313.000000	96.512254
1312.000000	96.536546
1311.000000	96.557820
1310.000000	96.577243
1309.000000	96.596952
1308.000000	96.618523
1307.000000	96.642621
1306.000000	96.668131
1305.000000	96.692079
1304.000000	96.712146
1303.000000	96.729250
1302.000000	96.746278
1301.000000	96.764533
1300.000000	96.783061
1299.000000	96.801313
1298.000000	96.819565
1297.000000	96.835841
1296.000000	96.845053
1295.000000	96.843320
1294.000000	96.832237
1293.000000	96.816776
1292.000000	96.799944
1291.000000	96.781050
1290.000000	96.757943
1289.000000	96.729548
1288.000000	96.696669
1287.000000	96.661857
1286.000000	96.628306
1285.000000	96.597902
1284.000000	96.570905
1283.000000	96.548083
1282.000000	96.531945
1281.000000	96.524450
1280.000000	96.523900
1279.000000	96.525248
1278.000000	96.524041
1277.000000	96.519863
1276.000000	96.515608
1275.000000	96.513824
1274.000000	96.514064
1273.000000	96.513462
1272.000000	96.509228
1271.000000	96.500464
1270.000000	96.487933
1269.000000	96.472845
1268.000000	96.455925
1267.000000	96.436824
1266.000000	96.414139
1265.000000	96.386331
1264.000000	96.353325
1263.000000	96.317165
1262.000000	96.280544
1261.000000	96.245004
1260.000000	96.210508
1259.000000	96.176031
1258.000000	96.140139
1257.000000	96.101733
1256.000000	96.060977
1255.000000	96.018824
1254.000000	95.975227
1253.000000	95.928666
1252.000000	95.877753
1251.000000	95.822596
1250.000000	95.764166
1249.000000	95.703700
1248.000000	95.643329
1247.000000	95.585275
1246.000000	95.529240
1245.000000	95.472128
1244.000000	95.411965
1243.000000	95.351059
1242.000000	95.293921
1241.000000	95.242984
1240.000000	95.197711
1239.000000	95.156963
1238.000000	95.121028
1237.000000	95.092647
1236.000000	95.076030
1235.000000	95.073495
1234.000000	95.083013
1233.000000	95.100301
1232.000000	95.124107
1231.000000	95.157049
1230.000000	95.201481
1229.000000	95.257334
1228.000000	95.323332
1227.000000	95.398361
1226.000000	95.480697
1225.000000	95.567826
1224.000000	95.657809
1223.000000	95.749214
1222.000000	95.840255
1221.000000	95.929051
1220.000000	96.014092
1219.000000	96.093344
1218.000000	96.164168
1217.000000	96.225196
1216.000000	96.277208
1215.000000	96.321081
1214.000000	96.355301
1213.000000	96.377534
1212.000000	96.387196
1211.000000	96.385025
1210.000000	96.371384
1209.000000	96.346376
1208.000000	96.312330
1207.000000	96.274215
1206.000000	96.237057
1205.000000	96.204082
1204.000000	96.177314
1203.000000	96.158477
1202.000000	96.148791
1201.000000	96.149253
1200.000000	96.161026
1199.000000	96.184477
1198.000000	96.217392
1197.000000	96.255823
1196.000000	96.297102
1195.000000	96.340449
1194.000000	96.385500
1193.000000	96.431597
1192.000000	96.478358
1191.000000	96.525533
1190.000000	96.572139
1189.000000	96.616697
1188.000000	96.657881
1187.000000	96.694282
1186.000000	96.724304
1185.000000	96.747591
1184.000000	96.765487
1183.000000	96.779179
1182.000000	96.788360
1181.000000	96.792531
1180.000000	96.792911
1179.000000	96.791129
1178.000000	96.786991
1177.000000	96.779619
1176.000000	96.770002
1175.000000	96.760716
1174.000000	96.753176
1173.000000	96.746778
1172.000000	96.740448
1171.000000	96.733071
1170.000000	96.722903
1169.000000	96.708757
1168.000000	96.691993
1167.000000	96.675443
1166.000000	96.660337
1165.000000	96.646221
1164.000000	96.633908
1163.000000	96.626155
1162.000000	96.624831
1161.000000	96.630069
1160.000000	96.642582
1159.000000	96.664365
1158.000000	96.696136
1157.000000	96.735634
1156.000000	96.779954
1155.000000	96.827888
1154.000000	96.879461
1153.000000	96.934659
1152.000000	96.992583
1151.000000	97.051191
1150.000000	97.108147
1149.000000	97.163227
1148.000000	97.219277
1147.000000	97.279111
1146.000000	97.341918
1145.000000	97.404000
1144.000000	97.462193
1143.000000	97.514773
1142.000000	97.560444
1141.000000	97.598842
1140.000000	97.631877
1139.000000	97.662667
1138.000000	97.692823
1137.000000	97.722423
1136.000000	97.751666
1135.000000	97.780133
1134.000000	97.805170
1133.000000	97.823972
1132.000000	97.837986
1131.000000	97.852116
1130.000000	97.868192
1129.000000	97.882145
1128.000000	97.889401
1127.000000	97.891030
1126.000000	97.892123
1125.000000	97.895703
1124.000000	97.901152
1123.000000	97.907544
1122.000000	97.915365
1121.000000	97.924127
1120.000000	97.930108
1119.000000	97.927985
1118.000000	97.914724
1117.000000	97.892381
1116.000000	97.867240
1115.000000	97.845153
1114.000000	97.827027
1113.000000	97.809618
1112.000000	97.791214
1111.000000	97.774523
1110.000000	97.762847
1109.000000	97.755742
1108.000000	97.750741
1107.000000	97.747429
1106.000000	97.747163
1105.000000	97.750432
1104.000000	97.756883
1103.000000	97.766460
1102.000000	97.776909
1101.000000	97.781566
1100.000000	97.773236
1099.000000	97.751424
1098.000000	97.723107
1097.000000	97.695413
1096.000000	97.670297
1095.000000	97.645870
1094.000000	97.619637
1093.000000	97.589383
1092.000000	97.554345
1091.000000	97.517538
1090.000000	97.484423
1089.000000	97.457082
1088.000000	97.431091
1087.000000	97.399977
1086.000000	97.362162
1085.000000	97.323206
1084.000000	97.291996
1083.000000	97.274710
1082.000000	97.270984
1081.000000	97.275231
1080.000000	97.283493
1079.000000	97.298667
1078.000000	97.327094
1077.000000	97.370419
1076.000000	97.422436
1075.000000	97.474559
1074.000000	97.521928
1073.000000	97.562951
1072.000000	97.595593
1071.000000	97.617713
1070.000000	97.630926
1069.000000	97.640943
1068.000000	97.652797
1067.000000	97.666743
1066.000000	97.679508
1065.000000	97.688137
1064.000000	97.692111
1063.000000	97.693039
1062.000000	97.693186
1061.000000	97.694044
1060.000000	97.696297
1059.000000	97.701679
1058.000000	97.713852
1057.000000	97.735442
1056.000000	97.763860
1055.000000	97.792138
1054.000000	97.815235
1053.000000	97.833728
1052.000000	97.849519
1051.000000	97.859864
1050.000000	97.859705
1049.000000	97.850158
1048.000000	97.841256
1047.000000	97.844234
1046.000000	97.861660
1045.000000	97.885510
1044.000000	97.903677
1043.000000	97.908502
1042.000000	97.901082
1041.000000	97.888466
1040.000000	97.876109
1039.000000	97.862676
1038.000000	97.842239
1037.000000	97.810482
1036.000000	97.768291
1035.000000	97.720915
1034.000000	97.675902
1033.000000	97.640960
1032.000000	97.620500
1031.000000	97.612892
1030.000000	97.613103
1029.000000	97.619702
1028.000000	97.636736
1027.000000	97.667129
1026.000000	97.706636
1025.000000	97.746858
1024.000000	97.782745
1023.000000	97.814527
1022.000000	97.844379
1021.000000	97.874319
1020.000000	97.905995
1019.000000	97.939137
1018.000000	97.970387
1017.000000	97.996289
1016.000000	98.017126
1015.000000	98.035732
1014.000000	98.053478
1013.000000	98.070583
1012.000000	98.090077
1011.000000	98.117498
1010.000000	98.154936
1009.000000	98.197660
1008.000000	98.238311
1007.000000	98.273136
1006.000000	98.303272
1005.000000	98.331627
1004.000000	98.360107
1003.000000	98.389167
1002.000000	98.418733
1001.000000	98.449330
1000.000000	98.482462
999.000000	98.519213
998.000000	98.557865
997.000000	98.593577
996.000000	98.621233
995.000000	98.639235
994.000000	98.650799
993.000000	98.661657
992.000000	98.676292
991.000000	98.695433
990.000000	98.716117
989.000000	98.733838
988.000000	98.745376
987.000000	98.750848
986.000000	98.753695
985.000000	98.758022
984.000000	98.764869
983.000000	98.771230
982.000000	98.773429
981.000000	98.771096
980.000000	98.766926
979.000000	98.762626
978.000000	98.756665
977.000000	98.746652
976.000000	98.732712
975.000000	98.717929
974.000000	98.706564
973.000000	98.702558
972.000000	98.707988
971.000000	98.721213
970.000000	98.737219
969.000000	98.751638
968.000000	98.764252
967.000000	98.777552
966.000000	98.792958
965.000000	98.809716
964.000000	98.826557
963.000000	98.842660
962.000000	98.857749
961.000000	98.872772
960.000000	98.889214
959.000000	98.905968
958.000000	98.918563
957.000000	98.924546
956.000000	98.928704
955.000000	98.939062
954.000000	98.957704
953.000000	98.979165
952.000000	98.998072
951.000000	99.014012
950.000000	99.027398
949.000000	99.035555
948.000000	99.036577
947.000000	99.034207
946.000000	99.034402
945.000000	99.038003
944.000000	99.040427
943.000000	99.037883
942.000000	99.031031
941.000000	99.022741
940.000000	99.015354
939.000000	99.010455
938.000000	99.008486
937.000000	99.008069
936.000000	99.008071
935.000000	99.010818
934.000000	99.020862
933.000000	99.039570
932.000000	99.062564
931.000000	99.083478
930.000000	99.098525
929.000000	99.106716
928.000000	99.108009
927.000000	99.103534
926.000000	99.096662
925.000000	99.091540
924.000000	99.090532
923.000000	99.094251
922.000000	99.103528
921.000000	99.119201
920.000000	99.139509
919.000000	99.159388
918.000000	99.174207
917.000000	99.184036
916.000000	99.193117
915.000000	99.205600
914.000000	99.222453
913.000000	99.241924
912.000000	99.261304
911.000000	99.277816
910.000000	99.289493
909.000000	99.296731
908.000000	99.302377
907.000000	99.309138
906.000000	99.316952
905.000000	99.323172
904.000000	99.324804
903.000000	99.320315
902.000000	99.310862
901.000000	99.301333
900.000000	99.298768
899.000000	99.306767
898.000000	99.321253
897.000000	99.334252
896.000000	99.342314
895.000000	99.348881
894.000000	99.357736
893.000000	99.367341
892.000000	99.373745
891.000000	99.376203
890.000000	99.376280
889.000000	99.372256
888.000000	99.358408
887.000000	99.330787
886.000000	99.291756
885.000000	99.247514
884.000000	99.202452
883.000000	99.157272
882.000000	99.111497
881.000000	99.066592
880.000000	99.025934
879.000000	98.991122
878.000000	98.958852
877.000000	98.923757
876.000000	98.885771
875.000000	98.853107
874.000000	98.835782
873.000000	98.837001
872.000000	98.852703
871.000000	98.877852
870.000000	98.910296
869.000000	98.948648
868.000000	98.989149
867.000000	99.026137
866.000000	99.054988
865.000000	99.074229
864.000000	99.085452
863.000000	99.092105
862.000000	99.098091
861.000000	99.106294
860.000000	99.117266
859.000000	99.128948
858.000000	99.138699
857.000000	99.146652
856.000000	99.156491
855.000000	99.171180
854.000000	99.187740
853.000000	99.197990
852.000000	99.195765
851.000000	99.183249
850.000000	99.169925
849.000000	99.165909
848.000000	99.175549
847.000000	99.195014
846.000000	99.215159
845.000000	99.228366
844.000000	99.234412
843.000000	99.239774
842.000000	99.250923
841.000000	99.268907
840.000000	99.290113
839.000000	99.310290
838.000000	99.327054
837.000000	99.339946
836.000000	99.349440
835.000000	99.355746
834.000000	99.358046
833.000000	99.355315
832.000000	99.348581
831.000000	99.342168
830.000000	99.342054
829.000000	99.351889
828.000000	99.368962
827.000000	99.383865
826.000000	99.386581
825.000000	99.375317
824.000000	99.358182
823.000000	99.344525
822.000000	99.336752
821.000000	99.332399
820.000000	99.330093
819.000000	99.328952
818.000000	99.325690
817.000000	99.318623
816.000000	99.312931
815.000000	99.315358
814.000000	99.323998
813.000000	99.330763
812.000000	99.334883
811.000000	99.345237
810.000000	99.365282
809.000000	99.383020
808.000000	99.383034
807.000000	99.364714
806.000000	99.342730
805.000000	99.331910
804.000000	99.336227
803.000000	99.350398
802.000000	99.366166
801.000000	99.376390
800.000000	99.377005
799.000000	99.366911
798.000000	99.346924
797.000000	99.321176
796.000000	99.299108
795.000000	99.290912
794.000000	99.297880
793.000000	99.310658
792.000000	99.319150
791.000000	99.320191
790.000000	99.314054
789.000000	99.299805
788.000000	99.279059
787.000000	99.259808
786.000000	99.250336
785.000000	99.251203
784.000000	99.257505
783.000000	99.266125
782.000000	99.275915
781.000000	99.283646
780.000000	99.285788
779.000000	99.283462
778.000000	99.280724
777.000000	99.278390
776.000000	99.273607
775.000000	99.264806
774.000000	99.253355
773.000000	99.241473
772.000000	99.232455
771.000000	99.231690
770.000000	99.242463
769.000000	99.260539
768.000000	99.276550
767.000000	99.283995
766.000000	99.282507
765.000000	99.274616
764.000000	99.263085
763.000000	99.250962
762.000000	99.240292
761.000000	99.230178
760.000000	99.218967
759.000000	99.208156
758.000000	99.200736
757.000000	99.195353
756.000000	99.185552
755.000000	99.166886
754.000000	99.143735
753.000000	99.127218
752.000000	99.125209
751.000000	99.133790
750.000000	99.139299
749.000000	99.131014
748.000000	99.111617
747.000000	99.092843
746.000000	99.081730
745.000000	99.075268
744.000000	99.068618
743.000000	99.062469
742.000000	99.059670
741.000000	99.059956
740.000000	99.061661
739.000000	99.063950
738.000000	99.063331
737.000000	99.052899
736.000000	99.030471
735.000000	99.003953
734.000000	98.982981
733.000000	98.968235
732.000000	98.954339
731.000000	98.939782
730.000000	98.926888
729.000000	98.914341
728.000000	98.898379
727.000000	98.881380
726.000000	98.871452
725.000000	98.871250
724.000000	98.872635
723.000000	98.864749
722.000000	98.843719
721.000000	98.813400
720.000000	98.780446
719.000000	98.750599
718.000000	98.727229
717.000000	98.710363
716.000000	98.695682
715.000000	98.674779
714.000000	98.639176
713.000000	98.588414
712.000000	98.535558
711.000000	98.500366
710.000000	98.493067
709.000000	98.505977
708.000000	98.522184
707.000000	98.529914
706.000000	98.526729
705.000000	98.514777
704.000000	98.497638
703.000000	98.479886
702.000000	98.465268
701.000000	98.454889
700.000000	98.449051
699.000000	98.449698
698.000000	98.458262
697.000000	98.472247
696.000000	98.486040
695.000000	98.494065
694.000000	98.492948
693.000000	98.483523
692.000000	98.472487
691.000000	98.468702
690.000000	98.474668
689.000000	98.483575
688.000000	98.486309
687.000000	98.479202
686.000000	98.463805
685.000000	98.443198
684.000000	98.421216
683.000000	98.401451
682.000000	98.384510
681.000000	98.369712
680.000000	98.359448
679.000000	98.357238
678.000000	98.358964
677.000000	98.354048
676.000000	98.338448
675.000000	98.317645
674.000000	98.298651
673.000000	98.283224
672.000000	98.269824
671.000000	98.257578
670.000000	98.247758
669.000000	98.236474
668.000000	98.208342
667.000000	98.182218
666.000000	98.186530
665.000000	98.198614
664.000000	98.197750
663.000000	98.185138
662.000000	98.170363
661.000000	98.161072
660.000000	98.163541
659.000000	98.179870
658.000000	98.198628
657.000000	98.202726
656.000000	98.191718
655.000000	98.181954
654.000000	98.183534
653.000000	98.188447
652.000000	98.186335
651.000000	98.178536
650.000000	98.169411
649.000000	98.156439
648.000000	98.139372
647.000000	98.128075
646.000000	98.129629
645.000000	98.136578
644.000000	98.138537
643.000000	98.136960
642.000000	98.137944
641.000000	98.138273
640.000000	98.131142
639.000000	98.120439
638.000000	98.115608
637.000000	98.115469
636.000000	98.109070
635.000000	98.092336
634.000000	98.074952
633.000000	98.068789
632.000000	98.075096
631.000000	98.082392
630.000000	98.073981
629.000000	98.042923
628.000000	98.003477
627.000000	97.982198
626.000000	97.991373
625.000000	98.016004
624.000000	98.032584
623.000000	98.032012
622.000000	98.018484
621.000000	97.997658
620.000000	97.976432
619.000000	97.965128
618.000000	97.966885
617.000000	97.970341
616.000000	97.964998
615.000000	97.957863
614.000000	97.961482
613.000000	97.972444
612.000000	97.976285
611.000000	97.969959
610.000000	97.965419
609.000000	97.971436
608.000000	97.984113
607.000000	97.995647
606.000000	98.001788
605.000000	97.999880
604.000000	97.989409
603.000000	97.976515
602.000000	97.969597
601.000000	97.968410
600.000000	97.963971
599.000000	97.950293
598.000000	97.931621
597.000000	97.917701
596.000000	97.915656
595.000000	97.925545
594.000000	97.940120
593.000000	97.951533
592.000000	97.960604
591.000000	97.974056
590.000000	97.991219
589.000000	98.002274
588.000000	98.001747
587.000000	97.993502
586.000000	97.980078
585.000000	97.958955
584.000000	97.935307
583.000000	97.924928
582.000000	97.933108
581.000000	97.942773
580.000000	97.936701
579.000000	97.920625
578.000000	97.908885
577.000000	97.899309
576.000000	97.880903
575.000000	97.858936
574.000000	97.851289
573.000000	97.861209
572.000000	97.874424
571.000000	97.880832
570.000000	97.883952
569.000000	97.888604
568.000000	97.890385
567.000000	97.880398
566.000000	97.852803
565.000000	97.807552
564.000000	97.752706
563.000000	97.703570
562.000000	97.672287
561.000000	97.660138
560.000000	97.664668
559.000000	97.685811
558.000000	97.717359
557.000000	97.743878
556.000000	97.755988
555.000000	97.759705
554.000000	97.762396
553.000000	97.760420
552.000000	97.751294
551.000000	97.745859
550.000000	97.754100
549.000000	97.769509
548.000000	97.782319
547.000000	97.796560
546.000000	97.818749
545.000000	97.839682
544.000000	97.845892
543.000000	97.841084
542.000000	97.839055
541.000000	97.842346
540.000000	97.842600
539.000000	97.836446
538.000000	97.826519
537.000000	97.812108
536.000000	97.792359
535.000000	97.772323
534.000000	97.752712
533.000000	97.722372
532.000000	97.674635
531.000000	97.624972
530.000000	97.597685
529.000000	97.601244
528.000000	97.631590
527.000000	97.688261
526.000000	97.766256
525.000000	97.839950
524.000000	97.879692
523.000000	97.878172
522.000000	97.847290
521.000000	97.804316
520.000000	97.770664
519.000000	97.767326
518.000000	97.793510
517.000000	97.821489
516.000000	97.831602
515.000000	97.836340
514.000000	97.854733
513.000000	97.883821
512.000000	97.909943
511.000000	97.929288
510.000000	97.941623
509.000000	97.940589
508.000000	97.929459
507.000000	97.932328
506.000000	97.964617
505.000000	98.008223
504.000000	98.042183
503.000000	98.078199
502.000000	98.135646
501.000000	98.194258
500.000000	98.214550
499.000000	98.198105
498.000000	98.189230
497.000000	98.219872
496.000000	98.273100
495.000000	98.304295
494.000000	98.287596
493.000000	98.238627
492.000000	98.201619
491.000000	98.212697
490.000000	98.265402
489.000000	98.318795
488.000000	98.343616
487.000000	98.345723
486.000000	98.344375
485.000000	98.350320
484.000000	98.374158
483.000000	98.429239
482.000000	98.498957
481.000000	98.527801
480.000000	98.476994
479.000000	98.375406
478.000000	98.296991
477.000000	98.292050
476.000000	98.356791
475.000000	98.459125
474.000000	98.561374
473.000000	98.626719
472.000000	98.644032
471.000000	98.643920
470.000000	98.655006
469.000000	98.664665
468.000000	98.650157
467.000000	98.618826
466.000000	98.591112
465.000000	98.569502
464.000000	98.562467
463.000000	98.612774
462.000000	98.748022
461.000000	98.920817
460.000000	99.034781
459.000000	99.047195
458.000000	98.968439
457.000000	98.876362
456.000000	98.893715
455.000000	99.001328
454.000000	99.174446
453.000000	99.332941
452.000000	99.404526
451.000000	99.391652
450.000000	99.359104
