PE IR       SUBTECH     SPECTRUM    ASCII       PEDS        4.00        
   -1
3C-XXX-C006_1.ASC
23/09/07
10:24:02.00
23/09/07
11:30:09.00
uco
Sample 006 By uco Date Thursday, September 07 2023
450.000000
#HDR
-1
-1
#GR
cm-1
%T
1.0
0.0
4000.000000
-1.000000
3551
8
99.494414
92.900927
#DATA
4000.000000	99.385178
3999.000000	99.384003
3998.000000	99.379374
3997.000000	99.373023
3996.000000	99.366917
3995.000000	99.362520
3994.000000	99.360466
3993.000000	99.360699
3992.000000	99.362609
3991.000000	99.365051
3990.000000	99.366567
3989.000000	99.366125
3988.000000	99.363794
3987.000000	99.360573
3986.000000	99.357556
3985.000000	99.355329
3984.000000	99.354233
3983.000000	99.354772
3982.000000	99.357319
3981.000000	99.361393
3980.000000	99.365518
3979.000000	99.367937
3978.000000	99.367431
3977.000000	99.363840
3976.000000	99.358394
3975.000000	99.353676
3974.000000	99.352430
3973.000000	99.355563
3972.000000	99.361074
3971.000000	99.365082
3970.000000	99.364428
3969.000000	99.358541
3968.000000	99.349466
3967.000000	99.340576
3966.000000	99.334880
3965.000000	99.333803
3964.000000	99.336587
3963.000000	99.340782
3962.000000	99.343896
3961.000000	99.344991
3960.000000	99.344927
3959.000000	99.344925
3958.000000	99.345206
3957.000000	99.345130
3956.000000	99.344349
3955.000000	99.343435
3954.000000	99.343304
3953.000000	99.344283
3952.000000	99.345884
3951.000000	99.347511
3950.000000	99.349228
3949.000000	99.351459
3948.000000	99.353827
3947.000000	99.354610
3946.000000	99.351802
3945.000000	99.344862
3944.000000	99.335941
3943.000000	99.329341
3942.000000	99.328420
3941.000000	99.332995
3940.000000	99.340092
3939.000000	99.346387
3938.000000	99.349786
3937.000000	99.349466
3936.000000	99.345492
3935.000000	99.338945
3934.000000	99.332342
3933.000000	99.329489
3932.000000	99.333108
3931.000000	99.342073
3930.000000	99.351988
3929.000000	99.358445
3928.000000	99.359589
3927.000000	99.356514
3926.000000	99.352251
3925.000000	99.350110
3924.000000	99.351822
3923.000000	99.356924
3922.000000	99.363483
3921.000000	99.368656
3920.000000	99.369375
3919.000000	99.364092
3918.000000	99.354589
3917.000000	99.345352
3916.000000	99.340044
3915.000000	99.338754
3914.000000	99.338782
3913.000000	99.337597
3912.000000	99.334965
3911.000000	99.332901
3910.000000	99.334019
3909.000000	99.339527
3908.000000	99.348381
3907.000000	99.358091
3906.000000	99.366506
3905.000000	99.373295
3904.000000	99.379253
3903.000000	99.383793
3902.000000	99.384543
3901.000000	99.379998
3900.000000	99.371665
3899.000000	99.363145
3898.000000	99.357280
3897.000000	99.354630
3896.000000	99.353871
3895.000000	99.352667
3894.000000	99.349124
3893.000000	99.344218
3892.000000	99.342281
3891.000000	99.346553
3890.000000	99.354992
3889.000000	99.362589
3888.000000	99.365835
3887.000000	99.365457
3886.000000	99.365961
3885.000000	99.370050
3884.000000	99.374543
3883.000000	99.373890
3882.000000	99.366089
3881.000000	99.355273
3880.000000	99.347967
3879.000000	99.346665
3878.000000	99.349314
3877.000000	99.353505
3876.000000	99.358934
3875.000000	99.366299
3874.000000	99.373796
3873.000000	99.376236
3872.000000	99.369400
3871.000000	99.355420
3870.000000	99.342648
3869.000000	99.337794
3868.000000	99.340191
3867.000000	99.345359
3866.000000	99.350057
3865.000000	99.353297
3864.000000	99.354430
3863.000000	99.352110
3862.000000	99.346217
3861.000000	99.338996
3860.000000	99.333242
3859.000000	99.330287
3858.000000	99.329767
3857.000000	99.329812
3856.000000	99.326678
3855.000000	99.318608
3854.000000	99.311928
3853.000000	99.313494
3852.000000	99.320263
3851.000000	99.327008
3850.000000	99.333171
3849.000000	99.339931
3848.000000	99.346968
3847.000000	99.352011
3846.000000	99.352569
3845.000000	99.348293
3844.000000	99.341414
3843.000000	99.334806
3842.000000	99.330113
3841.000000	99.328157
3840.000000	99.330670
3839.000000	99.339436
3838.000000	99.352446
3837.000000	99.363035
3836.000000	99.365252
3835.000000	99.358589
3834.000000	99.347376
3833.000000	99.337281
3832.000000	99.332020
3831.000000	99.331127
3830.000000	99.330884
3829.000000	99.328066
3828.000000	99.323006
3827.000000	99.319040
3826.000000	99.318641
3825.000000	99.320405
3824.000000	99.320218
3823.000000	99.316000
3822.000000	99.311580
3821.000000	99.311766
3820.000000	99.313945
3819.000000	99.312341
3818.000000	99.306940
3817.000000	99.303289
3816.000000	99.306110
3815.000000	99.313300
3814.000000	99.319009
3813.000000	99.321223
3812.000000	99.322037
3811.000000	99.323321
3810.000000	99.324479
3809.000000	99.324302
3808.000000	99.324017
3807.000000	99.326402
3806.000000	99.331207
3805.000000	99.334716
3804.000000	99.334835
3803.000000	99.334879
3802.000000	99.340637
3801.000000	99.350887
3800.000000	99.355994
3799.000000	99.349824
3798.000000	99.335529
3797.000000	99.321226
3796.000000	99.312675
3795.000000	99.308937
3794.000000	99.305677
3793.000000	99.301108
3792.000000	99.297511
3791.000000	99.298136
3790.000000	99.303726
3789.000000	99.311461
3788.000000	99.317169
3787.000000	99.318590
3786.000000	99.316814
3785.000000	99.314799
3784.000000	99.314445
3783.000000	99.315089
3782.000000	99.314581
3781.000000	99.311777
3780.000000	99.308022
3779.000000	99.305796
3778.000000	99.306050
3777.000000	99.307909
3776.000000	99.310529
3775.000000	99.313992
3774.000000	99.318275
3773.000000	99.322175
3772.000000	99.324044
3771.000000	99.324011
3770.000000	99.324560
3769.000000	99.327668
3768.000000	99.332406
3767.000000	99.336616
3766.000000	99.339397
3765.000000	99.340606
3764.000000	99.339388
3763.000000	99.334653
3762.000000	99.326681
3761.000000	99.318247
3760.000000	99.313965
3759.000000	99.316756
3758.000000	99.324965
3757.000000	99.334488
3756.000000	99.342393
3755.000000	99.347729
3754.000000	99.350370
3753.000000	99.350847
3752.000000	99.351242
3751.000000	99.353360
3750.000000	99.355788
3749.000000	99.356529
3748.000000	99.356158
3747.000000	99.356199
3746.000000	99.358549
3745.000000	99.366272
3744.000000	99.376875
3743.000000	99.381523
3742.000000	99.377628
3741.000000	99.370367
3740.000000	99.365532
3739.000000	99.365148
3738.000000	99.367074
3737.000000	99.368670
3736.000000	99.370228
3735.000000	99.372876
3734.000000	99.376067
3733.000000	99.379555
3732.000000	99.383676
3731.000000	99.387243
3730.000000	99.388376
3729.000000	99.386795
3728.000000	99.383961
3727.000000	99.381446
3726.000000	99.379187
3725.000000	99.376226
3724.000000	99.372949
3723.000000	99.370908
3722.000000	99.370054
3721.000000	99.368178
3720.000000	99.363955
3719.000000	99.358832
3718.000000	99.355126
3717.000000	99.353573
3716.000000	99.353378
3715.000000	99.353702
3714.000000	99.354503
3713.000000	99.356857
3712.000000	99.361853
3711.000000	99.367811
3710.000000	99.370553
3709.000000	99.367911
3708.000000	99.361490
3707.000000	99.354620
3706.000000	99.349849
3705.000000	99.347568
3704.000000	99.346387
3703.000000	99.345076
3702.000000	99.344367
3701.000000	99.345941
3700.000000	99.350140
3699.000000	99.355466
3698.000000	99.359942
3697.000000	99.362227
3696.000000	99.361926
3695.000000	99.359302
3694.000000	99.355094
3693.000000	99.350756
3692.000000	99.348887
3691.000000	99.352772
3690.000000	99.363450
3689.000000	99.376313
3688.000000	99.383189
3687.000000	99.379892
3686.000000	99.368633
3685.000000	99.354365
3684.000000	99.341630
3683.000000	99.333014
3682.000000	99.329122
3681.000000	99.329397
3680.000000	99.332275
3679.000000	99.334884
3678.000000	99.334072
3677.000000	99.330550
3676.000000	99.330954
3675.000000	99.337669
3674.000000	99.343113
3673.000000	99.341496
3672.000000	99.334445
3671.000000	99.327291
3670.000000	99.324195
3669.000000	99.322702
3668.000000	99.317470
3667.000000	99.308391
3666.000000	99.299365
3665.000000	99.293340
3664.000000	99.290352
3663.000000	99.288144
3662.000000	99.284598
3661.000000	99.279869
3660.000000	99.275874
3659.000000	99.273906
3658.000000	99.273737
3657.000000	99.275447
3656.000000	99.280120
3655.000000	99.288120
3654.000000	99.297837
3653.000000	99.305398
3652.000000	99.305419
3651.000000	99.294549
3650.000000	99.276588
3649.000000	99.261572
3648.000000	99.255540
3647.000000	99.254481
3646.000000	99.251429
3645.000000	99.244082
3644.000000	99.234829
3643.000000	99.227206
3642.000000	99.222761
3641.000000	99.220760
3640.000000	99.220490
3639.000000	99.222313
3638.000000	99.225416
3637.000000	99.226625
3636.000000	99.223662
3635.000000	99.218867
3634.000000	99.217387
3633.000000	99.220983
3632.000000	99.225093
3631.000000	99.222761
3630.000000	99.213759
3629.000000	99.207125
3628.000000	99.206933
3627.000000	99.206363
3626.000000	99.200399
3625.000000	99.190651
3624.000000	99.181145
3623.000000	99.174603
3622.000000	99.170859
3621.000000	99.167873
3620.000000	99.164355
3619.000000	99.160442
3618.000000	99.155860
3617.000000	99.149620
3616.000000	99.141113
3615.000000	99.130742
3614.000000	99.120306
3613.000000	99.111848
3612.000000	99.105290
3611.000000	99.097955
3610.000000	99.086950
3609.000000	99.072680
3608.000000	99.059440
3607.000000	99.051421
3606.000000	99.049375
3605.000000	99.051611
3604.000000	99.056037
3603.000000	99.060396
3602.000000	99.062051
3601.000000	99.058901
3600.000000	99.051396
3599.000000	99.042412
3598.000000	99.033690
3597.000000	99.023439
3596.000000	99.008852
3595.000000	98.990954
3594.000000	98.975564
3593.000000	98.968362
3592.000000	98.969830
3591.000000	98.975166
3590.000000	98.977540
3589.000000	98.972504
3588.000000	98.960927
3587.000000	98.946993
3586.000000	98.934186
3585.000000	98.924431
3584.000000	98.918187
3583.000000	98.913752
3582.000000	98.907896
3581.000000	98.898193
3580.000000	98.885121
3579.000000	98.871578
3578.000000	98.860357
3577.000000	98.852341
3576.000000	98.846663
3575.000000	98.841656
3574.000000	98.835980
3573.000000	98.830029
3572.000000	98.826278
3571.000000	98.827093
3570.000000	98.831334
3569.000000	98.833682
3568.000000	98.828118
3567.000000	98.812566
3566.000000	98.790565
3565.000000	98.768449
3564.000000	98.750643
3563.000000	98.737711
3562.000000	98.727650
3561.000000	98.718074
3560.000000	98.707698
3559.000000	98.696642
3558.000000	98.685877
3557.000000	98.676456
3556.000000	98.668803
3555.000000	98.662146
3554.000000	98.654719
3553.000000	98.645353
3552.000000	98.635264
3551.000000	98.627520
3550.000000	98.624031
3549.000000	98.623347
3548.000000	98.621752
3547.000000	98.616404
3546.000000	98.607436
3545.000000	98.597097
3544.000000	98.586975
3543.000000	98.576216
3542.000000	98.562692
3541.000000	98.546054
3540.000000	98.529304
3539.000000	98.516584
3538.000000	98.508872
3537.000000	98.502620
3536.000000	98.493449
3535.000000	98.480977
3534.000000	98.468842
3533.000000	98.460577
3532.000000	98.456729
3531.000000	98.455351
3530.000000	98.453842
3529.000000	98.450318
3528.000000	98.444384
3527.000000	98.437171
3526.000000	98.430100
3525.000000	98.423284
3524.000000	98.415527
3523.000000	98.405869
3522.000000	98.394713
3521.000000	98.383299
3520.000000	98.372519
3519.000000	98.362413
3518.000000	98.352283
3517.000000	98.341071
3516.000000	98.328240
3515.000000	98.314682
3514.000000	98.302376
3513.000000	98.292664
3512.000000	98.285061
3511.000000	98.278252
3510.000000	98.272109
3509.000000	98.268165
3508.000000	98.267885
3507.000000	98.270717
3506.000000	98.273737
3505.000000	98.272931
3504.000000	98.265374
3503.000000	98.251334
3502.000000	98.234402
3501.000000	98.218889
3500.000000	98.206823
3499.000000	98.197460
3498.000000	98.189200
3497.000000	98.181427
3496.000000	98.174464
3495.000000	98.168124
3494.000000	98.161125
3493.000000	98.152311
3492.000000	98.142016
3491.000000	98.131863
3490.000000	98.123422
3489.000000	98.117341
3488.000000	98.113608
3487.000000	98.111862
3486.000000	98.110941
3485.000000	98.108599
3484.000000	98.102696
3483.000000	98.093298
3482.000000	98.083298
3481.000000	98.076039
3480.000000	98.072190
3479.000000	98.069472
3478.000000	98.065374
3477.000000	98.059408
3476.000000	98.052829
3475.000000	98.047052
3474.000000	98.042656
3473.000000	98.039204
3472.000000	98.035065
3471.000000	98.027775
3470.000000	98.016017
3469.000000	98.001804
3468.000000	97.989766
3467.000000	97.983192
3466.000000	97.981016
3465.000000	97.979499
3464.000000	97.976472
3463.000000	97.973003
3462.000000	97.970832
3461.000000	97.969159
3460.000000	97.964752
3459.000000	97.955060
3458.000000	97.940854
3457.000000	97.925986
3456.000000	97.914776
3455.000000	97.909174
3454.000000	97.907873
3453.000000	97.907890
3452.000000	97.907068
3451.000000	97.905308
3450.000000	97.903806
3449.000000	97.903455
3448.000000	97.903940
3447.000000	97.903833
3446.000000	97.901304
3445.000000	97.894925
3444.000000	97.884375
3443.000000	97.871126
3442.000000	97.858526
3441.000000	97.850103
3440.000000	97.846766
3439.000000	97.845673
3438.000000	97.842455
3437.000000	97.834918
3436.000000	97.824558
3435.000000	97.814679
3434.000000	97.807475
3433.000000	97.802785
3432.000000	97.798825
3431.000000	97.793637
3430.000000	97.786472
3429.000000	97.778446
3428.000000	97.771630
3427.000000	97.767043
3426.000000	97.763834
3425.000000	97.760785
3424.000000	97.757916
3423.000000	97.755634
3422.000000	97.752700
3421.000000	97.746653
3420.000000	97.736988
3419.000000	97.726820
3418.000000	97.720076
3417.000000	97.717341
3416.000000	97.715234
3415.000000	97.709759
3414.000000	97.699868
3413.000000	97.687798
3412.000000	97.676530
3411.000000	97.667588
3410.000000	97.661295
3409.000000	97.658209
3408.000000	97.659079
3407.000000	97.662994
3406.000000	97.666422
3405.000000	97.665267
3404.000000	97.658299
3403.000000	97.648226
3402.000000	97.639175
3401.000000	97.633317
3400.000000	97.629669
3399.000000	97.625331
3398.000000	97.617596
3397.000000	97.605750
3396.000000	97.591794
3395.000000	97.579275
3394.000000	97.570557
3393.000000	97.564887
3392.000000	97.559517
3391.000000	97.552964
3390.000000	97.546617
3389.000000	97.542829
3388.000000	97.542082
3387.000000	97.542674
3386.000000	97.542703
3385.000000	97.541364
3384.000000	97.538174
3383.000000	97.532185
3382.000000	97.523018
3381.000000	97.512288
3380.000000	97.502887
3379.000000	97.496353
3378.000000	97.491328
3377.000000	97.484877
3376.000000	97.475125
3375.000000	97.462578
3374.000000	97.449182
3373.000000	97.436518
3372.000000	97.424989
3371.000000	97.414531
3370.000000	97.405690
3369.000000	97.399527
3368.000000	97.396210
3367.000000	97.393864
3366.000000	97.389233
3365.000000	97.379789
3364.000000	97.365383
3363.000000	97.348170
3362.000000	97.331009
3361.000000	97.315577
3360.000000	97.301673
3359.000000	97.288412
3358.000000	97.275920
3357.000000	97.265112
3356.000000	97.255530
3355.000000	97.244532
3354.000000	97.229832
3353.000000	97.212448
3352.000000	97.195813
3351.000000	97.181921
3350.000000	97.169495
3349.000000	97.156049
3348.000000	97.140548
3347.000000	97.123653
3346.000000	97.106553
3345.000000	97.090437
3344.000000	97.076337
3343.000000	97.064397
3342.000000	97.053458
3341.000000	97.042113
3340.000000	97.030067
3339.000000	97.018141
3338.000000	97.007214
3337.000000	96.997296
3336.000000	96.987119
3335.000000	96.974376
3334.000000	96.957222
3333.000000	96.936342
3332.000000	96.915233
3331.000000	96.897755
3330.000000	96.885445
3329.000000	96.877117
3328.000000	96.870173
3327.000000	96.861784
3326.000000	96.849900
3325.000000	96.834595
3324.000000	96.818484
3323.000000	96.804870
3322.000000	96.795271
3321.000000	96.789094
3320.000000	96.784966
3319.000000	96.781349
3318.000000	96.776254
3317.000000	96.767920
3316.000000	96.756611
3315.000000	96.745079
3314.000000	96.736522
3313.000000	96.731989
3312.000000	96.729587
3311.000000	96.725851
3310.000000	96.718199
3309.000000	96.706942
3308.000000	96.695239
3307.000000	96.686541
3306.000000	96.681680
3305.000000	96.678467
3304.000000	96.673879
3303.000000	96.666446
3302.000000	96.656986
3301.000000	96.647862
3300.000000	96.641513
3299.000000	96.638828
3298.000000	96.638460
3297.000000	96.637938
3296.000000	96.635685
3295.000000	96.631872
3294.000000	96.627552
3293.000000	96.623683
3292.000000	96.620950
3291.000000	96.619654
3290.000000	96.619336
3289.000000	96.618924
3288.000000	96.617752
3287.000000	96.616286
3286.000000	96.615729
3285.000000	96.617090
3284.000000	96.620457
3283.000000	96.624532
3282.000000	96.626831
3281.000000	96.625349
3280.000000	96.620821
3279.000000	96.616866
3278.000000	96.617075
3277.000000	96.621871
3276.000000	96.628670
3275.000000	96.635089
3274.000000	96.641080
3273.000000	96.647680
3272.000000	96.654461
3271.000000	96.659095
3270.000000	96.659615
3269.000000	96.656674
3268.000000	96.653319
3267.000000	96.652681
3266.000000	96.655907
3265.000000	96.662093
3264.000000	96.669801
3263.000000	96.678241
3262.000000	96.687078
3261.000000	96.695621
3260.000000	96.702693
3259.000000	96.707434
3258.000000	96.710109
3257.000000	96.712178
3256.000000	96.715685
3255.000000	96.722385
3254.000000	96.732822
3253.000000	96.745730
3252.000000	96.758402
3251.000000	96.768117
3250.000000	96.773701
3249.000000	96.776055
3248.000000	96.777453
3247.000000	96.780171
3246.000000	96.785008
3245.000000	96.790360
3244.000000	96.793169
3243.000000	96.791819
3242.000000	96.788333
3241.000000	96.787129
3240.000000	96.791323
3239.000000	96.800655
3238.000000	96.812859
3237.000000	96.825747
3236.000000	96.837489
3235.000000	96.846436
3234.000000	96.852385
3233.000000	96.857354
3232.000000	96.863286
3231.000000	96.869099
3230.000000	96.871867
3229.000000	96.871245
3228.000000	96.871015
3227.000000	96.875172
3226.000000	96.883541
3225.000000	96.892289
3224.000000	96.897916
3223.000000	96.900057
3222.000000	96.901286
3221.000000	96.905209
3220.000000	96.913943
3219.000000	96.925807
3218.000000	96.935705
3217.000000	96.939122
3216.000000	96.936304
3215.000000	96.932250
3214.000000	96.932205
3213.000000	96.937289
3212.000000	96.944321
3211.000000	96.949344
3210.000000	96.951207
3209.000000	96.951924
3208.000000	96.954014
3207.000000	96.957902
3206.000000	96.962294
3205.000000	96.966598
3204.000000	96.971775
3203.000000	96.978617
3202.000000	96.986367
3201.000000	96.993854
3200.000000	97.001137
3199.000000	97.009033
3198.000000	97.017496
3197.000000	97.025457
3196.000000	97.031930
3195.000000	97.036530
3194.000000	97.039485
3193.000000	97.042268
3192.000000	97.047794
3191.000000	97.058415
3190.000000	97.073379
3189.000000	97.089174
3188.000000	97.102691
3187.000000	97.113418
3186.000000	97.122792
3185.000000	97.132509
3184.000000	97.143433
3183.000000	97.154883
3182.000000	97.164454
3181.000000	97.169726
3180.000000	97.170979
3179.000000	97.171590
3178.000000	97.175126
3177.000000	97.182601
3176.000000	97.193096
3175.000000	97.205872
3174.000000	97.220517
3173.000000	97.235480
3172.000000	97.247978
3171.000000	97.255930
3170.000000	97.259473
3169.000000	97.260618
3168.000000	97.262075
3167.000000	97.266412
3166.000000	97.275229
3165.000000	97.288082
3164.000000	97.302386
3163.000000	97.315230
3162.000000	97.325751
3161.000000	97.335536
3160.000000	97.346484
3159.000000	97.358563
3158.000000	97.369890
3157.000000	97.378668
3156.000000	97.384491
3155.000000	97.388105
3154.000000	97.390921
3153.000000	97.394942
3152.000000	97.401990
3151.000000	97.412103
3150.000000	97.423250
3149.000000	97.433423
3148.000000	97.442444
3147.000000	97.450927
3146.000000	97.458413
3145.000000	97.464134
3144.000000	97.469376
3143.000000	97.477172
3142.000000	97.488989
3141.000000	97.502983
3140.000000	97.516224
3139.000000	97.527348
3138.000000	97.536207
3137.000000	97.542264
3136.000000	97.544798
3135.000000	97.544264
3134.000000	97.542262
3133.000000	97.540349
3132.000000	97.539659
3131.000000	97.541157
3130.000000	97.545191
3129.000000	97.550970
3128.000000	97.557357
3127.000000	97.564001
3126.000000	97.570927
3125.000000	97.577412
3124.000000	97.582468
3123.000000	97.586405
3122.000000	97.590647
3121.000000	97.595674
3120.000000	97.600202
3119.000000	97.602824
3118.000000	97.603446
3117.000000	97.602646
3116.000000	97.600615
3115.000000	97.597595
3114.000000	97.594634
3113.000000	97.592794
3112.000000	97.591848
3111.000000	97.590549
3110.000000	97.588251
3109.000000	97.585726
3108.000000	97.584312
3107.000000	97.584477
3106.000000	97.585194
3105.000000	97.584603
3104.000000	97.581598
3103.000000	97.576893
3102.000000	97.572137
3101.000000	97.567792
3100.000000	97.562681
3099.000000	97.556213
3098.000000	97.550092
3097.000000	97.546547
3096.000000	97.545294
3095.000000	97.543667
3094.000000	97.539960
3093.000000	97.535230
3092.000000	97.531219
3091.000000	97.527799
3090.000000	97.523469
3089.000000	97.517588
3088.000000	97.510970
3087.000000	97.504594
3086.000000	97.498786
3085.000000	97.493635
3084.000000	97.489358
3083.000000	97.485977
3082.000000	97.483165
3081.000000	97.480596
3080.000000	97.478124
3079.000000	97.475582
3078.000000	97.472786
3077.000000	97.469802
3076.000000	97.466927
3075.000000	97.464468
3074.000000	97.462837
3073.000000	97.462680
3072.000000	97.464408
3071.000000	97.467522
3070.000000	97.470847
3069.000000	97.473454
3068.000000	97.475051
3067.000000	97.475686
3066.000000	97.475830
3065.000000	97.476926
3064.000000	97.480951
3063.000000	97.488695
3062.000000	97.498695
3061.000000	97.508274
3060.000000	97.515598
3059.000000	97.520588
3058.000000	97.524340
3057.000000	97.528196
3056.000000	97.533271
3055.000000	97.540325
3054.000000	97.549553
3053.000000	97.560248
3052.000000	97.570793
3051.000000	97.579589
3050.000000	97.586627
3049.000000	97.594047
3048.000000	97.604296
3047.000000	97.617464
3046.000000	97.631029
3045.000000	97.642606
3044.000000	97.652412
3043.000000	97.662458
3042.000000	97.673686
3041.000000	97.684665
3040.000000	97.693226
3039.000000	97.698890
3038.000000	97.703492
3037.000000	97.709632
3036.000000	97.718650
3035.000000	97.729766
3034.000000	97.740792
3033.000000	97.749726
3032.000000	97.755957
3031.000000	97.760344
3030.000000	97.764302
3029.000000	97.768836
3028.000000	97.774348
3027.000000	97.781137
3026.000000	97.789749
3025.000000	97.800457
3024.000000	97.812285
3023.000000	97.823006
3022.000000	97.830690
3021.000000	97.835340
3020.000000	97.838783
3019.000000	97.842897
3018.000000	97.848119
3017.000000	97.853362
3016.000000	97.857006
3015.000000	97.858278
3014.000000	97.858336
3013.000000	97.859816
3012.000000	97.864360
3011.000000	97.870349
3010.000000	97.873915
3009.000000	97.872537
3008.000000	97.866999
3007.000000	97.859779
3006.000000	97.852706
3005.000000	97.846774
3004.000000	97.842803
3003.000000	97.840688
3002.000000	97.838452
3001.000000	97.833652
3000.000000	97.826039
2999.000000	97.817824
2998.000000	97.811028
2997.000000	97.805439
2996.000000	97.799462
2995.000000	97.792083
2994.000000	97.783427
2993.000000	97.774177
2992.000000	97.765212
2991.000000	97.757181
2990.000000	97.749392
2989.000000	97.739210
2988.000000	97.723782
2987.000000	97.703105
2986.000000	97.680943
2985.000000	97.662020
2984.000000	97.648163
2983.000000	97.637203
2982.000000	97.625243
2981.000000	97.609410
2980.000000	97.588885
2979.000000	97.564565
2978.000000	97.538589
2977.000000	97.513477
2976.000000	97.490356
2975.000000	97.467867
2974.000000	97.443500
2973.000000	97.416164
2972.000000	97.386680
2971.000000	97.355709
2970.000000	97.322583
2969.000000	97.287050
2968.000000	97.251164
2967.000000	97.217875
2966.000000	97.187735
2965.000000	97.158351
2964.000000	97.127655
2963.000000	97.097106
2962.000000	97.070963
2961.000000	97.052590
2960.000000	97.041810
2959.000000	97.035718
2958.000000	97.031725
2957.000000	97.029554
2956.000000	97.030653
2955.000000	97.036177
2954.000000	97.046030
2953.000000	97.059519
2952.000000	97.075883
2951.000000	97.093624
2950.000000	97.109630
2949.000000	97.119873
2948.000000	97.121318
2947.000000	97.113379
2946.000000	97.097961
2945.000000	97.078353
2944.000000	97.057563
2943.000000	97.036545
2942.000000	97.013640
2941.000000	96.986064
2940.000000	96.952526
2939.000000	96.914587
2938.000000	96.875613
2937.000000	96.838548
2936.000000	96.804461
2935.000000	96.772916
2934.000000	96.743433
2933.000000	96.716541
2932.000000	96.693350
2931.000000	96.674123
2930.000000	96.657523
2929.000000	96.641454
2928.000000	96.624985
2927.000000	96.609654
2926.000000	96.598879
2925.000000	96.595780
2924.000000	96.601199
2923.000000	96.614073
2922.000000	96.633724
2921.000000	96.661120
2920.000000	96.697127
2919.000000	96.739939
2918.000000	96.785591
2917.000000	96.831233
2916.000000	96.877076
2915.000000	96.924567
2914.000000	96.973539
2913.000000	97.021984
2912.000000	97.067954
2911.000000	97.110755
2910.000000	97.150416
2909.000000	97.187096
2908.000000	97.221313
2907.000000	97.253954
2906.000000	97.285480
2905.000000	97.315326
2904.000000	97.342403
2903.000000	97.366374
2902.000000	97.388381
2901.000000	97.410660
2900.000000	97.435252
2899.000000	97.462424
2898.000000	97.490215
2897.000000	97.515680
2896.000000	97.536893
2895.000000	97.554067
2894.000000	97.569288
2893.000000	97.585284
2892.000000	97.603830
2891.000000	97.624378
2890.000000	97.643933
2889.000000	97.658684
2888.000000	97.666323
2887.000000	97.667268
2886.000000	97.664178
2885.000000	97.660418
2884.000000	97.658230
2883.000000	97.657445
2882.000000	97.655790
2881.000000	97.650855
2880.000000	97.641897
2879.000000	97.629614
2878.000000	97.614677
2877.000000	97.597390
2876.000000	97.578820
2875.000000	97.561432
2874.000000	97.548133
2873.000000	97.540828
2872.000000	97.539975
2871.000000	97.544913
2870.000000	97.554016
2869.000000	97.564646
2868.000000	97.573600
2867.000000	97.578251
2866.000000	97.577733
2865.000000	97.573132
2864.000000	97.566132
2863.000000	97.557187
2862.000000	97.545274
2861.000000	97.529868
2860.000000	97.512809
2859.000000	97.497491
2858.000000	97.486153
2857.000000	97.478615
2856.000000	97.473867
2855.000000	97.472210
2854.000000	97.475641
2853.000000	97.486514
2852.000000	97.506112
2851.000000	97.534187
2850.000000	97.569425
2849.000000	97.610362
2848.000000	97.655850
2847.000000	97.704410
2846.000000	97.753424
2845.000000	97.799855
2844.000000	97.842123
2843.000000	97.880882
2842.000000	97.917500
2841.000000	97.952037
2840.000000	97.983216
2839.000000	98.009947
2838.000000	98.032291
2837.000000	98.050999
2836.000000	98.066624
2835.000000	98.079221
2834.000000	98.088679
2833.000000	98.095322
2832.000000	98.100465
2831.000000	98.106280
2830.000000	98.114611
2829.000000	98.125529
2828.000000	98.137121
2827.000000	98.146935
2826.000000	98.153849
2825.000000	98.158612
2824.000000	98.162816
2823.000000	98.167715
2822.000000	98.174028
2821.000000	98.182257
2820.000000	98.192289
2819.000000	98.202617
2818.000000	98.210912
2817.000000	98.216100
2816.000000	98.219506
2815.000000	98.223346
2814.000000	98.228399
2813.000000	98.233803
2812.000000	98.238677
2811.000000	98.242939
2810.000000	98.246723
2809.000000	98.250247
2808.000000	98.254459
2807.000000	98.260479
2806.000000	98.267655
2805.000000	98.273257
2804.000000	98.275241
2803.000000	98.274932
2802.000000	98.275914
2801.000000	98.280418
2800.000000	98.287411
2799.000000	98.293936
2798.000000	98.297634
2797.000000	98.298253
2796.000000	98.297723
2795.000000	98.298851
2794.000000	98.303061
2793.000000	98.309048
2792.000000	98.314117
2791.000000	98.317061
2790.000000	98.319365
2789.000000	98.323476
2788.000000	98.330388
2787.000000	98.339020
2786.000000	98.347341
2785.000000	98.353806
2784.000000	98.358140
2783.000000	98.361204
2782.000000	98.363975
2781.000000	98.366478
2780.000000	98.367928
2779.000000	98.368032
2778.000000	98.367765
2777.000000	98.368508
2776.000000	98.370692
2775.000000	98.373617
2774.000000	98.376498
2773.000000	98.379384
2772.000000	98.383077
2771.000000	98.388347
2770.000000	98.395058
2769.000000	98.401811
2768.000000	98.406582
2767.000000	98.408310
2766.000000	98.408179
2765.000000	98.409067
2764.000000	98.413205
2763.000000	98.420030
2762.000000	98.426374
2761.000000	98.429077
2760.000000	98.427759
2759.000000	98.425236
2758.000000	98.425252
2757.000000	98.429624
2756.000000	98.437268
2755.000000	98.445541
2754.000000	98.452254
2753.000000	98.456619
2752.000000	98.458943
2751.000000	98.459949
2750.000000	98.460348
2749.000000	98.460700
2748.000000	98.461458
2747.000000	98.463085
2746.000000	98.465999
2745.000000	98.470217
2744.000000	98.475116
2743.000000	98.479790
2742.000000	98.483768
2741.000000	98.487216
2740.000000	98.490329
2739.000000	98.492706
2738.000000	98.493658
2737.000000	98.493347
2736.000000	98.493457
2735.000000	98.496393
2734.000000	98.503416
2733.000000	98.513320
2732.000000	98.522920
2731.000000	98.529041
2730.000000	98.530474
2729.000000	98.528599
2728.000000	98.526437
2727.000000	98.526749
2726.000000	98.530296
2725.000000	98.535461
2724.000000	98.539721
2723.000000	98.541728
2722.000000	98.541898
2721.000000	98.541237
2720.000000	98.540383
2719.000000	98.540120
2718.000000	98.541884
2717.000000	98.546514
2716.000000	98.552542
2715.000000	98.556808
2714.000000	98.557200
2713.000000	98.554342
2712.000000	98.550596
2711.000000	98.548267
2710.000000	98.548805
2709.000000	98.552430
2708.000000	98.557582
2707.000000	98.561609
2706.000000	98.563161
2705.000000	98.563541
2704.000000	98.564787
2703.000000	98.566947
2702.000000	98.568502
2701.000000	98.569142
2700.000000	98.570455
2699.000000	98.573519
2698.000000	98.577301
2697.000000	98.580286
2696.000000	98.582594
2695.000000	98.585377
2694.000000	98.588717
2693.000000	98.591267
2692.000000	98.591827
2691.000000	98.590488
2690.000000	98.588333
2689.000000	98.586733
2688.000000	98.586888
2687.000000	98.589257
2686.000000	98.593075
2685.000000	98.596728
2684.000000	98.598823
2683.000000	98.598863
2682.000000	98.597192
2681.000000	98.594822
2680.000000	98.593228
2679.000000	98.593625
2678.000000	98.596029
2677.000000	98.599296
2676.000000	98.602384
2675.000000	98.605322
2674.000000	98.608575
2673.000000	98.611653
2672.000000	98.612981
2671.000000	98.611467
2670.000000	98.607888
2669.000000	98.604294
2668.000000	98.602137
2667.000000	98.601387
2666.000000	98.601369
2665.000000	98.601716
2664.000000	98.602153
2663.000000	98.602027
2662.000000	98.600864
2661.000000	98.599150
2660.000000	98.597762
2659.000000	98.596632
2658.000000	98.594736
2657.000000	98.591649
2656.000000	98.588535
2655.000000	98.587297
2654.000000	98.589114
2653.000000	98.593885
2652.000000	98.600376
2651.000000	98.606691
2650.000000	98.611332
2649.000000	98.614521
2648.000000	98.618120
2647.000000	98.623650
2646.000000	98.630491
2645.000000	98.636398
2644.000000	98.639666
2643.000000	98.640507
2642.000000	98.640615
2641.000000	98.641665
2640.000000	98.644093
2639.000000	98.647207
2638.000000	98.650604
2637.000000	98.655170
2636.000000	98.661810
2635.000000	98.669170
2634.000000	98.673919
2633.000000	98.674169
2632.000000	98.671951
2631.000000	98.671492
2630.000000	98.675545
2629.000000	98.684019
2628.000000	98.695207
2627.000000	98.706963
2626.000000	98.716979
2625.000000	98.723407
2624.000000	98.725726
2623.000000	98.724545
2622.000000	98.720827
2621.000000	98.716139
2620.000000	98.713185
2619.000000	98.714567
2618.000000	98.720436
2617.000000	98.728151
2616.000000	98.734605
2615.000000	98.738430
2614.000000	98.740165
2613.000000	98.741426
2612.000000	98.744033
2611.000000	98.748540
2610.000000	98.752955
2609.000000	98.754171
2608.000000	98.751879
2607.000000	98.750293
2606.000000	98.754323
2605.000000	98.764085
2604.000000	98.774519
2603.000000	98.780777
2602.000000	98.782811
2601.000000	98.783847
2600.000000	98.785559
2599.000000	98.786555
2598.000000	98.785522
2597.000000	98.784071
2596.000000	98.785206
2595.000000	98.789637
2594.000000	98.794709
2593.000000	98.796834
2592.000000	98.794661
2591.000000	98.790440
2590.000000	98.788897
2589.000000	98.793780
2588.000000	98.804145
2587.000000	98.814573
2586.000000	98.820412
2585.000000	98.822252
2584.000000	98.823734
2583.000000	98.825621
2582.000000	98.824882
2581.000000	98.820047
2580.000000	98.814587
2579.000000	98.813178
2578.000000	98.816341
2577.000000	98.820671
2576.000000	98.823072
2575.000000	98.823037
2574.000000	98.821609
2573.000000	98.820015
2572.000000	98.819416
2571.000000	98.820960
2570.000000	98.826049
2569.000000	98.836191
2568.000000	98.850914
2567.000000	98.865341
2566.000000	98.872285
2565.000000	98.868884
2564.000000	98.860178
2563.000000	98.854183
2562.000000	98.854359
2561.000000	98.858207
2560.000000	98.861520
2559.000000	98.861596
2558.000000	98.857477
2557.000000	98.850188
2556.000000	98.843016
2555.000000	98.839398
2554.000000	98.840141
2553.000000	98.843879
2552.000000	98.849413
2551.000000	98.855593
2550.000000	98.859925
2549.000000	98.860389
2548.000000	98.858730
2547.000000	98.859218
2546.000000	98.863521
2545.000000	98.869216
2544.000000	98.873759
2543.000000	98.877042
2542.000000	98.878877
2541.000000	98.877012
2540.000000	98.870249
2539.000000	98.861995
2538.000000	98.858221
2537.000000	98.862110
2536.000000	98.871898
2535.000000	98.883189
2534.000000	98.892033
2533.000000	98.896500
2532.000000	98.897152
2531.000000	98.896238
2530.000000	98.895396
2529.000000	98.893894
2528.000000	98.889776
2527.000000	98.882667
2526.000000	98.874696
2525.000000	98.868462
2524.000000	98.864772
2523.000000	98.862866
2522.000000	98.862615
2521.000000	98.865624
2520.000000	98.873493
2519.000000	98.885332
2518.000000	98.897661
2517.000000	98.906885
2516.000000	98.911473
2515.000000	98.912105
2514.000000	98.911045
2513.000000	98.911488
2512.000000	98.915549
2511.000000	98.921489
2510.000000	98.924309
2509.000000	98.920734
2508.000000	98.912990
2507.000000	98.906238
2506.000000	98.903173
2505.000000	98.902981
2504.000000	98.904512
2503.000000	98.907883
2502.000000	98.912918
2501.000000	98.918436
2500.000000	98.923664
2499.000000	98.928469
2498.000000	98.931878
2497.000000	98.932579
2496.000000	98.931545
2495.000000	98.931688
2494.000000	98.933442
2493.000000	98.932876
2492.000000	98.926513
2491.000000	98.916751
2490.000000	98.910189
2489.000000	98.911089
2488.000000	98.918568
2487.000000	98.929751
2486.000000	98.942903
2485.000000	98.956357
2484.000000	98.966599
2483.000000	98.969967
2482.000000	98.966319
2481.000000	98.959538
2480.000000	98.953809
2479.000000	98.949904
2478.000000	98.945534
2477.000000	98.939013
2476.000000	98.931823
2475.000000	98.927573
2474.000000	98.928654
2473.000000	98.933871
2472.000000	98.939154
2471.000000	98.940973
2470.000000	98.939554
2469.000000	98.938485
2468.000000	98.940440
2467.000000	98.943638
2466.000000	98.943691
2465.000000	98.939168
2464.000000	98.934070
2463.000000	98.933980
2462.000000	98.940590
2461.000000	98.950715
2460.000000	98.959745
2459.000000	98.964798
2458.000000	98.965007
2457.000000	98.960634
2456.000000	98.953033
2455.000000	98.945365
2454.000000	98.942506
2453.000000	98.948923
2452.000000	98.964879
2451.000000	98.984102
2450.000000	98.996663
2449.000000	98.996107
2448.000000	98.984607
2447.000000	98.971187
2446.000000	98.964725
2445.000000	98.968154
2444.000000	98.977876
2443.000000	98.987296
2442.000000	98.991415
2441.000000	98.989374
2440.000000	98.983741
2439.000000	98.977954
2438.000000	98.974480
2437.000000	98.974293
2436.000000	98.976629
2435.000000	98.979241
2434.000000	98.980279
2433.000000	98.980323
2432.000000	98.981531
2431.000000	98.984687
2430.000000	98.988527
2429.000000	98.991991
2428.000000	98.995154
2427.000000	98.997478
2426.000000	98.997578
2425.000000	98.996015
2424.000000	98.995964
2423.000000	98.998991
2422.000000	99.001910
2421.000000	99.000482
2420.000000	98.995153
2419.000000	98.990465
2418.000000	98.989252
2417.000000	98.989938
2416.000000	98.989836
2415.000000	98.988816
2414.000000	98.988754
2413.000000	98.990639
2412.000000	98.993254
2411.000000	98.994612
2410.000000	98.994763
2409.000000	98.996978
2408.000000	99.004762
2407.000000	99.016536
2406.000000	99.024686
2405.000000	99.021995
2404.000000	99.009044
2403.000000	98.993935
2402.000000	98.985025
2401.000000	98.985174
2400.000000	98.992113
2399.000000	99.001762
2398.000000	99.010399
2397.000000	99.015345
2396.000000	99.015537
2395.000000	99.012071
2394.000000	99.008022
2393.000000	99.007112
2392.000000	99.011299
2391.000000	99.018930
2390.000000	99.025936
2389.000000	99.029692
2388.000000	99.031291
2387.000000	99.033439
2386.000000	99.037087
2385.000000	99.040878
2384.000000	99.042999
2383.000000	99.042590
2382.000000	99.039948
2381.000000	99.036810
2380.000000	99.035646
2379.000000	99.037246
2378.000000	99.039528
2377.000000	99.040166
2376.000000	99.039869
2375.000000	99.040993
2374.000000	99.043304
2373.000000	99.043731
2372.000000	99.041059
2371.000000	99.038485
2370.000000	99.040266
2369.000000	99.047114
2368.000000	99.055323
2367.000000	99.059606
2366.000000	99.056545
2365.000000	99.046476
2364.000000	99.033082
2363.000000	99.021214
2362.000000	99.014447
2361.000000	99.014856
2360.000000	99.023559
2359.000000	99.037195
2358.000000	99.048185
2357.000000	99.050121
2356.000000	99.041848
2355.000000	99.030036
2354.000000	99.023019
2353.000000	99.022964
2352.000000	99.024661
2351.000000	99.023648
2350.000000	99.020678
2349.000000	99.017915
2348.000000	99.016925
2347.000000	99.016326
2346.000000	99.012162
2345.000000	99.003415
2344.000000	98.996796
2343.000000	98.999622
2342.000000	99.006257
2341.000000	99.007494
2340.000000	99.003927
2339.000000	99.002499
2338.000000	99.003868
2337.000000	99.001017
2336.000000	98.990338
2335.000000	98.977250
2334.000000	98.970073
2333.000000	98.970074
2332.000000	98.972534
2331.000000	98.973362
2330.000000	98.974035
2329.000000	98.973557
2328.000000	98.967035
2327.000000	98.947414
2326.000000	98.915297
2325.000000	98.880410
2324.000000	98.856715
2323.000000	98.852813
2322.000000	98.865438
2321.000000	98.884098
2320.000000	98.900668
2319.000000	98.913425
2318.000000	98.924345
2317.000000	98.934372
2316.000000	98.944298
2315.000000	98.953011
2314.000000	98.958619
2313.000000	98.959591
2312.000000	98.959884
2311.000000	98.965599
2310.000000	98.979167
2309.000000	98.994944
2308.000000	99.006135
2307.000000	99.010700
2306.000000	99.011528
2305.000000	99.010263
2304.000000	99.005670
2303.000000	98.996076
2302.000000	98.983000
2301.000000	98.970343
2300.000000	98.962332
2299.000000	98.959932
2298.000000	98.960776
2297.000000	98.960696
2296.000000	98.958116
2295.000000	98.954875
2294.000000	98.954676
2293.000000	98.959216
2292.000000	98.967045
2291.000000	98.974398
2290.000000	98.977368
2289.000000	98.973536
2288.000000	98.962685
2287.000000	98.946772
2286.000000	98.929418
2285.000000	98.915641
2284.000000	98.910500
2283.000000	98.916994
2282.000000	98.934190
2281.000000	98.957295
2280.000000	98.978950
2279.000000	98.992032
2278.000000	98.993641
2277.000000	98.987819
2276.000000	98.982578
2275.000000	98.982473
2274.000000	98.985376
2273.000000	98.987164
2272.000000	98.987960
2271.000000	98.991539
2270.000000	99.000227
2269.000000	99.012339
2268.000000	99.023869
2267.000000	99.030981
2266.000000	99.031857
2265.000000	99.027862
2264.000000	99.022519
2263.000000	99.018207
2262.000000	99.014748
2261.000000	99.011117
2260.000000	99.006324
2259.000000	98.999202
2258.000000	98.991143
2257.000000	98.989922
2256.000000	99.004805
2255.000000	99.034229
2254.000000	99.062840
2253.000000	99.075627
2252.000000	99.072371
2251.000000	99.064130
2250.000000	99.059664
2249.000000	99.059929
2248.000000	99.061837
2247.000000	99.060812
2246.000000	99.052245
2245.000000	99.036604
2244.000000	99.021923
2243.000000	99.015932
2242.000000	99.017369
2241.000000	99.019672
2240.000000	99.020775
2239.000000	99.023815
2238.000000	99.030641
2237.000000	99.040840
2236.000000	99.054611
2235.000000	99.069635
2234.000000	99.077329
2233.000000	99.070721
2232.000000	99.055224
2231.000000	99.042912
2230.000000	99.035914
2229.000000	99.024524
2228.000000	99.003184
2227.000000	98.979961
2226.000000	98.967502
2225.000000	98.971623
2224.000000	98.991170
2223.000000	99.021821
2222.000000	99.055605
2221.000000	99.081577
2220.000000	99.091996
2219.000000	99.086534
2218.000000	99.070141
2217.000000	99.051269
2216.000000	99.041562
2215.000000	99.049649
2214.000000	99.071764
2213.000000	99.092956
2212.000000	99.100762
2211.000000	99.095248
2210.000000	99.084338
2209.000000	99.074264
2208.000000	99.067490
2207.000000	99.065996
2206.000000	99.071839
2205.000000	99.083455
2204.000000	99.093032
2203.000000	99.090425
2202.000000	99.073256
2201.000000	99.052959
2200.000000	99.045347
2199.000000	99.052902
2198.000000	99.062640
2197.000000	99.065334
2196.000000	99.070076
2195.000000	99.091999
2194.000000	99.130187
2193.000000	99.165728
2192.000000	99.179522
2191.000000	99.166101
2190.000000	99.134210
2189.000000	99.103793
2188.000000	99.097617
2187.000000	99.122978
2186.000000	99.161611
2185.000000	99.187062
2184.000000	99.192994
2183.000000	99.195469
2182.000000	99.205500
2181.000000	99.210676
2180.000000	99.190222
2179.000000	99.142618
2178.000000	99.093233
2177.000000	99.075643
2176.000000	99.102544
2175.000000	99.152068
2174.000000	99.186376
2173.000000	99.185965
2172.000000	99.161322
2171.000000	99.132486
2170.000000	99.110338
2169.000000	99.100064
2168.000000	99.105719
2167.000000	99.120205
2166.000000	99.124713
2165.000000	99.111907
2164.000000	99.098028
2163.000000	99.095682
2162.000000	99.091241
2161.000000	99.074900
2160.000000	99.077850
2159.000000	99.139190
2158.000000	99.235109
2157.000000	99.294479
2156.000000	99.290904
2155.000000	99.266005
2154.000000	99.264097
2153.000000	99.285229
2152.000000	99.301867
2151.000000	99.294897
2150.000000	99.268073
2149.000000	99.242170
2148.000000	99.239509
2147.000000	99.263860
2146.000000	99.293620
2145.000000	99.302300
2144.000000	99.284885
2143.000000	99.256716
2142.000000	99.232573
2141.000000	99.218649
2140.000000	99.217970
2139.000000	99.228042
2138.000000	99.235072
2137.000000	99.225473
2136.000000	99.204984
2135.000000	99.194173
2134.000000	99.202704
2133.000000	99.219833
2132.000000	99.231304
2131.000000	99.234195
2130.000000	99.232397
2129.000000	99.227901
2128.000000	99.221024
2127.000000	99.212937
2126.000000	99.204437
2125.000000	99.195274
2124.000000	99.185415
2123.000000	99.174103
2122.000000	99.159187
2121.000000	99.141247
2120.000000	99.125700
2119.000000	99.115338
2118.000000	99.103970
2117.000000	99.084659
2116.000000	99.062470
2115.000000	99.050027
2114.000000	99.050544
2113.000000	99.054323
2112.000000	99.054000
2111.000000	99.054512
2110.000000	99.062906
2109.000000	99.075274
2108.000000	99.080141
2107.000000	99.072272
2106.000000	99.058737
2105.000000	99.052468
2104.000000	99.061244
2103.000000	99.080688
2102.000000	99.096951
2101.000000	99.098357
2100.000000	99.085352
2099.000000	99.068677
2098.000000	99.060475
2097.000000	99.068445
2096.000000	99.092473
2095.000000	99.120555
2094.000000	99.133285
2093.000000	99.121410
2092.000000	99.097736
2091.000000	99.083813
2090.000000	99.087073
2089.000000	99.097740
2088.000000	99.105739
2087.000000	99.111847
2086.000000	99.120881
2085.000000	99.132735
2084.000000	99.143131
2083.000000	99.147904
2082.000000	99.145043
2081.000000	99.137218
2080.000000	99.131971
2079.000000	99.133949
2078.000000	99.137929
2077.000000	99.135768
2076.000000	99.128283
2075.000000	99.123020
2074.000000	99.123002
2073.000000	99.125974
2072.000000	99.131790
2071.000000	99.139502
2070.000000	99.139608
2069.000000	99.123492
2068.000000	99.102131
2067.000000	99.100993
2066.000000	99.132127
2065.000000	99.180586
2064.000000	99.221328
2063.000000	99.240257
2062.000000	99.235728
2061.000000	99.214278
2060.000000	99.191579
2059.000000	99.184365
2058.000000	99.194492
2057.000000	99.209647
2056.000000	99.221767
2055.000000	99.232942
2054.000000	99.239761
2053.000000	99.227816
2052.000000	99.191759
2051.000000	99.148631
2050.000000	99.121761
2049.000000	99.118548
2048.000000	99.131452
2047.000000	99.154251
2046.000000	99.185089
2045.000000	99.216027
2044.000000	99.231941
2043.000000	99.221818
2042.000000	99.188005
2041.000000	99.148141
2040.000000	99.126153
2039.000000	99.131850
2038.000000	99.151797
2037.000000	99.169359
2036.000000	99.190400
2035.000000	99.233715
2034.000000	99.295946
2033.000000	99.348088
2032.000000	99.372304
2031.000000	99.378024
2030.000000	99.372269
2029.000000	99.342011
2028.000000	99.281793
2027.000000	99.217956
2026.000000	99.187911
2025.000000	99.204823
2024.000000	99.249806
2023.000000	99.289706
2022.000000	99.297743
2021.000000	99.270757
2020.000000	99.236458
2019.000000	99.233226
2018.000000	99.274763
2017.000000	99.337533
2016.000000	99.385213
2015.000000	99.399110
2014.000000	99.381979
2013.000000	99.348942
2012.000000	99.320008
2011.000000	99.307169
2010.000000	99.306845
2009.000000	99.313683
2008.000000	99.335200
2007.000000	99.376147
2006.000000	99.415413
2005.000000	99.422347
2004.000000	99.394930
2003.000000	99.358898
2002.000000	99.331184
2001.000000	99.307116
2000.000000	99.280549
1999.000000	99.256771
1998.000000	99.243220
1997.000000	99.243397
1996.000000	99.260999
1995.000000	99.293309
1994.000000	99.318492
1993.000000	99.308379
1992.000000	99.265015
1991.000000	99.226105
1990.000000	99.219580
1989.000000	99.233343
1988.000000	99.238077
1987.000000	99.220239
1986.000000	99.184748
1985.000000	99.142535
1984.000000	99.106814
1983.000000	99.089595
1982.000000	99.090874
1981.000000	99.099677
1980.000000	99.112471
1979.000000	99.141174
1978.000000	99.193602
1977.000000	99.254904
1976.000000	99.301341
1975.000000	99.323831
1974.000000	99.326829
1973.000000	99.319144
1972.000000	99.314965
1971.000000	99.328268
1970.000000	99.357228
1969.000000	99.383175
1968.000000	99.390731
1967.000000	99.383038
1966.000000	99.373877
1965.000000	99.373068
1964.000000	99.382078
1963.000000	99.394556
1962.000000	99.399350
1961.000000	99.391175
1960.000000	99.377342
1959.000000	99.365793
1958.000000	99.352920
1957.000000	99.334007
1956.000000	99.316652
1955.000000	99.309197
1954.000000	99.303874
1953.000000	99.288149
1952.000000	99.269610
1951.000000	99.270552
1950.000000	99.297436
1949.000000	99.332186
1948.000000	99.354629
1947.000000	99.359075
1946.000000	99.347619
1945.000000	99.323466
1944.000000	99.296017
1943.000000	99.279160
1942.000000	99.276496
1941.000000	99.278683
1940.000000	99.280335
1939.000000	99.285473
1938.000000	99.295306
1937.000000	99.304145
1936.000000	99.309940
1935.000000	99.318141
1934.000000	99.330621
1933.000000	99.339147
1932.000000	99.335497
1931.000000	99.320381
1930.000000	99.299892
1929.000000	99.282244
1928.000000	99.276156
1927.000000	99.284735
1926.000000	99.298154
1925.000000	99.302171
1924.000000	99.296704
1923.000000	99.296880
1922.000000	99.311658
1921.000000	99.331241
1920.000000	99.339904
1919.000000	99.331007
1918.000000	99.308954
1917.000000	99.285086
1916.000000	99.269601
1915.000000	99.263738
1914.000000	99.262228
1913.000000	99.262555
1912.000000	99.269086
1911.000000	99.283664
1910.000000	99.295975
1909.000000	99.293643
1908.000000	99.279218
1907.000000	99.266524
1906.000000	99.260891
1905.000000	99.257379
1904.000000	99.255605
1903.000000	99.260606
1902.000000	99.270149
1901.000000	99.275219
1900.000000	99.274756
1899.000000	99.278433
1898.000000	99.290318
1897.000000	99.302325
1896.000000	99.308614
1895.000000	99.314470
1894.000000	99.324316
1893.000000	99.332206
1892.000000	99.331229
1891.000000	99.323276
1890.000000	99.314994
1889.000000	99.310156
1888.000000	99.310473
1887.000000	99.317778
1886.000000	99.329728
1885.000000	99.339125
1884.000000	99.342108
1883.000000	99.341531
1882.000000	99.339694
1881.000000	99.335332
1880.000000	99.329900
1879.000000	99.329277
1878.000000	99.334876
1877.000000	99.339069
1876.000000	99.335571
1875.000000	99.328189
1874.000000	99.324177
1873.000000	99.325787
1872.000000	99.332161
1871.000000	99.343216
1870.000000	99.356714
1869.000000	99.365508
1868.000000	99.363405
1867.000000	99.352216
1866.000000	99.337311
1865.000000	99.322952
1864.000000	99.314166
1863.000000	99.314661
1862.000000	99.320633
1861.000000	99.323266
1860.000000	99.320374
1859.000000	99.319108
1858.000000	99.324018
1857.000000	99.329720
1856.000000	99.329205
1855.000000	99.322989
1854.000000	99.315298
1853.000000	99.309601
1852.000000	99.307842
1851.000000	99.311347
1850.000000	99.319207
1849.000000	99.327343
1848.000000	99.333223
1847.000000	99.338638
1846.000000	99.345533
1845.000000	99.351485
1844.000000	99.352429
1843.000000	99.347752
1842.000000	99.338434
1841.000000	99.325012
1840.000000	99.310677
1839.000000	99.300513
1838.000000	99.294218
1837.000000	99.287827
1836.000000	99.284242
1835.000000	99.292256
1834.000000	99.313087
1833.000000	99.336608
1832.000000	99.351159
1831.000000	99.353946
1830.000000	99.349704
1829.000000	99.340417
1828.000000	99.326894
1827.000000	99.314839
1826.000000	99.310550
1825.000000	99.313329
1824.000000	99.316024
1823.000000	99.315162
1822.000000	99.313927
1821.000000	99.316034
1820.000000	99.322182
1819.000000	99.331295
1818.000000	99.339991
1817.000000	99.344339
1816.000000	99.345436
1815.000000	99.347875
1814.000000	99.352625
1813.000000	99.353944
1812.000000	99.347163
1811.000000	99.336293
1810.000000	99.327765
1809.000000	99.322778
1808.000000	99.320238
1807.000000	99.320626
1806.000000	99.323316
1805.000000	99.324659
1804.000000	99.323321
1803.000000	99.322045
1802.000000	99.324160
1801.000000	99.327497
1800.000000	99.327167
1799.000000	99.322997
1798.000000	99.318385
1797.000000	99.315762
1796.000000	99.316141
1795.000000	99.319369
1794.000000	99.323374
1793.000000	99.324110
1792.000000	99.321653
1791.000000	99.320943
1790.000000	99.322826
1789.000000	99.323404
1788.000000	99.321707
1787.000000	99.321540
1786.000000	99.326008
1785.000000	99.332849
1784.000000	99.338211
1783.000000	99.339928
1782.000000	99.339958
1781.000000	99.340606
1780.000000	99.342299
1779.000000	99.346223
1778.000000	99.354533
1777.000000	99.368656
1776.000000	99.386073
1775.000000	99.401676
1774.000000	99.410912
1773.000000	99.410135
1772.000000	99.399962
1771.000000	99.385219
1770.000000	99.365441
1769.000000	99.339448
1768.000000	99.316307
1767.000000	99.306116
1766.000000	99.305459
1765.000000	99.300515
1764.000000	99.283031
1763.000000	99.254246
1762.000000	99.219057
1761.000000	99.178873
1760.000000	99.133956
1759.000000	99.083015
1758.000000	99.019971
1757.000000	98.941069
1756.000000	98.853256
1755.000000	98.767569
1754.000000	98.681765
1753.000000	98.584660
1752.000000	98.472090
1751.000000	98.355252
1750.000000	98.245925
1749.000000	98.142853
1748.000000	98.049129
1747.000000	97.977649
1746.000000	97.931788
1745.000000	97.901839
1744.000000	97.885401
1743.000000	97.890869
1742.000000	97.918143
1741.000000	97.956171
1740.000000	98.005559
1739.000000	98.074300
1738.000000	98.149365
1737.000000	98.209887
1736.000000	98.261450
1735.000000	98.338057
1734.000000	98.460389
1733.000000	98.587567
1732.000000	98.683864
1731.000000	98.761222
1730.000000	98.837405
1729.000000	98.916144
1728.000000	98.992057
1727.000000	99.061145
1726.000000	99.122245
1725.000000	99.171601
1724.000000	99.211462
1723.000000	99.252981
1722.000000	99.298014
1721.000000	99.332351
1720.000000	99.343668
1719.000000	99.338502
1718.000000	99.336522
1717.000000	99.342168
1716.000000	99.342705
1715.000000	99.333080
1714.000000	99.311733
1713.000000	99.277896
1712.000000	99.238711
1711.000000	99.204704
1710.000000	99.179305
1709.000000	99.155876
1708.000000	99.122510
1707.000000	99.073321
1706.000000	99.014052
1705.000000	98.957055
1704.000000	98.909504
1703.000000	98.867612
1702.000000	98.818382
1701.000000	98.730704
1700.000000	98.600127
1699.000000	98.478351
1698.000000	98.374328
1697.000000	98.254401
1696.000000	98.119144
1695.000000	98.008247
1694.000000	97.940072
1693.000000	97.884412
1692.000000	97.815234
1691.000000	97.735593
1690.000000	97.655901
1689.000000	97.580088
1688.000000	97.506377
1687.000000	97.436911
1686.000000	97.368214
1685.000000	97.272747
1684.000000	97.143644
1683.000000	97.024786
1682.000000	96.927805
1681.000000	96.829477
1680.000000	96.728979
1679.000000	96.639853
1678.000000	96.560254
1677.000000	96.468214
1676.000000	96.345641
1675.000000	96.206232
1674.000000	96.084784
1673.000000	95.985160
1672.000000	95.884605
1671.000000	95.764118
1670.000000	95.613613
1669.000000	95.440552
1668.000000	95.274912
1667.000000	95.141256
1666.000000	95.034093
1665.000000	94.927530
1664.000000	94.800584
1663.000000	94.656910
1662.000000	94.521158
1661.000000	94.405138
1660.000000	94.302476
1659.000000	94.212670
1658.000000	94.138959
1657.000000	94.071157
1656.000000	93.992316
1655.000000	93.895598
1654.000000	93.779074
1653.000000	93.665132
1652.000000	93.601424
1651.000000	93.592435
1650.000000	93.589384
1649.000000	93.552043
1648.000000	93.475955
1647.000000	93.389561
1646.000000	93.325262
1645.000000	93.282663
1644.000000	93.249126
1643.000000	93.219131
1642.000000	93.193665
1641.000000	93.175084
1640.000000	93.159886
1639.000000	93.143378
1638.000000	93.121862
1637.000000	93.090357
1636.000000	93.046496
1635.000000	93.003302
1634.000000	92.973740
1633.000000	92.951569
1632.000000	92.928765
1631.000000	92.909165
1630.000000	92.900927
1629.000000	92.907962
1628.000000	92.932183
1627.000000	92.972221
1626.000000	93.022641
1625.000000	93.079320
1624.000000	93.146963
1623.000000	93.235051
1622.000000	93.336759
1621.000000	93.430416
1620.000000	93.503436
1619.000000	93.564311
1618.000000	93.642036
1617.000000	93.768123
1616.000000	93.932628
1615.000000	94.086654
1614.000000	94.205786
1613.000000	94.303512
1612.000000	94.403867
1611.000000	94.516878
1610.000000	94.634797
1609.000000	94.749158
1608.000000	94.860926
1607.000000	94.970623
1606.000000	95.074779
1605.000000	95.173127
1604.000000	95.267160
1603.000000	95.354258
1602.000000	95.430068
1601.000000	95.497202
1600.000000	95.562690
1599.000000	95.627030
1598.000000	95.684496
1597.000000	95.733419
1596.000000	95.778516
1595.000000	95.821215
1594.000000	95.856621
1593.000000	95.882534
1592.000000	95.902967
1591.000000	95.920472
1590.000000	95.932737
1589.000000	95.938660
1588.000000	95.940116
1587.000000	95.937254
1586.000000	95.927700
1585.000000	95.913787
1584.000000	95.898737
1583.000000	95.880431
1582.000000	95.857124
1581.000000	95.832331
1580.000000	95.805228
1579.000000	95.765838
1578.000000	95.707752
1577.000000	95.639957
1576.000000	95.584552
1575.000000	95.550194
1574.000000	95.521591
1573.000000	95.483222
1572.000000	95.431084
1571.000000	95.361121
1570.000000	95.268182
1569.000000	95.169325
1568.000000	95.087352
1567.000000	95.018359
1566.000000	94.944185
1565.000000	94.861627
1564.000000	94.781609
1563.000000	94.711765
1562.000000	94.649357
1561.000000	94.590564
1560.000000	94.497988
1559.000000	94.364044
1558.000000	94.248500
1557.000000	94.162493
1556.000000	94.080358
1555.000000	93.995626
1554.000000	93.918345
1553.000000	93.854872
1552.000000	93.797064
1551.000000	93.737860
1550.000000	93.679470
1549.000000	93.627876
1548.000000	93.585095
1547.000000	93.549847
1546.000000	93.522385
1545.000000	93.506212
1544.000000	93.500997
1543.000000	93.497548
1542.000000	93.481606
1541.000000	93.451288
1540.000000	93.433001
1539.000000	93.442487
1538.000000	93.466521
1537.000000	93.489435
1536.000000	93.502387
1535.000000	93.510383
1534.000000	93.529651
1533.000000	93.565933
1532.000000	93.603303
1531.000000	93.632239
1530.000000	93.657828
1529.000000	93.684146
1528.000000	93.716431
1527.000000	93.764022
1526.000000	93.827456
1525.000000	93.888236
1524.000000	93.928133
1523.000000	93.953892
1522.000000	93.995243
1521.000000	94.065000
1520.000000	94.136136
1519.000000	94.187973
1518.000000	94.227445
1517.000000	94.271498
1516.000000	94.324333
1515.000000	94.373990
1514.000000	94.418849
1513.000000	94.470209
1512.000000	94.538337
1511.000000	94.620468
1510.000000	94.702745
1509.000000	94.777184
1508.000000	94.858409
1507.000000	94.979510
1506.000000	95.110883
1505.000000	95.200338
1504.000000	95.261194
1503.000000	95.315284
1502.000000	95.374769
1501.000000	95.447358
1500.000000	95.526640
1499.000000	95.602338
1498.000000	95.674934
1497.000000	95.751653
1496.000000	95.833922
1495.000000	95.917277
1494.000000	95.995769
1493.000000	96.064518
1492.000000	96.126741
1491.000000	96.194210
1490.000000	96.271809
1489.000000	96.339687
1488.000000	96.378855
1487.000000	96.399123
1486.000000	96.413807
1485.000000	96.423179
1484.000000	96.423866
1483.000000	96.419099
1482.000000	96.414532
1481.000000	96.407926
1480.000000	96.393471
1479.000000	96.371556
1478.000000	96.345544
1477.000000	96.313909
1476.000000	96.275509
1475.000000	96.231726
1474.000000	96.177094
1473.000000	96.096966
1472.000000	95.992743
1471.000000	95.891232
1470.000000	95.808593
1469.000000	95.739785
1468.000000	95.679482
1467.000000	95.625235
1466.000000	95.570188
1465.000000	95.506541
1464.000000	95.437563
1463.000000	95.377693
1462.000000	95.332635
1461.000000	95.293379
1460.000000	95.246018
1459.000000	95.179891
1458.000000	95.088521
1457.000000	94.981267
1456.000000	94.893567
1455.000000	94.844037
1454.000000	94.812241
1453.000000	94.780031
1452.000000	94.751878
1451.000000	94.736126
1450.000000	94.729834
1449.000000	94.725187
1448.000000	94.723678
1447.000000	94.729299
1446.000000	94.740484
1445.000000	94.754625
1444.000000	94.772028
1443.000000	94.796268
1442.000000	94.828969
1441.000000	94.867013
1440.000000	94.904624
1439.000000	94.940181
1438.000000	94.976793
1437.000000	95.017609
1436.000000	95.061259
1435.000000	95.102745
1434.000000	95.140736
1433.000000	95.178352
1432.000000	95.218910
1431.000000	95.261169
1430.000000	95.299683
1429.000000	95.329265
1428.000000	95.349158
1427.000000	95.361039
1426.000000	95.368495
1425.000000	95.377243
1424.000000	95.389018
1423.000000	95.398337
1422.000000	95.400019
1421.000000	95.396785
1420.000000	95.393712
1419.000000	95.394037
1418.000000	95.396824
1417.000000	95.397101
1416.000000	95.393211
1415.000000	95.388120
1414.000000	95.384221
1413.000000	95.380288
1412.000000	95.373780
1411.000000	95.364400
1410.000000	95.353676
1409.000000	95.342201
1408.000000	95.330436
1407.000000	95.317852
1406.000000	95.303025
1405.000000	95.287232
1404.000000	95.274396
1403.000000	95.266796
1402.000000	95.261876
1401.000000	95.255934
1400.000000	95.250157
1399.000000	95.249560
1398.000000	95.253259
1397.000000	95.253713
1396.000000	95.248270
1395.000000	95.242074
1394.000000	95.241246
1393.000000	95.247803
1392.000000	95.260867
1391.000000	95.278144
1390.000000	95.296310
1389.000000	95.313415
1388.000000	95.331685
1387.000000	95.353848
1386.000000	95.376088
1385.000000	95.393045
1384.000000	95.406787
1383.000000	95.425027
1382.000000	95.451837
1381.000000	95.484516
1380.000000	95.520209
1379.000000	95.559566
1378.000000	95.603044
1377.000000	95.649773
1376.000000	95.701440
1375.000000	95.761062
1374.000000	95.824969
1373.000000	95.881815
1372.000000	95.926360
1371.000000	95.964012
1370.000000	96.001946
1369.000000	96.044611
1368.000000	96.093549
1367.000000	96.147558
1366.000000	96.203281
1365.000000	96.257300
1364.000000	96.308370
1363.000000	96.356745
1362.000000	96.400305
1361.000000	96.435304
1360.000000	96.461636
1359.000000	96.481709
1358.000000	96.496559
1357.000000	96.506056
1356.000000	96.510717
1355.000000	96.511512
1354.000000	96.508617
1353.000000	96.500988
1352.000000	96.488478
1351.000000	96.471418
1350.000000	96.449398
1349.000000	96.422041
1348.000000	96.389798
1347.000000	96.353576
1346.000000	96.313676
1345.000000	96.270860
1344.000000	96.227916
1343.000000	96.187961
1342.000000	96.151208
1341.000000	96.115822
1340.000000	96.082295
1339.000000	96.054175
1338.000000	96.033794
1337.000000	96.020521
1336.000000	96.014108
1335.000000	96.016177
1334.000000	96.027778
1333.000000	96.048138
1332.000000	96.076147
1331.000000	96.110607
1330.000000	96.148348
1329.000000	96.184375
1328.000000	96.215888
1327.000000	96.244075
1326.000000	96.270931
1325.000000	96.295619
1324.000000	96.314965
1323.000000	96.327087
1322.000000	96.333124
1321.000000	96.335966
1320.000000	96.338842
1319.000000	96.344745
1318.000000	96.354821
1317.000000	96.367265
1316.000000	96.379662
1315.000000	96.392405
1314.000000	96.408544
1313.000000	96.429893
1312.000000	96.454542
1311.000000	96.479040
1310.000000	96.502173
1309.000000	96.525291
1308.000000	96.550017
1307.000000	96.576396
1306.000000	96.603032
1305.000000	96.628172
1304.000000	96.650536
1303.000000	96.670172
1302.000000	96.688737
1301.000000	96.708495
1300.000000	96.730585
1299.000000	96.754318
1298.000000	96.777561
1297.000000	96.797407
1296.000000	96.810944
1295.000000	96.816202
1294.000000	96.813022
1293.000000	96.802727
1292.000000	96.787322
1291.000000	96.769095
1290.000000	96.749317
1289.000000	96.726842
1288.000000	96.699279
1287.000000	96.666979
1286.000000	96.634889
1285.000000	96.608448
1284.000000	96.588484
1283.000000	96.572165
1282.000000	96.558318
1281.000000	96.549492
1280.000000	96.547703
1279.000000	96.549986
1278.000000	96.550555
1277.000000	96.547008
1276.000000	96.542045
1275.000000	96.538453
1274.000000	96.534532
1273.000000	96.525877
1272.000000	96.510463
1271.000000	96.490259
1270.000000	96.467760
1269.000000	96.442983
1268.000000	96.414589
1267.000000	96.382392
1266.000000	96.347632
1265.000000	96.311182
1264.000000	96.272839
1263.000000	96.232409
1262.000000	96.190596
1261.000000	96.149090
1260.000000	96.109805
1259.000000	96.073241
1258.000000	96.037277
1257.000000	95.998868
1256.000000	95.957779
1255.000000	95.917336
1254.000000	95.880244
1253.000000	95.844559
1252.000000	95.805194
1251.000000	95.758947
1250.000000	95.706649
1249.000000	95.651016
1248.000000	95.594090
1247.000000	95.536891
1246.000000	95.480234
1245.000000	95.425076
1244.000000	95.372561
1243.000000	95.323905
1242.000000	95.280126
1241.000000	95.241781
1240.000000	95.209070
1239.000000	95.182273
1238.000000	95.162315
1237.000000	95.151732
1236.000000	95.153527
1235.000000	95.167951
1234.000000	95.191718
1233.000000	95.221287
1232.000000	95.256382
1231.000000	95.298588
1230.000000	95.348468
1229.000000	95.406407
1228.000000	95.473647
1227.000000	95.550142
1226.000000	95.632349
1225.000000	95.715789
1224.000000	95.799034
1223.000000	95.882883
1222.000000	95.967192
1221.000000	96.050428
1220.000000	96.130814
1219.000000	96.206030
1218.000000	96.273675
1217.000000	96.333329
1216.000000	96.386059
1215.000000	96.430511
1214.000000	96.461759
1213.000000	96.477245
1212.000000	96.481203
1211.000000	96.480143
1210.000000	96.475691
1209.000000	96.464529
1208.000000	96.444853
1207.000000	96.419119
1206.000000	96.390990
1205.000000	96.363486
1204.000000	96.340357
1203.000000	96.325783
1202.000000	96.321404
1201.000000	96.326116
1200.000000	96.338952
1199.000000	96.359602
1198.000000	96.385753
1197.000000	96.413583
1196.000000	96.442101
1195.000000	96.473586
1194.000000	96.508707
1193.000000	96.543723
1192.000000	96.574047
1191.000000	96.598762
1190.000000	96.620469
1189.000000	96.642095
1188.000000	96.664621
1187.000000	96.686405
1186.000000	96.703839
1185.000000	96.714320
1184.000000	96.718811
1183.000000	96.720346
1182.000000	96.720102
1181.000000	96.716441
1180.000000	96.708108
1179.000000	96.695767
1178.000000	96.679962
1177.000000	96.660516
1176.000000	96.638906
1175.000000	96.618720
1174.000000	96.601869
1173.000000	96.586376
1172.000000	96.569335
1171.000000	96.549885
1170.000000	96.528157
1169.000000	96.504055
1168.000000	96.479321
1167.000000	96.458276
1166.000000	96.443768
1165.000000	96.433850
1164.000000	96.425073
1163.000000	96.417932
1162.000000	96.416333
1161.000000	96.423100
1160.000000	96.438081
1159.000000	96.460207
1158.000000	96.489815
1157.000000	96.528663
1156.000000	96.578864
1155.000000	96.640415
1154.000000	96.709038
1153.000000	96.778180
1152.000000	96.844020
1151.000000	96.908218
1150.000000	96.975142
1149.000000	97.047292
1148.000000	97.123634
1147.000000	97.200662
1146.000000	97.274097
1145.000000	97.340824
1144.000000	97.400656
1143.000000	97.456007
1142.000000	97.509555
1141.000000	97.562211
1140.000000	97.613104
1139.000000	97.660716
1138.000000	97.703490
1137.000000	97.740755
1136.000000	97.773406
1135.000000	97.802820
1134.000000	97.828886
1133.000000	97.849995
1132.000000	97.865842
1131.000000	97.878340
1130.000000	97.888511
1129.000000	97.894529
1128.000000	97.894844
1127.000000	97.892179
1126.000000	97.891545
1125.000000	97.894721
1124.000000	97.899511
1123.000000	97.903810
1122.000000	97.907348
1121.000000	97.909094
1120.000000	97.906157
1119.000000	97.896780
1118.000000	97.881944
1117.000000	97.862761
1116.000000	97.838386
1115.000000	97.808067
1114.000000	97.773965
1113.000000	97.740589
1112.000000	97.712389
1111.000000	97.691942
1110.000000	97.678939
1109.000000	97.670595
1108.000000	97.664665
1107.000000	97.661856
1106.000000	97.663575
1105.000000	97.668557
1104.000000	97.674062
1103.000000	97.679474
1102.000000	97.684890
1101.000000	97.686407
1100.000000	97.677309
1099.000000	97.655646
1098.000000	97.626920
1097.000000	97.597422
1096.000000	97.568727
1095.000000	97.540089
1094.000000	97.511845
1093.000000	97.483350
1092.000000	97.451856
1091.000000	97.417623
1090.000000	97.386871
1089.000000	97.364841
1088.000000	97.347954
1087.000000	97.327809
1086.000000	97.301979
1085.000000	97.277016
1084.000000	97.260940
1083.000000	97.256673
1082.000000	97.263118
1081.000000	97.278203
1080.000000	97.299811
1079.000000	97.326337
1078.000000	97.358258
1077.000000	97.397742
1076.000000	97.444782
1075.000000	97.495168
1074.000000	97.543207
1073.000000	97.585312
1072.000000	97.620259
1071.000000	97.647958
1070.000000	97.669227
1069.000000	97.685228
1068.000000	97.696205
1067.000000	97.701952
1066.000000	97.704334
1065.000000	97.706962
1064.000000	97.711206
1063.000000	97.714784
1062.000000	97.715821
1061.000000	97.716729
1060.000000	97.721972
1059.000000	97.733113
1058.000000	97.748231
1057.000000	97.765500
1056.000000	97.784782
1055.000000	97.805193
1054.000000	97.823331
1053.000000	97.835625
1052.000000	97.841968
1051.000000	97.845698
1050.000000	97.849467
1049.000000	97.852378
1048.000000	97.853042
1047.000000	97.854686
1046.000000	97.863570
1045.000000	97.880238
1044.000000	97.895164
1043.000000	97.897119
1042.000000	97.885327
1041.000000	97.869367
1040.000000	97.856181
1039.000000	97.841616
1038.000000	97.817009
1037.000000	97.780061
1036.000000	97.736056
1035.000000	97.691529
1034.000000	97.651303
1033.000000	97.619983
1032.000000	97.601379
1031.000000	97.595333
1030.000000	97.598194
1029.000000	97.608039
1028.000000	97.626497
1027.000000	97.654403
1026.000000	97.688246
1025.000000	97.722832
1024.000000	97.756145
1023.000000	97.789743
1022.000000	97.825432
1021.000000	97.862352
1020.000000	97.896327
1019.000000	97.921857
1018.000000	97.936525
1017.000000	97.944165
1016.000000	97.952403
1015.000000	97.966735
1014.000000	97.987750
1013.000000	98.013654
1012.000000	98.043435
1011.000000	98.077081
1010.000000	98.114447
1009.000000	98.154655
1008.000000	98.195215
1007.000000	98.232166
1006.000000	98.263521
1005.000000	98.292502
1004.000000	98.324652
1003.000000	98.361176
1002.000000	98.398179
1001.000000	98.432929
1000.000000	98.467176
999.000000	98.502358
998.000000	98.535152
997.000000	98.561089
996.000000	98.579941
995.000000	98.594521
994.000000	98.606263
993.000000	98.615990
992.000000	98.627713
991.000000	98.646570
990.000000	98.671937
989.000000	98.696045
988.000000	98.711428
987.000000	98.717525
986.000000	98.718808
985.000000	98.718926
984.000000	98.718653
983.000000	98.717914
982.000000	98.717049
981.000000	98.716084
980.000000	98.714599
979.000000	98.712361
978.000000	98.708954
977.000000	98.703181
976.000000	98.694125
975.000000	98.682963
974.000000	98.672697
973.000000	98.666111
972.000000	98.664754
971.000000	98.669569
970.000000	98.680825
969.000000	98.696791
968.000000	98.713638
967.000000	98.727787
966.000000	98.738902
965.000000	98.750212
964.000000	98.765491
963.000000	98.785707
962.000000	98.808495
961.000000	98.830737
960.000000	98.850831
959.000000	98.867996
958.000000	98.880844
957.000000	98.888934
956.000000	98.895762
955.000000	98.907343
954.000000	98.926063
953.000000	98.947677
952.000000	98.966414
951.000000	98.981572
950.000000	98.996118
949.000000	99.010130
948.000000	99.019825
947.000000	99.024013
946.000000	99.027271
945.000000	99.033694
944.000000	99.040562
943.000000	99.041707
942.000000	99.036050
941.000000	99.028736
940.000000	99.023748
939.000000	99.019421
938.000000	99.012687
937.000000	99.005201
936.000000	99.002662
935.000000	99.008897
934.000000	99.022487
933.000000	99.039209
932.000000	99.056335
931.000000	99.073583
930.000000	99.090619
929.000000	99.104883
928.000000	99.112710
927.000000	99.112913
926.000000	99.108887
925.000000	99.106523
924.000000	99.109904
923.000000	99.118831
922.000000	99.130028
921.000000	99.140340
920.000000	99.148867
919.000000	99.156661
918.000000	99.165099
917.000000	99.175089
916.000000	99.187740
915.000000	99.204682
914.000000	99.226202
913.000000	99.249060
912.000000	99.267931
911.000000	99.280113
910.000000	99.288085
909.000000	99.296388
908.000000	99.306589
907.000000	99.316715
906.000000	99.324811
905.000000	99.330857
904.000000	99.334890
903.000000	99.335230
902.000000	99.330524
901.000000	99.323355
900.000000	99.320330
899.000000	99.327334
898.000000	99.344207
897.000000	99.364441
896.000000	99.380412
895.000000	99.388918
894.000000	99.391840
893.000000	99.392818
892.000000	99.394773
891.000000	99.399374
890.000000	99.405212
889.000000	99.405327
888.000000	99.389653
887.000000	99.352724
886.000000	99.298694
885.000000	99.236651
884.000000	99.172273
883.000000	99.106707
882.000000	99.041293
881.000000	98.978939
880.000000	98.919630
879.000000	98.858362
878.000000	98.790932
877.000000	98.721764
876.000000	98.664042
875.000000	98.630740
874.000000	98.625662
873.000000	98.643237
872.000000	98.676356
871.000000	98.722463
870.000000	98.781287
869.000000	98.848343
868.000000	98.913103
867.000000	98.965189
866.000000	99.002357
865.000000	99.031365
864.000000	99.060283
863.000000	99.090518
862.000000	99.116501
861.000000	99.132708
860.000000	99.140059
859.000000	99.145020
858.000000	99.153130
857.000000	99.163879
856.000000	99.172247
855.000000	99.174877
854.000000	99.173844
853.000000	99.174475
852.000000	99.180220
851.000000	99.190149
850.000000	99.200828
849.000000	99.209632
848.000000	99.216425
847.000000	99.223089
846.000000	99.232018
845.000000	99.244851
844.000000	99.262139
843.000000	99.283532
842.000000	99.307676
841.000000	99.331771
840.000000	99.351998
839.000000	99.365360
838.000000	99.371369
837.000000	99.371703
836.000000	99.368924
835.000000	99.366444
834.000000	99.368412
833.000000	99.376669
832.000000	99.387142
831.000000	99.392229
830.000000	99.389222
829.000000	99.384699
828.000000	99.387343
827.000000	99.396760
826.000000	99.403162
825.000000	99.398809
824.000000	99.386172
823.000000	99.373248
822.000000	99.364817
821.000000	99.361417
820.000000	99.362906
819.000000	99.367956
818.000000	99.371845
817.000000	99.369760
816.000000	99.362491
815.000000	99.355539
814.000000	99.352766
813.000000	99.354471
812.000000	99.361366
811.000000	99.374779
810.000000	99.390893
809.000000	99.399982
808.000000	99.396040
807.000000	99.384685
806.000000	99.377365
805.000000	99.378911
804.000000	99.384298
803.000000	99.387248
802.000000	99.387907
801.000000	99.390409
800.000000	99.394878
799.000000	99.394074
798.000000	99.379548
797.000000	99.351930
796.000000	99.323847
795.000000	99.309568
794.000000	99.310923
793.000000	99.316446
792.000000	99.315486
791.000000	99.309526
790.000000	99.307234
789.000000	99.311799
788.000000	99.317419
787.000000	99.316848
786.000000	99.308670
785.000000	99.297731
784.000000	99.291374
783.000000	99.294826
782.000000	99.307101
781.000000	99.320934
780.000000	99.328694
779.000000	99.328578
778.000000	99.324094
777.000000	99.318729
776.000000	99.313243
775.000000	99.307387
774.000000	99.301763
773.000000	99.297635
772.000000	99.296255
771.000000	99.298041
770.000000	99.301409
769.000000	99.303869
768.000000	99.305517
767.000000	99.309171
766.000000	99.314710
765.000000	99.315728
764.000000	99.305879
763.000000	99.287665
762.000000	99.270874
761.000000	99.262046
760.000000	99.258753
759.000000	99.254497
758.000000	99.245580
757.000000	99.231907
756.000000	99.214596
755.000000	99.195953
754.000000	99.180832
753.000000	99.174948
752.000000	99.179797
751.000000	99.188953
750.000000	99.190889
749.000000	99.178479
748.000000	99.156660
747.000000	99.138225
746.000000	99.130559
745.000000	99.128754
744.000000	99.123755
743.000000	99.113862
742.000000	99.104303
741.000000	99.098032
740.000000	99.092062
739.000000	99.082427
738.000000	99.068236
737.000000	99.050532
736.000000	99.031098
735.000000	99.013042
734.000000	98.998983
733.000000	98.987790
732.000000	98.976092
731.000000	98.963173
730.000000	98.950828
729.000000	98.937976
728.000000	98.920565
727.000000	98.898632
726.000000	98.878890
725.000000	98.867999
724.000000	98.865513
723.000000	98.864566
722.000000	98.857079
721.000000	98.838196
720.000000	98.810287
719.000000	98.783447
718.000000	98.765777
717.000000	98.750212
716.000000	98.716459
715.000000	98.651882
714.000000	98.569090
713.000000	98.498472
712.000000	98.463770
711.000000	98.467165
710.000000	98.494446
709.000000	98.526356
708.000000	98.545166
707.000000	98.540858
706.000000	98.517862
705.000000	98.492885
704.000000	98.480307
703.000000	98.479333
702.000000	98.478709
701.000000	98.471254
700.000000	98.458337
699.000000	98.443522
698.000000	98.429039
697.000000	98.419006
696.000000	98.417941
695.000000	98.422212
694.000000	98.421221
693.000000	98.411992
692.000000	98.406046
691.000000	98.415105
690.000000	98.434377
689.000000	98.448055
688.000000	98.448977
687.000000	98.443445
686.000000	98.437228
685.000000	98.427446
684.000000	98.410309
683.000000	98.388698
682.000000	98.368185
681.000000	98.351304
680.000000	98.338248
679.000000	98.329014
678.000000	98.321955
677.000000	98.314777
676.000000	98.309204
675.000000	98.306938
674.000000	98.303650
673.000000	98.290678
672.000000	98.264888
671.000000	98.231690
670.000000	98.202170
669.000000	98.184221
668.000000	98.166940
667.000000	98.162536
666.000000	98.189164
665.000000	98.218221
664.000000	98.228829
663.000000	98.221881
662.000000	98.202785
661.000000	98.178163
660.000000	98.156878
659.000000	98.148419
658.000000	98.151725
657.000000	98.156542
656.000000	98.158434
655.000000	98.161475
654.000000	98.165620
653.000000	98.163294
652.000000	98.151516
651.000000	98.137494
650.000000	98.128694
649.000000	98.125812
648.000000	98.129242
647.000000	98.141125
646.000000	98.155332
645.000000	98.157733
644.000000	98.142819
643.000000	98.120898
642.000000	98.103843
641.000000	98.091492
640.000000	98.079182
639.000000	98.070328
638.000000	98.070532
637.000000	98.075315
636.000000	98.073783
635.000000	98.062611
634.000000	98.050597
633.000000	98.049472
632.000000	98.062399
631.000000	98.078751
630.000000	98.079692
629.000000	98.055383
628.000000	98.018140
627.000000	97.992415
626.000000	97.989065
625.000000	97.996889
624.000000	98.001596
623.000000	98.001626
622.000000	98.001698
621.000000	98.002918
620.000000	98.006597
619.000000	98.017019
618.000000	98.030605
617.000000	98.030804
616.000000	98.005527
615.000000	97.964941
614.000000	97.932546
613.000000	97.923220
612.000000	97.936216
611.000000	97.962933
610.000000	97.992302
609.000000	98.012307
608.000000	98.015441
607.000000	98.003486
606.000000	97.984113
605.000000	97.965383
604.000000	97.954778
603.000000	97.957762
602.000000	97.972869
601.000000	97.991940
600.000000	98.007878
599.000000	98.017829
598.000000	98.019582
597.000000	98.013533
596.000000	98.009593
595.000000	98.021903
594.000000	98.051071
593.000000	98.079228
592.000000	98.088688
591.000000	98.078761
590.000000	98.060325
589.000000	98.043500
588.000000	98.036164
587.000000	98.043744
586.000000	98.061254
585.000000	98.073475
584.000000	98.071788
583.000000	98.063194
582.000000	98.055850
581.000000	98.046772
580.000000	98.032482
579.000000	98.020183
578.000000	98.017097
577.000000	98.017653
576.000000	98.012469
575.000000	98.003430
574.000000	97.997996
573.000000	97.994660
572.000000	97.987215
571.000000	97.977169
570.000000	97.970659
569.000000	97.966726
568.000000	97.958827
567.000000	97.945468
566.000000	97.929536
565.000000	97.910315
564.000000	97.885208
563.000000	97.857727
562.000000	97.837053
561.000000	97.830751
560.000000	97.839936
559.000000	97.855791
558.000000	97.859340
557.000000	97.835346
556.000000	97.792212
555.000000	97.759277
554.000000	97.758410
553.000000	97.786962
552.000000	97.831375
551.000000	97.880710
550.000000	97.921625
549.000000	97.941227
548.000000	97.944619
547.000000	97.952325
546.000000	97.971094
545.000000	97.983342
544.000000	97.977305
543.000000	97.967231
542.000000	97.968455
541.000000	97.971410
540.000000	97.959223
539.000000	97.938356
538.000000	97.929562
537.000000	97.935345
536.000000	97.936681
535.000000	97.918203
534.000000	97.881944
533.000000	97.839220
532.000000	97.799575
531.000000	97.765737
530.000000	97.732834
529.000000	97.699576
528.000000	97.683065
527.000000	97.706615
526.000000	97.760730
525.000000	97.797996
524.000000	97.791133
523.000000	97.766170
522.000000	97.760829
521.000000	97.782542
520.000000	97.819484
519.000000	97.866371
518.000000	97.916935
517.000000	97.950006
516.000000	97.953908
515.000000	97.949329
514.000000	97.961739
513.000000	97.988633
512.000000	98.013484
511.000000	98.033668
510.000000	98.055434
509.000000	98.077020
508.000000	98.098021
507.000000	98.128969
506.000000	98.166378
505.000000	98.180575
504.000000	98.156601
503.000000	98.129146
502.000000	98.145885
501.000000	98.200163
500.000000	98.244743
499.000000	98.264817
498.000000	98.286378
497.000000	98.322686
496.000000	98.350733
495.000000	98.343591
494.000000	98.301285
493.000000	98.245825
492.000000	98.208698
491.000000	98.222412
490.000000	98.298118
489.000000	98.405972
488.000000	98.494004
487.000000	98.528917
486.000000	98.513504
485.000000	98.476005
484.000000	98.455294
483.000000	98.484999
482.000000	98.566839
481.000000	98.660347
480.000000	98.712272
479.000000	98.696955
478.000000	98.631255
477.000000	98.560368
476.000000	98.529367
475.000000	98.553640
474.000000	98.603895
473.000000	98.631264
472.000000	98.628850
471.000000	98.641316
470.000000	98.687937
469.000000	98.729896
468.000000	98.735660
467.000000	98.727288
466.000000	98.730724
465.000000	98.718996
464.000000	98.658883
463.000000	98.591718
462.000000	98.598726
461.000000	98.699843
460.000000	98.827839
459.000000	98.931471
458.000000	99.038550
457.000000	99.141737
456.000000	99.224242
455.000000	99.296459
454.000000	99.387227
453.000000	99.475895
452.000000	99.494414
451.000000	99.420971
450.000000	99.316515
