PE UV       SUBTECH     SPECTRUM    ASCII       PEDS        4.00        
   -1
GFRAG1_1.Sample.asc
23/09/07
15:23:16.00
23/09/07
15:23:16.00
Administrator

250.000000
1
Lambda 750
750N8071901
PerkinElmer UV WinLab 6.0.4.0738 / 1.61.00 Lambda 900

0
0
3350/servo 860.8/2
0
0
UV/VIS
1
1
1
CommonBeamDepol,150mm sphere / downward view
0
0
0
0
Program
Program
3350/servo 860.8/2
3350/0.2 860.8/0.2
3350/0.2 860.8/0.2
0
1
 
 
 
0
 
860.8
319.2
860.8
Front
100
on
 
 
0
0
0
 
0
 
 
 
0
 
 
0
0
0
0
0
 
 
 
 
0
0


0
0
#HDR
-1
-1
#GR
nm
%R
1.0
0.0
2500.000000
-10.000000
226
8
69.590214
9.764248
#DATA
2500.000000	27.640281
2490.000000	27.068282
2480.000000	30.640747
2470.000000	31.518844
2460.000000	30.527603
2450.000000	31.149858
2440.000000	33.989641
2430.000000	30.749283
2420.000000	33.429051
2410.000000	33.089351
2400.000000	32.756577
2390.000000	33.207031
2380.000000	34.124493
2370.000000	33.168822
2360.000000	34.107197
2350.000000	34.943228
2340.000000	33.709263
2330.000000	34.217063
2320.000000	33.658887
2310.000000	32.411602
2300.000000	31.848219
2290.000000	33.025239
2280.000000	33.702096
2270.000000	34.454904
2260.000000	35.946644
2250.000000	37.532576
2240.000000	37.376417
2230.000000	37.371819
2220.000000	36.983081
2210.000000	36.239549
2200.000000	35.880877
2190.000000	36.415422
2180.000000	37.283158
2170.000000	38.022458
2160.000000	38.881949
2150.000000	39.830181
2140.000000	40.272202
2130.000000	40.265427
2120.000000	40.571122
2110.000000	40.256533
2100.000000	39.623232
2090.000000	38.804405
2080.000000	37.735970
2070.000000	36.165021
2060.000000	35.746707
2050.000000	35.870608
2040.000000	36.615220
2030.000000	36.209930
2020.000000	35.324558
2010.000000	34.422145
2000.000000	32.917015
1990.000000	31.669631
1980.000000	30.695974
1970.000000	29.875268
1960.000000	29.453798
1950.000000	30.352457
1940.000000	31.596746
1930.000000	34.386978
1920.000000	39.074338
1910.000000	43.823294
1900.000000	47.815828
1890.000000	51.304675
1880.000000	53.063244
1870.000000	53.341076
1860.000000	53.885257
1850.000000	53.807540
1840.000000	53.487172
1830.000000	53.333056
1820.000000	52.736973
1810.000000	52.583741
1800.000000	52.376874
1790.000000	52.214620
1780.000000	51.828824
1770.000000	51.717769
1760.000000	51.361351
1750.000000	50.970888
1740.000000	51.374269
1730.000000	52.283881
1720.000000	52.827723
1710.000000	53.162096
1700.000000	53.639680
1690.000000	54.829436
1680.000000	55.871946
1670.000000	56.343525
1660.000000	56.399366
1650.000000	56.150488
1640.000000	55.754187
1630.000000	55.359226
1620.000000	54.765068
1610.000000	54.189967
1600.000000	53.773532
1590.000000	53.337960
1580.000000	52.901396
1570.000000	52.629826
1560.000000	52.212143
1550.000000	51.538176
1540.000000	50.822146
1530.000000	50.464885
1520.000000	50.214471
1510.000000	49.922471
1500.000000	49.922647
1490.000000	50.011481
1480.000000	50.208737
1470.000000	50.513235
1460.000000	51.095421
1450.000000	51.964755
1440.000000	53.206881
1430.000000	54.802753
1420.000000	56.935182
1410.000000	59.105322
1400.000000	60.738701
1390.000000	61.809788
1380.000000	62.357196
1370.000000	63.007413
1360.000000	63.606708
1350.000000	64.085800
1340.000000	64.432830
1330.000000	64.859479
1320.000000	65.267255
1310.000000	65.471293
1300.000000	65.423008
1290.000000	65.456843
1280.000000	65.446493
1270.000000	65.381252
1260.000000	65.356844
1250.000000	65.264664
1240.000000	65.169035
1230.000000	65.003024
1220.000000	64.656017
1210.000000	64.393066
1200.000000	64.421483
1190.000000	64.763373
1180.000000	65.305937
1170.000000	66.010615
1160.000000	66.531720
1150.000000	67.065388
1140.000000	67.426056
1130.000000	67.579197
1120.000000	67.696196
1110.000000	67.731922
1100.000000	67.767228
1090.000000	67.680143
1080.000000	67.733929
1070.000000	67.617122
1060.000000	67.674674
1050.000000	67.697887
1040.000000	67.677414
1030.000000	67.593575
1020.000000	67.629638
1010.000000	67.845794
1000.000000	68.019911
990.000000	68.093421
980.000000	68.238772
970.000000	68.409837
960.000000	68.641820
950.000000	68.660702
940.000000	68.722690
930.000000	68.708719
920.000000	68.820174
910.000000	68.920813
900.000000	69.250380
890.000000	69.164001
880.000000	69.590214
870.000000	69.185622
860.000000	69.309883
850.000000	68.839721
840.000000	68.945878
830.000000	68.919027
820.000000	68.892348
810.000000	69.019188
800.000000	68.947909
790.000000	68.772664
780.000000	68.937413
770.000000	68.735142
760.000000	68.551896
750.000000	68.496254
740.000000	68.394056
730.000000	68.322116
720.000000	68.197320
710.000000	67.928569
700.000000	67.668907
690.000000	67.510715
680.000000	67.124780
670.000000	66.895290
660.000000	66.501169
650.000000	66.297939
640.000000	65.942598
630.000000	65.591490
620.000000	65.071755
610.000000	64.730930
600.000000	64.305366
590.000000	63.895133
580.000000	63.397163
570.000000	62.942673
560.000000	62.502443
550.000000	61.934959
540.000000	61.398765
530.000000	60.872991
520.000000	60.304562
510.000000	59.665544
500.000000	59.081466
490.000000	58.267469
480.000000	57.243792
470.000000	56.431581
460.000000	55.318804
450.000000	53.895329
440.000000	52.264482
430.000000	50.054000
420.000000	47.914229
410.000000	45.340326
400.000000	42.692602
390.000000	39.836676
380.000000	36.840100
370.000000	33.636253
360.000000	30.185285
350.000000	27.290251
340.000000	24.713789
330.000000	22.377082
320.000000	20.702886
310.000000	18.777752
300.000000	17.079915
290.000000	13.337662
280.000000	10.614403
270.000000	9.919297
260.000000	9.764248
250.000000	9.883739
