PE UV       SUBTECH     SPECTRUM    ASCII       PEDS        4.00        
   -1
GGRAG1_2.Sample.asc
23/09/07
15:32:21.00
23/09/07
15:32:21.00
Administrator

250.000000
1
Lambda 750
750N8071901
PerkinElmer UV WinLab 6.0.4.0738 / 1.61.00 Lambda 900

0
0
3350/servo 860.8/2
0
0
UV/VIS
1
1
1
CommonBeamDepol,150mm sphere / downward view
0
0
0
0
Program
Program
3350/servo 860.8/2
3350/0.2 860.8/0.2
3350/0.2 860.8/0.2
0
1
 
 
 
0
 
860.8
319.2
860.8
Front
100
on
 
 
0
0
0
 
0
 
 
 
0
 
 
0
0
0
0
0
 
 
 
 
0
0


0
0
#HDR
-1
-1
#GR
nm
%R
1.0
0.0
2500.000000
-10.000000
226
8
73.633384
0.023403
#DATA
2500.000000	4.412916
2490.000000	0.160308
2480.000000	6.448880
2470.000000	4.252481
2460.000000	0.023403
2450.000000	3.125564
2440.000000	4.804837
2430.000000	3.397792
2420.000000	2.989229
2410.000000	4.414911
2400.000000	4.186697
2390.000000	3.224682
2380.000000	5.686458
2370.000000	4.154021
2360.000000	6.410010
2350.000000	6.200241
2340.000000	4.237786
2330.000000	4.665896
2320.000000	4.749797
2310.000000	5.012960
2300.000000	4.309821
2290.000000	5.033131
2280.000000	5.976808
2270.000000	5.981958
2260.000000	6.929863
2250.000000	8.279132
2240.000000	8.592018
2230.000000	7.848435
2220.000000	8.301530
2210.000000	6.756693
2200.000000	7.157286
2190.000000	7.461781
2180.000000	7.582669
2170.000000	8.556967
2160.000000	9.449574
2150.000000	10.041090
2140.000000	10.357410
2130.000000	10.454197
2120.000000	10.823476
2110.000000	10.413140
2100.000000	9.998570
2090.000000	9.269336
2080.000000	8.569221
2070.000000	7.409710
2060.000000	7.394303
2050.000000	7.618730
2040.000000	8.420184
2030.000000	8.425029
2020.000000	7.768444
2010.000000	7.567198
2000.000000	6.683746
1990.000000	6.413480
1980.000000	5.876654
1970.000000	5.652785
1960.000000	5.815071
1950.000000	6.068408
1940.000000	6.586559
1930.000000	8.302052
1920.000000	11.598752
1910.000000	16.433613
1900.000000	22.363660
1890.000000	27.573774
1880.000000	31.239067
1870.000000	32.605111
1860.000000	32.733384
1850.000000	32.249952
1840.000000	31.800493
1830.000000	31.187932
1820.000000	30.688718
1810.000000	30.269456
1800.000000	29.710493
1790.000000	28.949052
1780.000000	28.263085
1770.000000	27.521488
1760.000000	26.787566
1750.000000	26.188416
1740.000000	26.783626
1730.000000	28.242771
1720.000000	29.496923
1710.000000	30.359997
1700.000000	32.280588
1690.000000	35.289756
1680.000000	37.766064
1670.000000	38.955461
1660.000000	39.053128
1650.000000	38.467926
1640.000000	37.634480
1630.000000	36.524714
1620.000000	35.326272
1610.000000	34.072093
1600.000000	33.085027
1590.000000	32.170814
1580.000000	31.296939
1570.000000	30.762259
1560.000000	29.840223
1550.000000	28.574077
1540.000000	27.429144
1530.000000	26.760897
1520.000000	26.298372
1510.000000	26.043582
1500.000000	26.049882
1490.000000	26.174331
1480.000000	26.412722
1470.000000	27.021626
1460.000000	28.001863
1450.000000	29.660901
1440.000000	32.099505
1430.000000	35.687717
1420.000000	40.496890
1410.000000	45.729694
1400.000000	50.263318
1390.000000	53.512922
1380.000000	55.449236
1370.000000	57.481504
1360.000000	59.539078
1350.000000	61.356629
1340.000000	62.538610
1330.000000	63.756029
1320.000000	64.723075
1310.000000	65.334484
1300.000000	65.328449
1290.000000	65.374698
1280.000000	65.370747
1270.000000	65.398646
1260.000000	65.131474
1250.000000	64.458641
1240.000000	63.629095
1230.000000	62.630905
1220.000000	61.576189
1210.000000	60.829393
1200.000000	60.898684
1190.000000	62.031743
1180.000000	64.068728
1170.000000	66.404054
1160.000000	68.379896
1150.000000	70.256594
1140.000000	71.385420
1130.000000	71.868002
1120.000000	72.086543
1110.000000	72.288647
1100.000000	72.288149
1090.000000	72.060069
1080.000000	71.914085
1070.000000	71.637706
1060.000000	71.467376
1050.000000	71.252914
1040.000000	71.073151
1030.000000	70.901267
1020.000000	71.032550
1010.000000	71.355832
1000.000000	71.532752
990.000000	71.748303
980.000000	72.020593
970.000000	72.436720
960.000000	72.762593
950.000000	72.904167
940.000000	72.809341
930.000000	72.719966
920.000000	72.872182
910.000000	72.934268
900.000000	73.216376
890.000000	72.986641
880.000000	73.633384
870.000000	73.237134
860.000000	73.169730
850.000000	72.543676
840.000000	72.349054
830.000000	72.151506
820.000000	72.101231
810.000000	71.851641
800.000000	71.671473
790.000000	70.824315
780.000000	70.927822
770.000000	69.901945
760.000000	69.253460
750.000000	68.638092
740.000000	67.819796
730.000000	67.303797
720.000000	66.209484
710.000000	65.340797
700.000000	64.198955
690.000000	63.031807
680.000000	61.758623
670.000000	60.374467
660.000000	59.074938
650.000000	57.784339
640.000000	56.394735
630.000000	54.903072
620.000000	53.503053
610.000000	52.191172
600.000000	50.784624
590.000000	49.526040
580.000000	48.294289
570.000000	46.916754
560.000000	45.789094
550.000000	44.615651
540.000000	43.441715
530.000000	42.373709
520.000000	41.427510
510.000000	40.504272
500.000000	39.680846
490.000000	38.462040
480.000000	37.276545
470.000000	36.751858
460.000000	35.889436
450.000000	34.954767
440.000000	34.099814
430.000000	33.195746
420.000000	32.675262
410.000000	32.099906
400.000000	31.744267
390.000000	31.551939
380.000000	31.291705
370.000000	30.797612
360.000000	30.559834
350.000000	30.167167
340.000000	29.345276
330.000000	28.263805
320.000000	27.124563
310.000000	26.382453
300.000000	19.601237
290.000000	16.346331
280.000000	12.945103
270.000000	11.054924
260.000000	10.447717
250.000000	10.579867
