PE UV       SUBTECH     SPECTRUM    ASCII       PEDS        4.00        
   -1
GFRAG10_1.Sample.asc
23/09/07
14:53:39.00
23/09/07
14:53:39.00
Administrator

250.000000
1
Lambda 750
750N8071901
PerkinElmer UV WinLab 6.0.4.0738 / 1.61.00 Lambda 900

0
0
3350/servo 860.8/2
0
0
UV/VIS
1
1
1
CommonBeamDepol,150mm sphere / downward view
0
0
0
0
Program
Program
3350/servo 860.8/2
3350/0.2 860.8/0.2
3350/0.2 860.8/0.2
0
1
 
 
 
0
 
860.8
319.2
860.8
Front
100
on
 
 
0
0
0
 
0
 
 
 
0
 
 
0
0
0
0
0
 
 
 
 
0
0


0
0
#HDR
-1
-1
#GR
nm
%R
1.0
0.0
2500.000000
-10.000000
226
8
74.172577
13.997193
#DATA
2500.000000	33.277700
2490.000000	32.774554
2480.000000	34.144362
2470.000000	36.043522
2460.000000	35.279561
2450.000000	34.665874
2440.000000	38.128081
2430.000000	36.907982
2420.000000	38.315970
2410.000000	38.148819
2400.000000	38.216705
2390.000000	38.145005
2380.000000	39.487544
2370.000000	38.369266
2360.000000	39.168367
2350.000000	40.332445
2340.000000	38.947216
2330.000000	37.731592
2320.000000	38.750404
2310.000000	37.600153
2300.000000	37.525790
2290.000000	37.660116
2280.000000	38.753761
2270.000000	39.504702
2260.000000	41.002893
2250.000000	42.368940
2240.000000	42.962814
2230.000000	41.929286
2220.000000	42.069585
2210.000000	41.865152
2200.000000	41.301999
2190.000000	41.025050
2180.000000	42.585832
2170.000000	43.795136
2160.000000	44.119365
2150.000000	45.179495
2140.000000	45.386674
2130.000000	46.128125
2120.000000	45.922371
2110.000000	45.827080
2100.000000	45.176624
2090.000000	44.610267
2080.000000	43.196246
2070.000000	41.552802
2060.000000	41.003961
2050.000000	41.077855
2040.000000	41.828943
2030.000000	41.492894
2020.000000	40.633530
2010.000000	39.620689
2000.000000	38.178450
1990.000000	37.080865
1980.000000	35.909677
1970.000000	35.169506
1960.000000	34.665850
1950.000000	35.534390
1940.000000	37.150645
1930.000000	40.417734
1920.000000	44.144911
1910.000000	48.841760
1900.000000	53.210555
1890.000000	56.497077
1880.000000	58.405241
1870.000000	59.154850
1860.000000	59.303365
1850.000000	59.129063
1840.000000	58.919054
1830.000000	58.734306
1820.000000	58.371001
1810.000000	58.126192
1800.000000	58.070050
1790.000000	57.739847
1780.000000	57.320465
1770.000000	57.188770
1760.000000	56.807248
1750.000000	56.562958
1740.000000	56.739889
1730.000000	57.714152
1720.000000	58.242663
1710.000000	58.561436
1700.000000	59.221587
1690.000000	60.451728
1680.000000	61.441325
1670.000000	61.883936
1660.000000	61.917431
1650.000000	61.710399
1640.000000	61.304605
1630.000000	60.870203
1620.000000	60.279721
1610.000000	59.779206
1600.000000	59.377231
1590.000000	58.893380
1580.000000	58.432604
1570.000000	58.204012
1560.000000	57.791132
1550.000000	57.070098
1540.000000	56.381195
1530.000000	56.026653
1520.000000	55.788262
1510.000000	55.587703
1500.000000	55.507191
1490.000000	55.601126
1480.000000	55.780662
1470.000000	56.085471
1460.000000	56.653469
1450.000000	57.545409
1440.000000	58.772994
1430.000000	60.444796
1420.000000	62.462397
1410.000000	64.541187
1400.000000	66.131200
1390.000000	67.102240
1380.000000	67.650469
1370.000000	68.087532
1360.000000	68.659048
1350.000000	69.116209
1340.000000	69.403109
1330.000000	69.822622
1320.000000	70.202366
1310.000000	70.432474
1300.000000	70.442174
1290.000000	70.280340
1280.000000	70.331301
1270.000000	70.353638
1260.000000	70.362140
1250.000000	70.271139
1240.000000	70.203824
1230.000000	70.019150
1220.000000	69.752564
1210.000000	69.592270
1200.000000	69.581735
1190.000000	69.761807
1180.000000	70.376696
1170.000000	70.989005
1160.000000	71.385989
1150.000000	71.756808
1140.000000	72.025479
1130.000000	72.144307
1120.000000	72.266842
1110.000000	72.294823
1100.000000	72.446436
1090.000000	72.371226
1080.000000	72.320733
1070.000000	72.318784
1060.000000	72.367863
1050.000000	72.318598
1040.000000	72.280398
1030.000000	72.232828
1020.000000	72.277564
1010.000000	72.574090
1000.000000	72.666723
990.000000	72.749005
980.000000	72.888406
970.000000	73.026065
960.000000	73.210121
950.000000	73.289791
940.000000	73.279937
930.000000	73.356101
920.000000	73.511318
910.000000	73.441406
900.000000	73.664478
890.000000	73.643428
880.000000	74.172577
870.000000	74.075769
860.000000	73.883711
850.000000	72.668762
840.000000	73.611533
830.000000	73.985863
820.000000	73.478263
810.000000	73.885125
800.000000	73.927315
790.000000	73.572543
780.000000	74.164110
770.000000	73.892630
760.000000	73.747628
750.000000	73.627754
740.000000	73.681487
730.000000	73.954795
720.000000	73.823160
710.000000	73.592635
700.000000	73.553023
690.000000	73.493120
680.000000	73.290740
670.000000	73.209878
660.000000	73.247677
650.000000	73.016697
640.000000	72.952836
630.000000	72.815810
620.000000	72.502084
610.000000	72.233506
600.000000	72.075729
590.000000	71.831062
580.000000	71.536849
570.000000	71.239428
560.000000	70.883150
550.000000	70.549334
540.000000	70.128473
530.000000	69.681026
520.000000	69.337473
510.000000	68.784295
500.000000	68.302977
490.000000	67.667912
480.000000	66.794710
470.000000	66.192323
460.000000	65.216252
450.000000	64.107862
440.000000	62.798204
430.000000	61.032820
420.000000	59.423739
410.000000	57.147350
400.000000	54.747488
390.000000	52.189526
380.000000	49.547633
370.000000	46.630568
360.000000	43.248498
350.000000	39.878232
340.000000	36.809803
330.000000	33.996052
320.000000	31.256360
310.000000	28.128852
300.000000	26.180546
290.000000	21.598067
280.000000	17.338790
270.000000	15.596105
260.000000	14.857441
250.000000	13.997193
