PE UV       SUBTECH     SPECTRUM    ASCII       PEDS        4.00        
   -1
Ams159332.Sample.asc
18/03/23
12:55:21.00
18/03/23
12:55:21.00
Administrator

200.000000
1
Lambda 750
750N8071901
PerkinElmer UV WinLab 6.0.4.0738 / 1.61.00 Lambda 900

0
0
3350/servo 860.8/2
0
0
UV/VIS
1
1
1
CommonBeamDepol,150mm sphere / downward view
0
0
0
0
Program
Program
3350/servo 860.8/2
3350/0.2 860.8/0.2
3350/0.2 860.8/0.2
0
1
 
 
 
0
 
860.8
319.2
860.8
Front
100
on
 
 
0
0
0
 
0
 
 
 
0
 
 
0
0
0
0
0
 
 
 
 
0
0


0
0
#HDR
-1
-1
#GR
nm
A
1.0
0.0
2350.000000
-1.000000
2151
8
1.142616
0.133781
#DATA
2350.000000	0.365631
2349.000000	0.367074
2348.000000	0.370628
2347.000000	0.363063
2346.000000	0.367144
2345.000000	0.365055
2344.000000	0.370693
2343.000000	0.368270
2342.000000	0.367934
2341.000000	0.369683
2340.000000	0.365996
2339.000000	0.361171
2338.000000	0.361884
2337.000000	0.361703
2336.000000	0.360363
2335.000000	0.357071
2334.000000	0.353763
2333.000000	0.357504
2332.000000	0.357449
2331.000000	0.358920
2330.000000	0.357748
2329.000000	0.358358
2328.000000	0.361575
2327.000000	0.362126
2326.000000	0.358017
2325.000000	0.361425
2324.000000	0.363093
2323.000000	0.362608
2322.000000	0.363248
2321.000000	0.367436
2320.000000	0.362725
2319.000000	0.363874
2318.000000	0.367390
2317.000000	0.365444
2316.000000	0.365818
2315.000000	0.368771
2314.000000	0.368762
2313.000000	0.371946
2312.000000	0.371370
2311.000000	0.368678
2310.000000	0.369896
2309.000000	0.371626
2308.000000	0.374044
2307.000000	0.374754
2306.000000	0.376867
2305.000000	0.373302
2304.000000	0.375957
2303.000000	0.379112
2302.000000	0.377104
2301.000000	0.378963
2300.000000	0.380640
2299.000000	0.382756
2298.000000	0.384188
2297.000000	0.384548
2296.000000	0.386308
2295.000000	0.389489
2294.000000	0.389897
2293.000000	0.389796
2292.000000	0.391441
2291.000000	0.391300
2290.000000	0.389311
2289.000000	0.391988
2288.000000	0.392414
2287.000000	0.390934
2286.000000	0.389836
2285.000000	0.393945
2284.000000	0.396071
2283.000000	0.399242
2282.000000	0.399228
2281.000000	0.396790
2280.000000	0.397150
2279.000000	0.396925
2278.000000	0.396580
2277.000000	0.396104
2276.000000	0.393723
2275.000000	0.393601
2274.000000	0.395000
2273.000000	0.393445
2272.000000	0.391909
2271.000000	0.391115
2270.000000	0.390205
2269.000000	0.389059
2268.000000	0.390750
2267.000000	0.389449
2266.000000	0.387676
2265.000000	0.387566
2264.000000	0.384392
2263.000000	0.383200
2262.000000	0.382084
2261.000000	0.378536
2260.000000	0.377567
2259.000000	0.375186
2258.000000	0.373631
2257.000000	0.370799
2256.000000	0.368564
2255.000000	0.367877
2254.000000	0.364801
2253.000000	0.362432
2252.000000	0.359334
2251.000000	0.356374
2250.000000	0.354032
2249.000000	0.350824
2248.000000	0.348517
2247.000000	0.346867
2246.000000	0.344829
2245.000000	0.342886
2244.000000	0.339414
2243.000000	0.336350
2242.000000	0.335424
2241.000000	0.333860
2240.000000	0.332010
2239.000000	0.331406
2238.000000	0.330125
2237.000000	0.328081
2236.000000	0.326082
2235.000000	0.325755
2234.000000	0.325767
2233.000000	0.325479
2232.000000	0.325106
2231.000000	0.323031
2230.000000	0.322148
2229.000000	0.321067
2228.000000	0.319978
2227.000000	0.320665
2226.000000	0.322713
2225.000000	0.322003
2224.000000	0.321443
2223.000000	0.321660
2222.000000	0.320912
2221.000000	0.321461
2220.000000	0.322172
2219.000000	0.322051
2218.000000	0.322700
2217.000000	0.322942
2216.000000	0.322435
2215.000000	0.323773
2214.000000	0.325223
2213.000000	0.326343
2212.000000	0.326876
2211.000000	0.326751
2210.000000	0.327756
2209.000000	0.329733
2208.000000	0.330748
2207.000000	0.329614
2206.000000	0.331921
2205.000000	0.333074
2204.000000	0.333914
2203.000000	0.335287
2202.000000	0.336889
2201.000000	0.338298
2200.000000	0.336140
2199.000000	0.335636
2198.000000	0.337278
2197.000000	0.340338
2196.000000	0.341348
2195.000000	0.340688
2194.000000	0.342873
2193.000000	0.344078
2192.000000	0.343151
2191.000000	0.344411
2190.000000	0.345468
2189.000000	0.346536
2188.000000	0.348254
2187.000000	0.348933
2186.000000	0.348660
2185.000000	0.348922
2184.000000	0.350385
2183.000000	0.349065
2182.000000	0.352211
2181.000000	0.350320
2180.000000	0.349460
2179.000000	0.350185
2178.000000	0.351533
2177.000000	0.350396
2176.000000	0.352450
2175.000000	0.351415
2174.000000	0.351471
2173.000000	0.351116
2172.000000	0.351085
2171.000000	0.348875
2170.000000	0.348286
2169.000000	0.347472
2168.000000	0.347575
2167.000000	0.345822
2166.000000	0.345472
2165.000000	0.345440
2164.000000	0.344374
2163.000000	0.343396
2162.000000	0.340888
2161.000000	0.339309
2160.000000	0.337806
2159.000000	0.334621
2158.000000	0.334935
2157.000000	0.332981
2156.000000	0.332909
2155.000000	0.330452
2154.000000	0.329102
2153.000000	0.324891
2152.000000	0.324326
2151.000000	0.323591
2150.000000	0.320563
2149.000000	0.322947
2148.000000	0.318363
2147.000000	0.319557
2146.000000	0.316434
2145.000000	0.314066
2144.000000	0.313420
2143.000000	0.312212
2142.000000	0.311148
2141.000000	0.306188
2140.000000	0.305823
2139.000000	0.304757
2138.000000	0.301436
2137.000000	0.303529
2136.000000	0.301687
2135.000000	0.299929
2134.000000	0.298243
2133.000000	0.299348
2132.000000	0.296152
2131.000000	0.296594
2130.000000	0.294578
2129.000000	0.293326
2128.000000	0.294405
2127.000000	0.292277
2126.000000	0.294161
2125.000000	0.292147
2124.000000	0.291233
2123.000000	0.291088
2122.000000	0.291415
2121.000000	0.289331
2120.000000	0.289725
2119.000000	0.289448
2118.000000	0.288478
2117.000000	0.288777
2116.000000	0.287545
2115.000000	0.285847
2114.000000	0.286445
2113.000000	0.286733
2112.000000	0.287573
2111.000000	0.288051
2110.000000	0.287409
2109.000000	0.287141
2108.000000	0.287006
2107.000000	0.284845
2106.000000	0.285418
2105.000000	0.285177
2104.000000	0.285446
2103.000000	0.285926
2102.000000	0.284397
2101.000000	0.283649
2100.000000	0.283598
2099.000000	0.284283
2098.000000	0.285029
2097.000000	0.284667
2096.000000	0.285542
2095.000000	0.286336
2094.000000	0.285277
2093.000000	0.286125
2092.000000	0.285770
2091.000000	0.285906
2090.000000	0.285639
2089.000000	0.285976
2088.000000	0.286684
2087.000000	0.286053
2086.000000	0.286076
2085.000000	0.285788
2084.000000	0.286998
2083.000000	0.287768
2082.000000	0.289729
2081.000000	0.290409
2080.000000	0.290881
2079.000000	0.292082
2078.000000	0.293307
2077.000000	0.294234
2076.000000	0.294248
2075.000000	0.295910
2074.000000	0.297512
2073.000000	0.298417
2072.000000	0.299794
2071.000000	0.301132
2070.000000	0.301711
2069.000000	0.304286
2068.000000	0.306091
2067.000000	0.306761
2066.000000	0.308827
2065.000000	0.310342
2064.000000	0.311220
2063.000000	0.312875
2062.000000	0.315149
2061.000000	0.317096
2060.000000	0.318880
2059.000000	0.320100
2058.000000	0.321521
2057.000000	0.323411
2056.000000	0.325555
2055.000000	0.326771
2054.000000	0.329497
2053.000000	0.330601
2052.000000	0.331663
2051.000000	0.333462
2050.000000	0.334894
2049.000000	0.335801
2048.000000	0.336949
2047.000000	0.337601
2046.000000	0.338965
2045.000000	0.340132
2044.000000	0.339727
2043.000000	0.340091
2042.000000	0.340547
2041.000000	0.340170
2040.000000	0.339889
2039.000000	0.340389
2038.000000	0.339582
2037.000000	0.339224
2036.000000	0.338854
2035.000000	0.338030
2034.000000	0.336799
2033.000000	0.335708
2032.000000	0.334100
2031.000000	0.332825
2030.000000	0.331971
2029.000000	0.330547
2028.000000	0.329625
2027.000000	0.328842
2026.000000	0.327723
2025.000000	0.327098
2024.000000	0.326651
2023.000000	0.325831
2022.000000	0.324771
2021.000000	0.323865
2020.000000	0.322989
2019.000000	0.322903
2018.000000	0.322980
2017.000000	0.323059
2016.000000	0.323328
2015.000000	0.323760
2014.000000	0.324081
2013.000000	0.324522
2012.000000	0.324983
2011.000000	0.325171
2010.000000	0.325619
2009.000000	0.326934
2008.000000	0.328236
2007.000000	0.329376
2006.000000	0.330622
2005.000000	0.331289
2004.000000	0.332381
2003.000000	0.334055
2002.000000	0.335513
2001.000000	0.336991
2000.000000	0.338388
1999.000000	0.339464
1998.000000	0.340992
1997.000000	0.342468
1996.000000	0.343034
1995.000000	0.344903
1994.000000	0.346866
1993.000000	0.348227
1992.000000	0.349655
1991.000000	0.351160
1990.000000	0.352737
1989.000000	0.354290
1988.000000	0.355492
1987.000000	0.357347
1986.000000	0.358844
1985.000000	0.360442
1984.000000	0.362406
1983.000000	0.363624
1982.000000	0.364796
1981.000000	0.365914
1980.000000	0.367342
1979.000000	0.369089
1978.000000	0.370714
1977.000000	0.372136
1976.000000	0.373561
1975.000000	0.375793
1974.000000	0.376771
1973.000000	0.378012
1972.000000	0.378895
1971.000000	0.380933
1970.000000	0.382231
1969.000000	0.383168
1968.000000	0.384935
1967.000000	0.386193
1966.000000	0.387447
1965.000000	0.389342
1964.000000	0.391461
1963.000000	0.392540
1962.000000	0.394007
1961.000000	0.395381
1960.000000	0.396504
1959.000000	0.397958
1958.000000	0.399130
1957.000000	0.400859
1956.000000	0.401236
1955.000000	0.402493
1954.000000	0.403791
1953.000000	0.404657
1952.000000	0.405638
1951.000000	0.406184
1950.000000	0.407102
1949.000000	0.408484
1948.000000	0.408796
1947.000000	0.409568
1946.000000	0.410066
1945.000000	0.411112
1944.000000	0.410291
1943.000000	0.409807
1942.000000	0.411203
1941.000000	0.410027
1940.000000	0.409671
1939.000000	0.408761
1938.000000	0.407822
1937.000000	0.408076
1936.000000	0.405651
1935.000000	0.406158
1934.000000	0.403761
1933.000000	0.401484
1932.000000	0.400760
1931.000000	0.398162
1930.000000	0.397233
1929.000000	0.394553
1928.000000	0.392573
1927.000000	0.390007
1926.000000	0.386954
1925.000000	0.382832
1924.000000	0.380715
1923.000000	0.376443
1922.000000	0.374421
1921.000000	0.369845
1920.000000	0.367175
1919.000000	0.363557
1918.000000	0.358584
1917.000000	0.354796
1916.000000	0.351386
1915.000000	0.345849
1914.000000	0.341361
1913.000000	0.336147
1912.000000	0.332823
1911.000000	0.327148
1910.000000	0.322823
1909.000000	0.318125
1908.000000	0.312383
1907.000000	0.307324
1906.000000	0.302520
1905.000000	0.296897
1904.000000	0.291682
1903.000000	0.286345
1902.000000	0.280218
1901.000000	0.274572
1900.000000	0.269622
1899.000000	0.264183
1898.000000	0.258329
1897.000000	0.253945
1896.000000	0.248480
1895.000000	0.243478
1894.000000	0.238738
1893.000000	0.234166
1892.000000	0.230163
1891.000000	0.225753
1890.000000	0.220991
1889.000000	0.217440
1888.000000	0.213735
1887.000000	0.209868
1886.000000	0.206283
1885.000000	0.202896
1884.000000	0.200093
1883.000000	0.196422
1882.000000	0.193937
1881.000000	0.191003
1880.000000	0.187905
1879.000000	0.185786
1878.000000	0.182938
1877.000000	0.180215
1876.000000	0.178404
1875.000000	0.176464
1874.000000	0.174477
1873.000000	0.172925
1872.000000	0.171175
1871.000000	0.169523
1870.000000	0.168691
1869.000000	0.167164
1868.000000	0.165907
1867.000000	0.164985
1866.000000	0.164087
1865.000000	0.163509
1864.000000	0.162752
1863.000000	0.162015
1862.000000	0.161465
1861.000000	0.161456
1860.000000	0.161058
1859.000000	0.160301
1858.000000	0.159881
1857.000000	0.159871
1856.000000	0.159653
1855.000000	0.159278
1854.000000	0.158804
1853.000000	0.158617
1852.000000	0.158823
1851.000000	0.158558
1850.000000	0.158746
1849.000000	0.158873
1848.000000	0.158709
1847.000000	0.158721
1846.000000	0.158663
1845.000000	0.158819
1844.000000	0.159364
1843.000000	0.159577
1842.000000	0.159839
1841.000000	0.159812
1840.000000	0.160080
1839.000000	0.160325
1838.000000	0.160508
1837.000000	0.160767
1836.000000	0.160982
1835.000000	0.161534
1834.000000	0.162211
1833.000000	0.162300
1832.000000	0.162642
1831.000000	0.163123
1830.000000	0.163605
1829.000000	0.163965
1828.000000	0.164246
1827.000000	0.164387
1826.000000	0.164608
1825.000000	0.165103
1824.000000	0.165505
1823.000000	0.165757
1822.000000	0.166212
1821.000000	0.166446
1820.000000	0.166654
1819.000000	0.167281
1818.000000	0.167664
1817.000000	0.168036
1816.000000	0.168358
1815.000000	0.168533
1814.000000	0.168982
1813.000000	0.169329
1812.000000	0.169510
1811.000000	0.169932
1810.000000	0.170216
1809.000000	0.170254
1808.000000	0.170638
1807.000000	0.171224
1806.000000	0.171273
1805.000000	0.171538
1804.000000	0.172036
1803.000000	0.172263
1802.000000	0.172788
1801.000000	0.173094
1800.000000	0.173264
1799.000000	0.173657
1798.000000	0.174046
1797.000000	0.174316
1796.000000	0.174541
1795.000000	0.174877
1794.000000	0.174818
1793.000000	0.175071
1792.000000	0.175562
1791.000000	0.175566
1790.000000	0.175706
1789.000000	0.176034
1788.000000	0.176107
1787.000000	0.176278
1786.000000	0.176600
1785.000000	0.176860
1784.000000	0.177342
1783.000000	0.177732
1782.000000	0.177883
1781.000000	0.178136
1780.000000	0.178417
1779.000000	0.178745
1778.000000	0.179156
1777.000000	0.179483
1776.000000	0.179991
1775.000000	0.180662
1774.000000	0.181093
1773.000000	0.181284
1772.000000	0.181884
1771.000000	0.182444
1770.000000	0.182835
1769.000000	0.183023
1768.000000	0.183503
1767.000000	0.184046
1766.000000	0.184513
1765.000000	0.185020
1764.000000	0.185407
1763.000000	0.185796
1762.000000	0.186264
1761.000000	0.186725
1760.000000	0.187430
1759.000000	0.187561
1758.000000	0.187752
1757.000000	0.188158
1756.000000	0.188619
1755.000000	0.189251
1754.000000	0.189798
1753.000000	0.190294
1752.000000	0.190817
1751.000000	0.191368
1750.000000	0.191724
1749.000000	0.191977
1748.000000	0.192644
1747.000000	0.193359
1746.000000	0.193621
1745.000000	0.194416
1744.000000	0.194834
1743.000000	0.195325
1742.000000	0.195958
1741.000000	0.196424
1740.000000	0.196878
1739.000000	0.197080
1738.000000	0.197477
1737.000000	0.198101
1736.000000	0.198291
1735.000000	0.198387
1734.000000	0.198531
1733.000000	0.198708
1732.000000	0.198713
1731.000000	0.198615
1730.000000	0.198628
1729.000000	0.198185
1728.000000	0.198100
1727.000000	0.197883
1726.000000	0.197390
1725.000000	0.196839
1724.000000	0.196369
1723.000000	0.195840
1722.000000	0.195186
1721.000000	0.194619
1720.000000	0.193424
1719.000000	0.192661
1718.000000	0.192228
1717.000000	0.191215
1716.000000	0.190514
1715.000000	0.189824
1714.000000	0.189259
1713.000000	0.188644
1712.000000	0.187778
1711.000000	0.187234
1710.000000	0.187073
1709.000000	0.186448
1708.000000	0.186002
1707.000000	0.185805
1706.000000	0.185280
1705.000000	0.185139
1704.000000	0.184941
1703.000000	0.184836
1702.000000	0.184683
1701.000000	0.184772
1700.000000	0.184824
1699.000000	0.184954
1698.000000	0.184438
1697.000000	0.184227
1696.000000	0.183813
1695.000000	0.184092
1694.000000	0.183720
1693.000000	0.183434
1692.000000	0.183147
1691.000000	0.182577
1690.000000	0.182298
1689.000000	0.181574
1688.000000	0.180999
1687.000000	0.180456
1686.000000	0.179076
1685.000000	0.178683
1684.000000	0.177420
1683.000000	0.176668
1682.000000	0.175671
1681.000000	0.174349
1680.000000	0.173100
1679.000000	0.172241
1678.000000	0.171088
1677.000000	0.170001
1676.000000	0.168658
1675.000000	0.167523
1674.000000	0.166378
1673.000000	0.165103
1672.000000	0.164098
1671.000000	0.162992
1670.000000	0.161923
1669.000000	0.161170
1668.000000	0.160210
1667.000000	0.159379
1666.000000	0.158597
1665.000000	0.157859
1664.000000	0.157313
1663.000000	0.156961
1662.000000	0.156401
1661.000000	0.155723
1660.000000	0.155448
1659.000000	0.155085
1658.000000	0.154940
1657.000000	0.154557
1656.000000	0.154605
1655.000000	0.154309
1654.000000	0.154202
1653.000000	0.153958
1652.000000	0.153964
1651.000000	0.154132
1650.000000	0.154120
1649.000000	0.154287
1648.000000	0.154216
1647.000000	0.154369
1646.000000	0.154334
1645.000000	0.154527
1644.000000	0.154703
1643.000000	0.154879
1642.000000	0.155176
1641.000000	0.155268
1640.000000	0.155491
1639.000000	0.155803
1638.000000	0.156069
1637.000000	0.156344
1636.000000	0.156722
1635.000000	0.157004
1634.000000	0.157313
1633.000000	0.157626
1632.000000	0.157799
1631.000000	0.158191
1630.000000	0.158615
1629.000000	0.158894
1628.000000	0.159325
1627.000000	0.159618
1626.000000	0.159992
1625.000000	0.160477
1624.000000	0.160765
1623.000000	0.161118
1622.000000	0.161483
1621.000000	0.161888
1620.000000	0.162363
1619.000000	0.162848
1618.000000	0.163293
1617.000000	0.163632
1616.000000	0.164111
1615.000000	0.164654
1614.000000	0.165224
1613.000000	0.165734
1612.000000	0.166276
1611.000000	0.166730
1610.000000	0.167146
1609.000000	0.167695
1608.000000	0.168175
1607.000000	0.168629
1606.000000	0.169305
1605.000000	0.169942
1604.000000	0.170383
1603.000000	0.170737
1602.000000	0.171217
1601.000000	0.171852
1600.000000	0.172417
1599.000000	0.172897
1598.000000	0.173426
1597.000000	0.173957
1596.000000	0.174454
1595.000000	0.174916
1594.000000	0.175319
1593.000000	0.175721
1592.000000	0.176314
1591.000000	0.176902
1590.000000	0.177191
1589.000000	0.177586
1588.000000	0.178187
1587.000000	0.178545
1586.000000	0.178831
1585.000000	0.179355
1584.000000	0.179868
1583.000000	0.180252
1582.000000	0.180734
1581.000000	0.181085
1580.000000	0.181544
1579.000000	0.182003
1578.000000	0.182281
1577.000000	0.182664
1576.000000	0.183142
1575.000000	0.183586
1574.000000	0.184111
1573.000000	0.184459
1572.000000	0.184750
1571.000000	0.185140
1570.000000	0.185539
1569.000000	0.185943
1568.000000	0.186394
1567.000000	0.186755
1566.000000	0.187100
1565.000000	0.187349
1564.000000	0.187667
1563.000000	0.187974
1562.000000	0.188219
1561.000000	0.188496
1560.000000	0.188761
1559.000000	0.189106
1558.000000	0.189341
1557.000000	0.189567
1556.000000	0.189809
1555.000000	0.190058
1554.000000	0.190408
1553.000000	0.190651
1552.000000	0.191087
1551.000000	0.191398
1550.000000	0.191688
1549.000000	0.192150
1548.000000	0.192461
1547.000000	0.193028
1546.000000	0.193466
1545.000000	0.194000
1544.000000	0.194651
1543.000000	0.195360
1542.000000	0.195949
1541.000000	0.196508
1540.000000	0.197334
1539.000000	0.197983
1538.000000	0.198602
1537.000000	0.199527
1536.000000	0.200255
1535.000000	0.200860
1534.000000	0.201687
1533.000000	0.202483
1532.000000	0.203357
1531.000000	0.203963
1530.000000	0.204604
1529.000000	0.205516
1528.000000	0.206218
1527.000000	0.206691
1526.000000	0.207130
1525.000000	0.207872
1524.000000	0.208437
1523.000000	0.208891
1522.000000	0.209322
1521.000000	0.209955
1520.000000	0.210450
1519.000000	0.210934
1518.000000	0.211232
1517.000000	0.211558
1516.000000	0.211840
1515.000000	0.212296
1514.000000	0.212580
1513.000000	0.212897
1512.000000	0.213304
1511.000000	0.213501
1510.000000	0.213761
1509.000000	0.214042
1508.000000	0.214156
1507.000000	0.214614
1506.000000	0.214745
1505.000000	0.214905
1504.000000	0.214986
1503.000000	0.215083
1502.000000	0.215422
1501.000000	0.215417
1500.000000	0.215594
1499.000000	0.215609
1498.000000	0.215819
1497.000000	0.215790
1496.000000	0.215727
1495.000000	0.215679
1494.000000	0.215701
1493.000000	0.215476
1492.000000	0.215523
1491.000000	0.215410
1490.000000	0.215256
1489.000000	0.215247
1488.000000	0.214926
1487.000000	0.214703
1486.000000	0.214468
1485.000000	0.214181
1484.000000	0.214022
1483.000000	0.213614
1482.000000	0.213497
1481.000000	0.213144
1480.000000	0.212974
1479.000000	0.212759
1478.000000	0.212480
1477.000000	0.212212
1476.000000	0.212025
1475.000000	0.211629
1474.000000	0.211471
1473.000000	0.211280
1472.000000	0.210962
1471.000000	0.210793
1470.000000	0.210795
1469.000000	0.210363
1468.000000	0.210310
1467.000000	0.210145
1466.000000	0.209935
1465.000000	0.209713
1464.000000	0.209359
1463.000000	0.209230
1462.000000	0.209059
1461.000000	0.208928
1460.000000	0.208723
1459.000000	0.208243
1458.000000	0.208084
1457.000000	0.207843
1456.000000	0.207465
1455.000000	0.207174
1454.000000	0.206817
1453.000000	0.206536
1452.000000	0.206266
1451.000000	0.205831
1450.000000	0.205451
1449.000000	0.205043
1448.000000	0.204601
1447.000000	0.204293
1446.000000	0.203867
1445.000000	0.203184
1444.000000	0.202711
1443.000000	0.202189
1442.000000	0.201633
1441.000000	0.200910
1440.000000	0.200441
1439.000000	0.199844
1438.000000	0.199146
1437.000000	0.198502
1436.000000	0.197872
1435.000000	0.197107
1434.000000	0.196434
1433.000000	0.195720
1432.000000	0.194779
1431.000000	0.193989
1430.000000	0.193182
1429.000000	0.192185
1428.000000	0.191223
1427.000000	0.190351
1426.000000	0.189430
1425.000000	0.188403
1424.000000	0.187308
1423.000000	0.186239
1422.000000	0.185070
1421.000000	0.184004
1420.000000	0.182870
1419.000000	0.181773
1418.000000	0.180471
1417.000000	0.179201
1416.000000	0.178022
1415.000000	0.176717
1414.000000	0.175409
1413.000000	0.174173
1412.000000	0.173026
1411.000000	0.171710
1410.000000	0.170408
1409.000000	0.169228
1408.000000	0.167867
1407.000000	0.166670
1406.000000	0.165416
1405.000000	0.164271
1404.000000	0.163198
1403.000000	0.161960
1402.000000	0.160925
1401.000000	0.159877
1400.000000	0.158778
1399.000000	0.157668
1398.000000	0.156667
1397.000000	0.155717
1396.000000	0.154787
1395.000000	0.153938
1394.000000	0.153156
1393.000000	0.152229
1392.000000	0.151318
1391.000000	0.150424
1390.000000	0.149730
1389.000000	0.149128
1388.000000	0.148432
1387.000000	0.147785
1386.000000	0.147229
1385.000000	0.146639
1384.000000	0.146137
1383.000000	0.145593
1382.000000	0.145064
1381.000000	0.144699
1380.000000	0.144375
1379.000000	0.143970
1378.000000	0.143647
1377.000000	0.143256
1376.000000	0.142868
1375.000000	0.142692
1374.000000	0.142540
1373.000000	0.142278
1372.000000	0.141919
1371.000000	0.141656
1370.000000	0.141526
1369.000000	0.141353
1368.000000	0.141115
1367.000000	0.140896
1366.000000	0.140660
1365.000000	0.140431
1364.000000	0.140268
1363.000000	0.140128
1362.000000	0.139822
1361.000000	0.139561
1360.000000	0.139446
1359.000000	0.139295
1358.000000	0.138936
1357.000000	0.138792
1356.000000	0.138663
1355.000000	0.138430
1354.000000	0.138304
1353.000000	0.138068
1352.000000	0.137905
1351.000000	0.137759
1350.000000	0.137519
1349.000000	0.137242
1348.000000	0.137077
1347.000000	0.137050
1346.000000	0.136872
1345.000000	0.136665
1344.000000	0.136456
1343.000000	0.136198
1342.000000	0.135877
1341.000000	0.135402
1340.000000	0.135258
1339.000000	0.135235
1338.000000	0.135136
1337.000000	0.135043
1336.000000	0.134949
1335.000000	0.134966
1334.000000	0.134862
1333.000000	0.134712
1332.000000	0.134573
1331.000000	0.134334
1330.000000	0.134338
1329.000000	0.134357
1328.000000	0.134167
1327.000000	0.133964
1326.000000	0.134047
1325.000000	0.134147
1324.000000	0.134028
1323.000000	0.133806
1322.000000	0.133860
1321.000000	0.133911
1320.000000	0.133942
1319.000000	0.134023
1318.000000	0.133823
1317.000000	0.133781
1316.000000	0.133877
1315.000000	0.133846
1314.000000	0.134043
1313.000000	0.133924
1312.000000	0.133803
1311.000000	0.134036
1310.000000	0.133977
1309.000000	0.133860
1308.000000	0.134038
1307.000000	0.134161
1306.000000	0.134097
1305.000000	0.134241
1304.000000	0.134136
1303.000000	0.134229
1302.000000	0.134388
1301.000000	0.134320
1300.000000	0.134375
1299.000000	0.134414
1298.000000	0.134644
1297.000000	0.134774
1296.000000	0.134840
1295.000000	0.134939
1294.000000	0.135099
1293.000000	0.135222
1292.000000	0.135152
1291.000000	0.135468
1290.000000	0.135469
1289.000000	0.135517
1288.000000	0.135708
1287.000000	0.135821
1286.000000	0.135980
1285.000000	0.136196
1284.000000	0.136294
1283.000000	0.136297
1282.000000	0.136484
1281.000000	0.136579
1280.000000	0.136691
1279.000000	0.136850
1278.000000	0.136896
1277.000000	0.136947
1276.000000	0.136951
1275.000000	0.137055
1274.000000	0.137245
1273.000000	0.137430
1272.000000	0.137407
1271.000000	0.137398
1270.000000	0.137621
1269.000000	0.137619
1268.000000	0.137811
1267.000000	0.137651
1266.000000	0.138082
1265.000000	0.138070
1264.000000	0.138125
1263.000000	0.138107
1262.000000	0.138209
1261.000000	0.138295
1260.000000	0.138066
1259.000000	0.138335
1258.000000	0.138430
1257.000000	0.138416
1256.000000	0.138460
1255.000000	0.138640
1254.000000	0.138698
1253.000000	0.138925
1252.000000	0.138988
1251.000000	0.139006
1250.000000	0.139164
1249.000000	0.139318
1248.000000	0.139377
1247.000000	0.139589
1246.000000	0.139705
1245.000000	0.139840
1244.000000	0.140116
1243.000000	0.140333
1242.000000	0.140444
1241.000000	0.140719
1240.000000	0.140968
1239.000000	0.141109
1238.000000	0.141360
1237.000000	0.141606
1236.000000	0.141843
1235.000000	0.141994
1234.000000	0.142228
1233.000000	0.142605
1232.000000	0.142587
1231.000000	0.142771
1230.000000	0.143129
1229.000000	0.143347
1228.000000	0.143525
1227.000000	0.143750
1226.000000	0.143917
1225.000000	0.144047
1224.000000	0.144328
1223.000000	0.144484
1222.000000	0.144653
1221.000000	0.144922
1220.000000	0.145269
1219.000000	0.145414
1218.000000	0.145672
1217.000000	0.145848
1216.000000	0.146029
1215.000000	0.146228
1214.000000	0.146586
1213.000000	0.146875
1212.000000	0.147021
1211.000000	0.147114
1210.000000	0.147544
1209.000000	0.147851
1208.000000	0.148130
1207.000000	0.148263
1206.000000	0.148629
1205.000000	0.148828
1204.000000	0.149092
1203.000000	0.149402
1202.000000	0.149699
1201.000000	0.150004
1200.000000	0.150135
1199.000000	0.150510
1198.000000	0.150826
1197.000000	0.151096
1196.000000	0.151204
1195.000000	0.151323
1194.000000	0.151761
1193.000000	0.151938
1192.000000	0.152127
1191.000000	0.152362
1190.000000	0.152726
1189.000000	0.152995
1188.000000	0.153100
1187.000000	0.153185
1186.000000	0.153341
1185.000000	0.153445
1184.000000	0.153547
1183.000000	0.153599
1182.000000	0.153572
1181.000000	0.153623
1180.000000	0.153611
1179.000000	0.153538
1178.000000	0.153419
1177.000000	0.153431
1176.000000	0.153406
1175.000000	0.153188
1174.000000	0.152987
1173.000000	0.152915
1172.000000	0.152824
1171.000000	0.152634
1170.000000	0.152415
1169.000000	0.152254
1168.000000	0.152044
1167.000000	0.151853
1166.000000	0.151731
1165.000000	0.151454
1164.000000	0.151128
1163.000000	0.150883
1162.000000	0.150717
1161.000000	0.150537
1160.000000	0.150354
1159.000000	0.150079
1158.000000	0.149811
1157.000000	0.149689
1156.000000	0.149550
1155.000000	0.149323
1154.000000	0.149215
1153.000000	0.149147
1152.000000	0.148970
1151.000000	0.148777
1150.000000	0.148609
1149.000000	0.148480
1148.000000	0.148421
1147.000000	0.148253
1146.000000	0.148188
1145.000000	0.148118
1144.000000	0.147997
1143.000000	0.147898
1142.000000	0.147792
1141.000000	0.147732
1140.000000	0.147627
1139.000000	0.147625
1138.000000	0.147644
1137.000000	0.147536
1136.000000	0.147450
1135.000000	0.147533
1134.000000	0.147519
1133.000000	0.147492
1132.000000	0.147521
1131.000000	0.147486
1130.000000	0.147370
1129.000000	0.147394
1128.000000	0.147385
1127.000000	0.147451
1126.000000	0.147434
1125.000000	0.147447
1124.000000	0.147574
1123.000000	0.147615
1122.000000	0.147681
1121.000000	0.147668
1120.000000	0.147804
1119.000000	0.148099
1118.000000	0.148140
1117.000000	0.148193
1116.000000	0.148284
1115.000000	0.148341
1114.000000	0.148466
1113.000000	0.148559
1112.000000	0.148662
1111.000000	0.148794
1110.000000	0.148888
1109.000000	0.148951
1108.000000	0.149123
1107.000000	0.149271
1106.000000	0.149467
1105.000000	0.149559
1104.000000	0.149652
1103.000000	0.149719
1102.000000	0.149924
1101.000000	0.150185
1100.000000	0.150253
1099.000000	0.150325
1098.000000	0.150531
1097.000000	0.150686
1096.000000	0.150759
1095.000000	0.150858
1094.000000	0.150959
1093.000000	0.151274
1092.000000	0.151393
1091.000000	0.151443
1090.000000	0.151679
1089.000000	0.151826
1088.000000	0.151844
1087.000000	0.152128
1086.000000	0.152336
1085.000000	0.152481
1084.000000	0.152656
1083.000000	0.152657
1082.000000	0.152905
1081.000000	0.153008
1080.000000	0.153052
1079.000000	0.153247
1078.000000	0.153403
1077.000000	0.153635
1076.000000	0.153906
1075.000000	0.154041
1074.000000	0.154162
1073.000000	0.154409
1072.000000	0.154541
1071.000000	0.154709
1070.000000	0.154761
1069.000000	0.155018
1068.000000	0.155311
1067.000000	0.155418
1066.000000	0.155660
1065.000000	0.155755
1064.000000	0.155868
1063.000000	0.156021
1062.000000	0.156294
1061.000000	0.156534
1060.000000	0.156623
1059.000000	0.156824
1058.000000	0.156978
1057.000000	0.157117
1056.000000	0.157434
1055.000000	0.157582
1054.000000	0.157745
1053.000000	0.157901
1052.000000	0.158126
1051.000000	0.158386
1050.000000	0.158645
1049.000000	0.158730
1048.000000	0.158877
1047.000000	0.159105
1046.000000	0.159301
1045.000000	0.159453
1044.000000	0.159580
1043.000000	0.159883
1042.000000	0.160047
1041.000000	0.160172
1040.000000	0.160322
1039.000000	0.160532
1038.000000	0.160766
1037.000000	0.160827
1036.000000	0.160988
1035.000000	0.161278
1034.000000	0.161299
1033.000000	0.161406
1032.000000	0.161567
1031.000000	0.161756
1030.000000	0.162048
1029.000000	0.162158
1028.000000	0.162409
1027.000000	0.162458
1026.000000	0.162552
1025.000000	0.162804
1024.000000	0.162967
1023.000000	0.163188
1022.000000	0.163379
1021.000000	0.163459
1020.000000	0.163495
1019.000000	0.163762
1018.000000	0.163890
1017.000000	0.164049
1016.000000	0.164267
1015.000000	0.164473
1014.000000	0.164465
1013.000000	0.164665
1012.000000	0.164760
1011.000000	0.165085
1010.000000	0.165133
1009.000000	0.165168
1008.000000	0.165389
1007.000000	0.165506
1006.000000	0.165663
1005.000000	0.165672
1004.000000	0.166044
1003.000000	0.166141
1002.000000	0.166186
1001.000000	0.166381
1000.000000	0.166589
999.000000	0.166646
998.000000	0.166814
997.000000	0.167037
996.000000	0.167121
995.000000	0.167257
994.000000	0.167512
993.000000	0.167713
992.000000	0.167711
991.000000	0.167912
990.000000	0.167970
989.000000	0.168174
988.000000	0.168318
987.000000	0.168439
986.000000	0.168515
985.000000	0.168735
984.000000	0.168789
983.000000	0.168941
982.000000	0.169141
981.000000	0.169395
980.000000	0.169519
979.000000	0.169571
978.000000	0.169749
977.000000	0.169877
976.000000	0.170050
975.000000	0.170271
974.000000	0.170378
973.000000	0.170495
972.000000	0.170702
971.000000	0.170766
970.000000	0.170936
969.000000	0.171083
968.000000	0.171197
967.000000	0.171292
966.000000	0.171595
965.000000	0.171729
964.000000	0.171751
963.000000	0.171943
962.000000	0.172052
961.000000	0.172109
960.000000	0.172189
959.000000	0.172330
958.000000	0.172564
957.000000	0.172913
956.000000	0.172987
955.000000	0.172933
954.000000	0.173167
953.000000	0.173327
952.000000	0.173461
951.000000	0.173729
950.000000	0.173847
949.000000	0.173987
948.000000	0.174158
947.000000	0.174177
946.000000	0.174455
945.000000	0.174489
944.000000	0.174574
943.000000	0.174815
942.000000	0.175053
941.000000	0.175324
940.000000	0.175563
939.000000	0.175798
938.000000	0.175855
937.000000	0.175911
936.000000	0.176061
935.000000	0.176455
934.000000	0.176677
933.000000	0.176862
932.000000	0.176888
931.000000	0.176847
930.000000	0.177050
929.000000	0.177224
928.000000	0.177460
927.000000	0.177922
926.000000	0.178165
925.000000	0.178541
924.000000	0.178575
923.000000	0.178941
922.000000	0.179145
921.000000	0.179274
920.000000	0.179496
919.000000	0.179700
918.000000	0.180007
917.000000	0.180182
916.000000	0.180060
915.000000	0.180135
914.000000	0.180690
913.000000	0.181052
912.000000	0.180873
911.000000	0.181153
910.000000	0.181632
909.000000	0.181681
908.000000	0.181928
907.000000	0.181984
906.000000	0.182355
905.000000	0.182549
904.000000	0.182577
903.000000	0.182791
902.000000	0.182965
901.000000	0.183049
900.000000	0.182926
899.000000	0.183364
898.000000	0.183857
897.000000	0.184087
896.000000	0.184321
895.000000	0.184378
894.000000	0.184555
893.000000	0.184549
892.000000	0.184731
891.000000	0.185255
890.000000	0.185500
889.000000	0.185547
888.000000	0.185479
887.000000	0.185817
886.000000	0.186064
885.000000	0.185541
884.000000	0.185675
883.000000	0.186454
882.000000	0.186700
881.000000	0.186863
880.000000	0.187132
879.000000	0.187674
878.000000	0.187478
877.000000	0.187762
876.000000	0.187576
875.000000	0.188111
874.000000	0.188672
873.000000	0.189066
872.000000	0.188872
871.000000	0.188149
870.000000	0.188397
869.000000	0.189477
868.000000	0.189565
867.000000	0.190118
866.000000	0.190137
865.000000	0.190862
864.000000	0.190925
863.000000	0.190194
862.000000	0.190648
861.000000	0.192107
860.000000	0.191906
859.000000	0.189182
858.000000	0.188505
857.000000	0.191353
856.000000	0.190048
855.000000	0.193196
854.000000	0.190626
853.000000	0.194442
852.000000	0.193185
851.000000	0.192170
850.000000	0.191591
849.000000	0.194722
848.000000	0.191674
847.000000	0.193637
846.000000	0.192738
845.000000	0.195208
844.000000	0.193741
843.000000	0.196626
842.000000	0.195580
841.000000	0.197581
840.000000	0.197812
839.000000	0.196531
838.000000	0.194709
837.000000	0.197560
836.000000	0.196433
835.000000	0.196312
834.000000	0.197889
833.000000	0.197840
832.000000	0.198723
831.000000	0.198027
830.000000	0.199195
829.000000	0.199949
828.000000	0.198848
827.000000	0.200971
826.000000	0.199750
825.000000	0.201085
824.000000	0.201054
823.000000	0.200392
822.000000	0.201883
821.000000	0.201365
820.000000	0.201533
819.000000	0.202136
818.000000	0.203601
817.000000	0.201068
816.000000	0.203203
815.000000	0.203528
814.000000	0.203726
813.000000	0.205228
812.000000	0.204517
811.000000	0.204023
810.000000	0.205917
809.000000	0.205953
808.000000	0.205566
807.000000	0.205595
806.000000	0.206996
805.000000	0.207503
804.000000	0.207001
803.000000	0.207993
802.000000	0.207662
801.000000	0.207019
800.000000	0.207584
799.000000	0.208480
798.000000	0.208017
797.000000	0.208582
796.000000	0.210317
795.000000	0.209595
794.000000	0.210603
793.000000	0.210637
792.000000	0.211056
791.000000	0.211035
790.000000	0.211852
789.000000	0.212169
788.000000	0.211589
787.000000	0.212992
786.000000	0.212673
785.000000	0.213139
784.000000	0.213844
783.000000	0.213995
782.000000	0.214616
781.000000	0.214619
780.000000	0.215162
779.000000	0.215610
778.000000	0.215879
777.000000	0.216142
776.000000	0.216556
775.000000	0.217327
774.000000	0.217311
773.000000	0.217760
772.000000	0.217764
771.000000	0.217898
770.000000	0.218949
769.000000	0.219743
768.000000	0.219893
767.000000	0.220657
766.000000	0.220932
765.000000	0.220769
764.000000	0.221060
763.000000	0.221353
762.000000	0.222103
761.000000	0.223023
760.000000	0.222860
759.000000	0.223680
758.000000	0.223700
757.000000	0.223957
756.000000	0.224147
755.000000	0.224664
754.000000	0.224701
753.000000	0.225550
752.000000	0.226464
751.000000	0.227187
750.000000	0.227854
749.000000	0.227741
748.000000	0.227976
747.000000	0.229476
746.000000	0.229426
745.000000	0.229727
744.000000	0.229674
743.000000	0.229958
742.000000	0.231113
741.000000	0.231602
740.000000	0.231614
739.000000	0.232562
738.000000	0.232567
737.000000	0.232643
736.000000	0.233677
735.000000	0.234093
734.000000	0.234238
733.000000	0.234736
732.000000	0.235073
731.000000	0.235702
730.000000	0.236637
729.000000	0.236786
728.000000	0.237267
727.000000	0.238122
726.000000	0.237571
725.000000	0.238559
724.000000	0.239926
723.000000	0.240240
722.000000	0.240479
721.000000	0.240627
720.000000	0.241040
719.000000	0.241877
718.000000	0.242363
717.000000	0.243006
716.000000	0.243115
715.000000	0.243674
714.000000	0.244770
713.000000	0.245212
712.000000	0.245708
711.000000	0.246146
710.000000	0.246523
709.000000	0.246714
708.000000	0.247289
707.000000	0.247969
706.000000	0.248502
705.000000	0.249152
704.000000	0.249851
703.000000	0.250630
702.000000	0.251410
701.000000	0.251855
700.000000	0.252335
699.000000	0.252747
698.000000	0.253346
697.000000	0.253803
696.000000	0.254157
695.000000	0.255253
694.000000	0.255772
693.000000	0.256072
692.000000	0.257336
691.000000	0.258168
690.000000	0.258661
689.000000	0.259372
688.000000	0.260224
687.000000	0.260884
686.000000	0.261500
685.000000	0.261967
684.000000	0.262608
683.000000	0.263171
682.000000	0.264171
681.000000	0.265265
680.000000	0.265438
679.000000	0.265707
678.000000	0.266463
677.000000	0.267442
676.000000	0.268119
675.000000	0.268823
674.000000	0.269697
673.000000	0.269889
672.000000	0.270714
671.000000	0.271467
670.000000	0.272082
669.000000	0.272858
668.000000	0.273873
667.000000	0.274820
666.000000	0.275273
665.000000	0.276183
664.000000	0.277247
663.000000	0.277724
662.000000	0.278208
661.000000	0.279022
660.000000	0.279778
659.000000	0.280548
658.000000	0.281783
657.000000	0.282259
656.000000	0.282822
655.000000	0.283870
654.000000	0.284435
653.000000	0.285357
652.000000	0.286268
651.000000	0.286845
650.000000	0.287849
649.000000	0.288822
648.000000	0.289442
647.000000	0.290488
646.000000	0.291337
645.000000	0.292188
644.000000	0.292990
643.000000	0.293811
642.000000	0.294745
641.000000	0.295132
640.000000	0.296694
639.000000	0.297399
638.000000	0.298373
637.000000	0.299299
636.000000	0.300519
635.000000	0.301177
634.000000	0.302226
633.000000	0.302559
632.000000	0.303624
631.000000	0.304918
630.000000	0.305713
629.000000	0.306490
628.000000	0.308024
627.000000	0.308435
626.000000	0.309630
625.000000	0.310457
624.000000	0.311374
623.000000	0.312773
622.000000	0.313558
621.000000	0.314772
620.000000	0.315751
619.000000	0.316784
618.000000	0.317826
617.000000	0.318510
616.000000	0.319876
615.000000	0.320786
614.000000	0.321949
613.000000	0.322423
612.000000	0.323585
611.000000	0.325221
610.000000	0.326029
609.000000	0.327103
608.000000	0.328632
607.000000	0.329599
606.000000	0.331084
605.000000	0.332170
604.000000	0.333141
603.000000	0.334273
602.000000	0.335017
601.000000	0.336977
600.000000	0.338027
599.000000	0.338995
598.000000	0.340550
597.000000	0.341574
596.000000	0.342474
595.000000	0.344003
594.000000	0.345075
593.000000	0.346346
592.000000	0.347399
591.000000	0.348183
590.000000	0.350547
589.000000	0.351975
588.000000	0.353188
587.000000	0.354424
586.000000	0.355520
585.000000	0.356598
584.000000	0.357913
583.000000	0.359668
582.000000	0.360591
581.000000	0.362080
580.000000	0.363673
579.000000	0.365256
578.000000	0.366490
577.000000	0.367883
576.000000	0.369009
575.000000	0.370428
574.000000	0.372382
573.000000	0.373357
572.000000	0.374824
571.000000	0.376838
570.000000	0.377754
569.000000	0.379525
568.000000	0.380496
567.000000	0.382403
566.000000	0.384070
565.000000	0.385353
564.000000	0.386859
563.000000	0.388724
562.000000	0.390636
561.000000	0.391989
560.000000	0.393629
559.000000	0.394921
558.000000	0.396884
557.000000	0.398859
556.000000	0.400268
555.000000	0.402245
554.000000	0.403314
553.000000	0.405155
552.000000	0.406838
551.000000	0.408521
550.000000	0.410457
549.000000	0.412237
548.000000	0.413963
547.000000	0.415410
546.000000	0.417367
545.000000	0.418973
544.000000	0.420664
543.000000	0.422514
542.000000	0.424455
541.000000	0.426259
540.000000	0.428219
539.000000	0.429939
538.000000	0.431445
537.000000	0.433334
536.000000	0.435458
535.000000	0.437312
534.000000	0.439651
533.000000	0.441175
532.000000	0.443169
531.000000	0.444848
530.000000	0.446903
529.000000	0.448808
528.000000	0.450744
527.000000	0.452492
526.000000	0.454543
525.000000	0.456610
524.000000	0.458631
523.000000	0.460976
522.000000	0.462859
521.000000	0.464544
520.000000	0.466449
519.000000	0.468852
518.000000	0.471159
517.000000	0.473187
516.000000	0.475141
515.000000	0.476855
514.000000	0.479214
513.000000	0.481425
512.000000	0.483355
511.000000	0.485683
510.000000	0.487715
509.000000	0.489898
508.000000	0.492199
507.000000	0.494328
506.000000	0.496487
505.000000	0.498725
504.000000	0.500909
503.000000	0.502707
502.000000	0.504826
501.000000	0.507228
500.000000	0.509578
499.000000	0.511951
498.000000	0.514423
497.000000	0.516847
496.000000	0.519087
495.000000	0.521147
494.000000	0.523512
493.000000	0.525311
492.000000	0.527854
491.000000	0.530795
490.000000	0.532598
489.000000	0.534715
488.000000	0.537644
487.000000	0.540258
486.000000	0.542485
485.000000	0.544423
484.000000	0.546900
483.000000	0.549168
482.000000	0.551331
481.000000	0.554215
480.000000	0.556487
479.000000	0.558782
478.000000	0.561272
477.000000	0.563908
476.000000	0.566491
475.000000	0.568839
474.000000	0.571356
473.000000	0.573782
472.000000	0.575992
471.000000	0.578341
470.000000	0.581174
469.000000	0.584142
468.000000	0.586506
467.000000	0.588852
466.000000	0.591421
465.000000	0.593721
464.000000	0.596785
463.000000	0.599514
462.000000	0.601628
461.000000	0.604455
460.000000	0.607536
459.000000	0.610033
458.000000	0.612567
457.000000	0.615439
456.000000	0.618192
455.000000	0.621016
454.000000	0.624226
453.000000	0.626980
452.000000	0.629103
451.000000	0.631723
450.000000	0.635201
449.000000	0.638099
448.000000	0.641307
447.000000	0.644430
446.000000	0.646607
445.000000	0.649532
444.000000	0.652579
443.000000	0.655785
442.000000	0.658799
441.000000	0.661550
440.000000	0.664407
439.000000	0.667994
438.000000	0.671234
437.000000	0.673350
436.000000	0.676471
435.000000	0.679298
434.000000	0.682396
433.000000	0.684950
432.000000	0.687934
431.000000	0.691688
430.000000	0.694658
429.000000	0.697922
428.000000	0.701171
427.000000	0.703525
426.000000	0.706797
425.000000	0.710187
424.000000	0.713110
423.000000	0.716041
422.000000	0.720031
421.000000	0.723192
420.000000	0.725978
419.000000	0.729361
418.000000	0.732424
417.000000	0.736395
416.000000	0.739677
415.000000	0.742716
414.000000	0.745882
413.000000	0.749015
412.000000	0.751795
411.000000	0.755606
410.000000	0.759926
409.000000	0.763118
408.000000	0.765575
407.000000	0.769031
406.000000	0.772618
405.000000	0.776209
404.000000	0.779409
403.000000	0.783478
402.000000	0.787216
401.000000	0.790188
400.000000	0.792832
399.000000	0.797438
398.000000	0.801087
397.000000	0.804716
396.000000	0.807296
395.000000	0.810526
394.000000	0.814447
393.000000	0.818774
392.000000	0.822634
391.000000	0.824959
390.000000	0.828386
389.000000	0.832247
388.000000	0.836241
387.000000	0.839734
386.000000	0.843158
385.000000	0.847125
384.000000	0.851463
383.000000	0.854969
382.000000	0.857730
381.000000	0.862317
380.000000	0.866036
379.000000	0.868474
378.000000	0.875361
377.000000	0.877706
376.000000	0.878327
375.000000	0.882644
374.000000	0.886325
373.000000	0.891167
372.000000	0.894411
371.000000	0.898071
370.000000	0.902950
369.000000	0.905924
368.000000	0.907601
367.000000	0.911214
366.000000	0.913986
365.000000	0.918683
364.000000	0.922475
363.000000	0.926800
362.000000	0.931543
361.000000	0.933116
360.000000	0.939505
359.000000	0.942644
358.000000	0.945657
357.000000	0.951709
356.000000	0.954784
355.000000	0.957086
354.000000	0.960076
353.000000	0.964289
352.000000	0.967098
351.000000	0.969777
350.000000	0.978171
349.000000	0.980851
348.000000	0.982501
347.000000	0.984628
346.000000	0.991631
345.000000	0.996810
344.000000	1.000257
343.000000	1.003436
342.000000	1.006623
341.000000	1.008850
340.000000	1.012533
339.000000	1.019232
338.000000	1.024277
337.000000	1.028638
336.000000	1.029389
335.000000	1.036651
334.000000	1.042911
333.000000	1.041903
332.000000	1.046199
331.000000	1.052202
330.000000	1.054491
329.000000	1.057056
328.000000	1.065266
327.000000	1.065694
326.000000	1.074690
325.000000	1.076675
324.000000	1.079519
323.000000	1.083099
322.000000	1.083488
321.000000	1.086800
320.000000	1.094718
319.000000	1.092240
318.000000	1.096819
317.000000	1.100103
316.000000	1.097523
315.000000	1.103244
314.000000	1.107526
313.000000	1.109070
312.000000	1.111619
311.000000	1.115495
310.000000	1.117765
309.000000	1.117768
308.000000	1.117617
307.000000	1.118407
306.000000	1.123901
305.000000	1.122000
304.000000	1.124075
303.000000	1.129271
302.000000	1.131608
301.000000	1.127971
300.000000	1.135433
299.000000	1.130414
298.000000	1.129140
297.000000	1.134885
296.000000	1.133094
295.000000	1.137162
294.000000	1.137874
293.000000	1.135494
292.000000	1.135834
291.000000	1.138576
290.000000	1.136993
289.000000	1.139625
288.000000	1.137617
287.000000	1.140441
286.000000	1.140410
285.000000	1.140509
284.000000	1.142616
283.000000	1.139089
282.000000	1.138314
281.000000	1.138531
280.000000	1.134184
279.000000	1.137271
278.000000	1.137029
277.000000	1.136943
276.000000	1.131900
275.000000	1.129502
274.000000	1.126631
273.000000	1.127170
272.000000	1.127515
271.000000	1.126831
270.000000	1.123766
269.000000	1.122143
268.000000	1.121366
267.000000	1.117958
266.000000	1.115555
265.000000	1.111762
264.000000	1.109469
263.000000	1.107138
262.000000	1.104228
261.000000	1.098922
260.000000	1.097481
259.000000	1.094812
258.000000	1.089488
257.000000	1.086419
256.000000	1.084361
255.000000	1.079363
254.000000	1.074838
253.000000	1.070266
252.000000	1.063106
251.000000	1.059726
250.000000	1.057412
249.000000	1.053363
248.000000	1.045794
247.000000	1.039829
246.000000	1.035940
245.000000	1.032735
244.000000	1.026439
243.000000	1.020387
242.000000	1.016392
241.000000	1.014727
240.000000	1.009391
239.000000	1.004489
238.000000	1.001207
237.000000	0.997139
236.000000	0.994346
235.000000	0.990605
234.000000	0.987414
233.000000	0.984695
232.000000	0.977612
231.000000	0.973143
230.000000	0.971162
229.000000	0.967842
228.000000	0.963570
227.000000	0.960672
226.000000	0.956973
225.000000	0.955167
224.000000	0.951660
223.000000	0.946006
222.000000	0.938542
221.000000	0.934456
220.000000	0.931801
219.000000	0.927452
218.000000	0.922094
217.000000	0.912222
216.000000	0.907126
215.000000	0.904195
214.000000	0.897123
213.000000	0.889676
212.000000	0.882614
211.000000	0.876194
210.000000	0.867224
209.000000	0.859571
208.000000	0.849980
207.000000	0.835109
206.000000	0.819956
205.000000	0.812368
204.000000	0.801786
203.000000	0.784828
202.000000	0.773980
201.000000	0.757182
200.000000	0.740764
