PE IR       SUBTECH     SPECTRUM    ASCII       PEDS        4.00        
   -1
AG1-F001_1.ASC
23/09/08
11:31:12.00
23/09/08
11:39:14.00
uco
Sample 001 By uco Date Friday, September 08 2023
450.000000
#HDR
-1
-1
#GR
cm-1
%T
1.0
0.0
4000.000000
-1.000000
3551
8
99.828820
93.069218
#DATA
4000.000000	99.641361
3999.000000	99.642569
3998.000000	99.642310
3997.000000	99.641271
3996.000000	99.640031
3995.000000	99.639013
3994.000000	99.638267
3993.000000	99.637754
3992.000000	99.637819
3991.000000	99.639053
3990.000000	99.641342
3989.000000	99.643381
3988.000000	99.643642
3987.000000	99.641860
3986.000000	99.639165
3985.000000	99.636799
3984.000000	99.635146
3983.000000	99.633965
3982.000000	99.633115
3981.000000	99.632570
3980.000000	99.631815
3979.000000	99.629832
3978.000000	99.626245
3977.000000	99.622422
3976.000000	99.620914
3975.000000	99.623329
3974.000000	99.628469
3973.000000	99.632761
3972.000000	99.632929
3971.000000	99.628702
3970.000000	99.623075
3969.000000	99.619898
3968.000000	99.620792
3967.000000	99.624092
3966.000000	99.626576
3965.000000	99.626145
3964.000000	99.623377
3963.000000	99.620819
3962.000000	99.620700
3961.000000	99.623218
3960.000000	99.626658
3959.000000	99.629365
3958.000000	99.631374
3957.000000	99.633806
3956.000000	99.637097
3955.000000	99.640029
3954.000000	99.640600
3953.000000	99.637877
3952.000000	99.633119
3951.000000	99.629402
3950.000000	99.629539
3949.000000	99.633724
3948.000000	99.639074
3947.000000	99.641803
3946.000000	99.640336
3945.000000	99.636034
3944.000000	99.631600
3943.000000	99.628831
3942.000000	99.627083
3941.000000	99.624799
3940.000000	99.621635
3939.000000	99.618269
3938.000000	99.615080
3937.000000	99.611562
3936.000000	99.607487
3935.000000	99.604179
3934.000000	99.604172
3933.000000	99.609346
3932.000000	99.618388
3931.000000	99.626919
3930.000000	99.630701
3929.000000	99.628706
3928.000000	99.623152
3927.000000	99.617032
3926.000000	99.612797
3925.000000	99.611889
3924.000000	99.613865
3923.000000	99.616637
3922.000000	99.618294
3921.000000	99.618258
3920.000000	99.617067
3919.000000	99.615390
3918.000000	99.613644
3917.000000	99.612195
3916.000000	99.611496
3915.000000	99.612230
3914.000000	99.614838
3913.000000	99.619020
3912.000000	99.623068
3911.000000	99.624983
3910.000000	99.624189
3909.000000	99.622066
3908.000000	99.620591
3907.000000	99.620049
3906.000000	99.618584
3905.000000	99.614197
3904.000000	99.607366
3903.000000	99.601707
3902.000000	99.601023
3901.000000	99.605259
3900.000000	99.610911
3899.000000	99.614165
3898.000000	99.614038
3897.000000	99.612702
3896.000000	99.612100
3895.000000	99.611829
3894.000000	99.609800
3893.000000	99.604581
3892.000000	99.597450
3891.000000	99.591826
3890.000000	99.590276
3889.000000	99.592661
3888.000000	99.596484
3887.000000	99.599903
3886.000000	99.603782
3885.000000	99.608988
3884.000000	99.614398
3883.000000	99.618645
3882.000000	99.621650
3881.000000	99.623915
3880.000000	99.624688
3879.000000	99.622774
3878.000000	99.618876
3877.000000	99.614186
3876.000000	99.609667
3875.000000	99.607315
3874.000000	99.608335
3873.000000	99.610457
3872.000000	99.609939
3871.000000	99.606790
3870.000000	99.605391
3869.000000	99.608362
3868.000000	99.613229
3867.000000	99.615777
3866.000000	99.614257
3865.000000	99.610786
3864.000000	99.608318
3863.000000	99.607672
3862.000000	99.607889
3861.000000	99.608604
3860.000000	99.610816
3859.000000	99.615531
3858.000000	99.622549
3857.000000	99.629560
3856.000000	99.633187
3855.000000	99.632876
3854.000000	99.633746
3853.000000	99.638031
3852.000000	99.640169
3851.000000	99.637662
3850.000000	99.632191
3849.000000	99.625842
3848.000000	99.620274
3847.000000	99.616446
3846.000000	99.614323
3845.000000	99.612891
3844.000000	99.611274
3843.000000	99.610369
3842.000000	99.611492
3841.000000	99.614660
3840.000000	99.618506
3839.000000	99.621285
3838.000000	99.621714
3837.000000	99.619018
3836.000000	99.613084
3835.000000	99.605009
3834.000000	99.597033
3833.000000	99.592208
3832.000000	99.592979
3831.000000	99.598529
3830.000000	99.605473
3829.000000	99.610525
3828.000000	99.612317
3827.000000	99.611929
3826.000000	99.611519
3825.000000	99.612461
3824.000000	99.614574
3823.000000	99.617920
3822.000000	99.623657
3821.000000	99.630378
3820.000000	99.633236
3819.000000	99.631181
3818.000000	99.627019
3817.000000	99.622654
3816.000000	99.619223
3815.000000	99.615957
3814.000000	99.612140
3813.000000	99.609277
3812.000000	99.609385
3811.000000	99.613193
3810.000000	99.619065
3809.000000	99.623398
3808.000000	99.623043
3807.000000	99.617719
3806.000000	99.610029
3805.000000	99.603782
3804.000000	99.600886
3803.000000	99.601891
3802.000000	99.607194
3801.000000	99.613639
3800.000000	99.615666
3799.000000	99.612839
3798.000000	99.607710
3797.000000	99.602396
3796.000000	99.598663
3795.000000	99.597662
3794.000000	99.599308
3793.000000	99.601954
3792.000000	99.603327
3791.000000	99.602492
3790.000000	99.600970
3789.000000	99.601594
3788.000000	99.606327
3787.000000	99.614257
3786.000000	99.621860
3785.000000	99.625548
3784.000000	99.624553
3783.000000	99.621271
3782.000000	99.618915
3781.000000	99.619051
3780.000000	99.620651
3779.000000	99.621051
3778.000000	99.618759
3777.000000	99.615307
3776.000000	99.612914
3775.000000	99.612086
3774.000000	99.611520
3773.000000	99.609509
3772.000000	99.605794
3771.000000	99.602434
3770.000000	99.601622
3769.000000	99.602765
3768.000000	99.604208
3767.000000	99.605534
3766.000000	99.607213
3765.000000	99.609511
3764.000000	99.612070
3763.000000	99.614469
3762.000000	99.616641
3761.000000	99.618785
3760.000000	99.619992
3759.000000	99.618030
3758.000000	99.612412
3757.000000	99.606441
3756.000000	99.604021
3755.000000	99.605863
3754.000000	99.609671
3753.000000	99.613218
3752.000000	99.616778
3751.000000	99.621328
3750.000000	99.625141
3749.000000	99.627478
3748.000000	99.631307
3747.000000	99.637772
3746.000000	99.644459
3745.000000	99.647230
3744.000000	99.641016
3743.000000	99.626935
3742.000000	99.613181
3741.000000	99.605119
3740.000000	99.603283
3739.000000	99.604825
3738.000000	99.605911
3737.000000	99.605675
3736.000000	99.608415
3735.000000	99.616852
3734.000000	99.624231
3733.000000	99.622550
3732.000000	99.613446
3731.000000	99.605362
3730.000000	99.604259
3729.000000	99.609253
3728.000000	99.616380
3727.000000	99.622949
3726.000000	99.628207
3725.000000	99.631425
3724.000000	99.631517
3723.000000	99.628206
3722.000000	99.622147
3721.000000	99.615185
3720.000000	99.609143
3719.000000	99.604402
3718.000000	99.600643
3717.000000	99.597911
3716.000000	99.596358
3715.000000	99.595712
3714.000000	99.595896
3713.000000	99.598294
3712.000000	99.604691
3711.000000	99.613342
3710.000000	99.619294
3709.000000	99.619448
3708.000000	99.614941
3707.000000	99.608736
3706.000000	99.602869
3705.000000	99.598671
3704.000000	99.597347
3703.000000	99.600057
3702.000000	99.606526
3701.000000	99.613657
3700.000000	99.617763
3699.000000	99.617591
3698.000000	99.615022
3697.000000	99.614304
3696.000000	99.619215
3695.000000	99.629700
3694.000000	99.642023
3693.000000	99.651940
3692.000000	99.657009
3691.000000	99.656606
3690.000000	99.650948
3689.000000	99.640331
3688.000000	99.626660
3687.000000	99.614875
3686.000000	99.608774
3685.000000	99.607833
3684.000000	99.609057
3683.000000	99.609693
3682.000000	99.609047
3681.000000	99.608546
3680.000000	99.610384
3679.000000	99.614627
3678.000000	99.618621
3677.000000	99.621792
3676.000000	99.628389
3675.000000	99.637704
3674.000000	99.642453
3673.000000	99.641439
3672.000000	99.637135
3671.000000	99.632695
3670.000000	99.630615
3669.000000	99.626827
3668.000000	99.616821
3667.000000	99.603855
3666.000000	99.593403
3665.000000	99.588504
3664.000000	99.588868
3663.000000	99.591410
3662.000000	99.592834
3661.000000	99.592144
3660.000000	99.590861
3659.000000	99.590514
3658.000000	99.590947
3657.000000	99.590960
3656.000000	99.589539
3655.000000	99.587065
3654.000000	99.584869
3653.000000	99.583128
3652.000000	99.581026
3651.000000	99.579217
3650.000000	99.581179
3649.000000	99.589486
3648.000000	99.599406
3647.000000	99.602409
3646.000000	99.596190
3645.000000	99.584733
3644.000000	99.572661
3643.000000	99.562899
3642.000000	99.557080
3641.000000	99.555639
3640.000000	99.557979
3639.000000	99.562546
3638.000000	99.566431
3637.000000	99.566453
3636.000000	99.561625
3635.000000	99.554467
3634.000000	99.548977
3633.000000	99.546570
3632.000000	99.544539
3631.000000	99.538921
3630.000000	99.529247
3629.000000	99.520093
3628.000000	99.514574
3627.000000	99.512524
3626.000000	99.513738
3625.000000	99.516007
3624.000000	99.516801
3623.000000	99.515328
3622.000000	99.512092
3621.000000	99.508094
3620.000000	99.504199
3619.000000	99.499946
3618.000000	99.494620
3617.000000	99.489721
3616.000000	99.487624
3615.000000	99.488996
3614.000000	99.491936
3613.000000	99.491971
3612.000000	99.484731
3611.000000	99.470553
3610.000000	99.454979
3609.000000	99.445590
3608.000000	99.446455
3607.000000	99.454372
3606.000000	99.462898
3605.000000	99.467990
3604.000000	99.469053
3603.000000	99.467396
3602.000000	99.465371
3601.000000	99.465466
3600.000000	99.468173
3599.000000	99.470903
3598.000000	99.470538
3597.000000	99.465915
3596.000000	99.457796
3595.000000	99.447993
3594.000000	99.438216
3593.000000	99.430048
3592.000000	99.425003
3591.000000	99.423973
3590.000000	99.427079
3589.000000	99.434291
3588.000000	99.444129
3587.000000	99.451322
3586.000000	99.449863
3585.000000	99.440249
3584.000000	99.428113
3583.000000	99.417931
3582.000000	99.410909
3581.000000	99.406598
3580.000000	99.404441
3579.000000	99.404146
3578.000000	99.405037
3577.000000	99.405824
3576.000000	99.405028
3575.000000	99.401637
3574.000000	99.395787
3573.000000	99.388882
3572.000000	99.383176
3571.000000	99.379856
3570.000000	99.377491
3569.000000	99.372977
3568.000000	99.365663
3567.000000	99.359462
3566.000000	99.357940
3565.000000	99.359732
3564.000000	99.362143
3563.000000	99.363795
3562.000000	99.363878
3561.000000	99.361588
3560.000000	99.356836
3559.000000	99.350347
3558.000000	99.342777
3557.000000	99.333981
3556.000000	99.324011
3555.000000	99.314574
3554.000000	99.308872
3553.000000	99.308843
3552.000000	99.312549
3551.000000	99.315311
3550.000000	99.313705
3549.000000	99.307685
3548.000000	99.299896
3547.000000	99.294043
3546.000000	99.292513
3545.000000	99.294034
3544.000000	99.294541
3543.000000	99.291302
3542.000000	99.285120
3541.000000	99.278838
3540.000000	99.274753
3539.000000	99.273320
3538.000000	99.273834
3537.000000	99.275516
3536.000000	99.277543
3535.000000	99.278399
3534.000000	99.275996
3533.000000	99.269281
3532.000000	99.259469
3531.000000	99.249368
3530.000000	99.240940
3529.000000	99.233515
3528.000000	99.225193
3527.000000	99.216064
3526.000000	99.209126
3525.000000	99.207580
3524.000000	99.211559
3523.000000	99.217527
3522.000000	99.221015
3521.000000	99.219877
3520.000000	99.214981
3519.000000	99.208474
3518.000000	99.202096
3517.000000	99.196622
3516.000000	99.191638
3515.000000	99.185864
3514.000000	99.178133
3513.000000	99.169212
3512.000000	99.162628
3511.000000	99.162581
3510.000000	99.169621
3509.000000	99.178732
3508.000000	99.183307
3507.000000	99.181043
3506.000000	99.175079
3505.000000	99.169809
3504.000000	99.166585
3503.000000	99.162999
3502.000000	99.156254
3501.000000	99.146984
3500.000000	99.139000
3499.000000	99.135383
3498.000000	99.135381
3497.000000	99.135172
3496.000000	99.131452
3495.000000	99.124155
3494.000000	99.115784
3493.000000	99.108962
3492.000000	99.105254
3491.000000	99.105349
3490.000000	99.108751
3489.000000	99.113148
3488.000000	99.115271
3487.000000	99.113273
3486.000000	99.108119
3485.000000	99.102231
3484.000000	99.097161
3483.000000	99.093043
3482.000000	99.089693
3481.000000	99.087465
3480.000000	99.086885
3479.000000	99.087867
3478.000000	99.089583
3477.000000	99.090761
3476.000000	99.089882
3475.000000	99.085420
3474.000000	99.076764
3473.000000	99.065441
3472.000000	99.055120
3471.000000	99.049524
3470.000000	99.049544
3469.000000	99.052402
3468.000000	99.054068
3467.000000	99.052706
3466.000000	99.049808
3465.000000	99.048031
3464.000000	99.048349
3463.000000	99.049379
3462.000000	99.049097
3461.000000	99.046804
3460.000000	99.043350
3459.000000	99.039772
3458.000000	99.036152
3457.000000	99.031870
3456.000000	99.026727
3455.000000	99.021547
3454.000000	99.017381
3453.000000	99.014518
3452.000000	99.012273
3451.000000	99.009648
3450.000000	99.005895
3449.000000	99.000735
3448.000000	98.994733
3447.000000	98.989504
3446.000000	98.986771
3445.000000	98.986909
3444.000000	98.988625
3443.000000	98.990105
3442.000000	98.990401
3441.000000	98.989667
3440.000000	98.988476
3439.000000	98.987332
3438.000000	98.986694
3437.000000	98.986864
3436.000000	98.987434
3435.000000	98.986977
3434.000000	98.983546
3433.000000	98.976115
3432.000000	98.965720
3431.000000	98.955467
3430.000000	98.949050
3429.000000	98.948561
3428.000000	98.953031
3427.000000	98.958710
3426.000000	98.961179
3425.000000	98.958174
3424.000000	98.951143
3423.000000	98.943988
3422.000000	98.939745
3421.000000	98.938274
3420.000000	98.937316
3419.000000	98.935469
3418.000000	98.933245
3417.000000	98.931393
3416.000000	98.929437
3415.000000	98.926257
3414.000000	98.921342
3413.000000	98.914894
3412.000000	98.907387
3411.000000	98.899727
3410.000000	98.893475
3409.000000	98.890149
3408.000000	98.890176
3407.000000	98.892786
3406.000000	98.896703
3405.000000	98.900519
3404.000000	98.902773
3403.000000	98.902486
3402.000000	98.899784
3401.000000	98.895702
3400.000000	98.891189
3399.000000	98.886671
3398.000000	98.882542
3397.000000	98.879494
3396.000000	98.877980
3395.000000	98.877610
3394.000000	98.877454
3393.000000	98.876978
3392.000000	98.876458
3391.000000	98.876307
3390.000000	98.876134
3389.000000	98.874833
3388.000000	98.871844
3387.000000	98.868254
3386.000000	98.866155
3385.000000	98.866386
3384.000000	98.867032
3383.000000	98.864753
3382.000000	98.857814
3381.000000	98.847729
3380.000000	98.837967
3379.000000	98.831273
3378.000000	98.828152
3377.000000	98.827400
3376.000000	98.827609
3375.000000	98.828052
3374.000000	98.828396
3373.000000	98.827915
3372.000000	98.825477
3371.000000	98.820656
3370.000000	98.814785
3369.000000	98.810325
3368.000000	98.808867
3367.000000	98.809809
3366.000000	98.810998
3365.000000	98.810318
3364.000000	98.806594
3363.000000	98.799789
3362.000000	98.791113
3361.000000	98.782606
3360.000000	98.775750
3359.000000	98.770382
3358.000000	98.765332
3357.000000	98.759996
3356.000000	98.754771
3355.000000	98.750160
3354.000000	98.746377
3353.000000	98.743900
3352.000000	98.743384
3351.000000	98.744307
3350.000000	98.744307
3349.000000	98.740924
3348.000000	98.734331
3347.000000	98.728017
3346.000000	98.726235
3345.000000	98.730289
3344.000000	98.736920
3343.000000	98.740741
3342.000000	98.738994
3341.000000	98.734079
3340.000000	98.730972
3339.000000	98.732127
3338.000000	98.735411
3337.000000	98.736891
3336.000000	98.734685
3335.000000	98.729606
3334.000000	98.722895
3333.000000	98.714525
3332.000000	98.703844
3331.000000	98.691121
3330.000000	98.678320
3329.000000	98.668427
3328.000000	98.663610
3327.000000	98.663579
3326.000000	98.665860
3325.000000	98.667936
3324.000000	98.668784
3323.000000	98.668253
3322.000000	98.665928
3321.000000	98.661744
3320.000000	98.657145
3319.000000	98.654279
3318.000000	98.653664
3317.000000	98.653389
3316.000000	98.650990
3315.000000	98.645698
3314.000000	98.638791
3313.000000	98.632360
3312.000000	98.627936
3311.000000	98.625724
3310.000000	98.624754
3309.000000	98.623943
3308.000000	98.623010
3307.000000	98.622026
3306.000000	98.620439
3305.000000	98.617453
3304.000000	98.613436
3303.000000	98.610026
3302.000000	98.608306
3301.000000	98.607587
3300.000000	98.606628
3299.000000	98.605466
3298.000000	98.605120
3297.000000	98.605909
3296.000000	98.606723
3295.000000	98.605873
3294.000000	98.602088
3293.000000	98.595025
3292.000000	98.585944
3291.000000	98.578000
3290.000000	98.574619
3289.000000	98.576620
3288.000000	98.581187
3287.000000	98.584286
3286.000000	98.583950
3285.000000	98.580794
3284.000000	98.575923
3283.000000	98.569613
3282.000000	98.562500
3281.000000	98.556923
3280.000000	98.555712
3279.000000	98.559639
3278.000000	98.566998
3277.000000	98.575700
3276.000000	98.584724
3275.000000	98.593069
3274.000000	98.598611
3273.000000	98.599500
3272.000000	98.596345
3271.000000	98.591802
3270.000000	98.587796
3269.000000	98.584371
3268.000000	98.581571
3267.000000	98.581146
3266.000000	98.585142
3265.000000	98.592880
3264.000000	98.600490
3263.000000	98.604182
3262.000000	98.603879
3261.000000	98.603275
3260.000000	98.606268
3259.000000	98.613362
3258.000000	98.621587
3257.000000	98.627584
3256.000000	98.630356
3255.000000	98.631384
3254.000000	98.632872
3253.000000	98.636384
3252.000000	98.642388
3251.000000	98.650201
3250.000000	98.658230
3249.000000	98.664802
3248.000000	98.668996
3247.000000	98.670649
3246.000000	98.670058
3245.000000	98.668108
3244.000000	98.666315
3243.000000	98.665994
3242.000000	98.667393
3241.000000	98.669970
3240.000000	98.673264
3239.000000	98.676956
3238.000000	98.680568
3237.000000	98.684017
3236.000000	98.688265
3235.000000	98.694282
3234.000000	98.701139
3233.000000	98.706232
3232.000000	98.707901
3231.000000	98.707300
3230.000000	98.707126
3229.000000	98.709037
3228.000000	98.712684
3227.000000	98.716644
3226.000000	98.719792
3225.000000	98.722119
3224.000000	98.724678
3223.000000	98.728422
3222.000000	98.732718
3221.000000	98.735349
3220.000000	98.734457
3219.000000	98.730441
3218.000000	98.725711
3217.000000	98.722734
3216.000000	98.722555
3215.000000	98.724760
3214.000000	98.728397
3213.000000	98.732785
3212.000000	98.737472
3211.000000	98.741545
3210.000000	98.743673
3209.000000	98.743565
3208.000000	98.743057
3207.000000	98.744662
3206.000000	98.748877
3205.000000	98.753942
3204.000000	98.758437
3203.000000	98.762865
3202.000000	98.767849
3201.000000	98.772103
3200.000000	98.773880
3199.000000	98.774066
3198.000000	98.775939
3197.000000	98.781358
3196.000000	98.788357
3195.000000	98.793359
3194.000000	98.794865
3193.000000	98.794081
3192.000000	98.792706
3191.000000	98.791243
3190.000000	98.789568
3189.000000	98.788106
3188.000000	98.787731
3187.000000	98.788692
3186.000000	98.790216
3185.000000	98.791290
3184.000000	98.791915
3183.000000	98.793523
3182.000000	98.798044
3181.000000	98.806014
3180.000000	98.815266
3179.000000	98.821978
3178.000000	98.824005
3177.000000	98.823246
3176.000000	98.823784
3175.000000	98.827333
3174.000000	98.831372
3173.000000	98.832474
3172.000000	98.830727
3171.000000	98.829973
3170.000000	98.833797
3169.000000	98.842382
3168.000000	98.852980
3167.000000	98.862184
3166.000000	98.867344
3165.000000	98.867435
3164.000000	98.864093
3163.000000	98.861377
3162.000000	98.863022
3161.000000	98.869190
3160.000000	98.876296
3159.000000	98.880043
3158.000000	98.878660
3157.000000	98.873593
3156.000000	98.868204
3155.000000	98.865993
3154.000000	98.869130
3153.000000	98.877247
3152.000000	98.887203
3151.000000	98.894743
3150.000000	98.897360
3149.000000	98.896059
3148.000000	98.894120
3147.000000	98.894064
3146.000000	98.895919
3145.000000	98.898492
3144.000000	98.901679
3143.000000	98.906810
3142.000000	98.914726
3141.000000	98.924346
3140.000000	98.933476
3139.000000	98.940678
3138.000000	98.945866
3137.000000	98.949337
3136.000000	98.950783
3135.000000	98.949598
3134.000000	98.946170
3133.000000	98.942576
3132.000000	98.941347
3131.000000	98.943223
3130.000000	98.946434
3129.000000	98.948606
3128.000000	98.949159
3127.000000	98.949526
3126.000000	98.951233
3125.000000	98.954297
3124.000000	98.957324
3123.000000	98.958514
3122.000000	98.956724
3121.000000	98.952509
3120.000000	98.948373
3119.000000	98.947283
3118.000000	98.950311
3117.000000	98.955940
3116.000000	98.961613
3115.000000	98.965501
3114.000000	98.966826
3113.000000	98.965728
3112.000000	98.963391
3111.000000	98.961544
3110.000000	98.960894
3109.000000	98.960518
3108.000000	98.959407
3107.000000	98.958253
3106.000000	98.958906
3105.000000	98.962421
3104.000000	98.968251
3103.000000	98.974799
3102.000000	98.979932
3101.000000	98.981440
3100.000000	98.978494
3099.000000	98.972826
3098.000000	98.967618
3097.000000	98.964951
3096.000000	98.964808
3095.000000	98.965953
3094.000000	98.966784
3093.000000	98.965530
3092.000000	98.961325
3091.000000	98.955710
3090.000000	98.951987
3089.000000	98.952163
3088.000000	98.955028
3087.000000	98.957872
3086.000000	98.959469
3085.000000	98.960693
3084.000000	98.962713
3083.000000	98.965348
3082.000000	98.967121
3081.000000	98.966513
3080.000000	98.963560
3079.000000	98.960575
3078.000000	98.960773
3077.000000	98.965356
3076.000000	98.971950
3075.000000	98.976328
3074.000000	98.975704
3073.000000	98.970510
3072.000000	98.963724
3071.000000	98.959044
3070.000000	98.958984
3069.000000	98.963272
3068.000000	98.968807
3067.000000	98.971972
3066.000000	98.971640
3065.000000	98.969733
3064.000000	98.968740
3063.000000	98.969332
3062.000000	98.970647
3061.000000	98.972035
3060.000000	98.973576
3059.000000	98.975142
3058.000000	98.976023
3057.000000	98.975938
3056.000000	98.975814
3055.000000	98.976994
3054.000000	98.979806
3053.000000	98.983439
3052.000000	98.987035
3051.000000	98.990302
3050.000000	98.993017
3049.000000	98.994698
3048.000000	98.995363
3047.000000	98.996222
3046.000000	98.998789
3045.000000	99.003084
3044.000000	99.007220
3043.000000	99.009091
3042.000000	99.008305
3041.000000	99.006239
3040.000000	99.004545
3039.000000	99.004039
3038.000000	99.004777
3037.000000	99.006416
3036.000000	99.008191
3035.000000	99.009138
3034.000000	99.009103
3033.000000	99.009337
3032.000000	99.011405
3031.000000	99.015268
3030.000000	99.019123
3029.000000	99.021507
3028.000000	99.022937
3027.000000	99.025095
3026.000000	99.028898
3025.000000	99.033997
3024.000000	99.039788
3023.000000	99.045998
3022.000000	99.052153
3021.000000	99.057249
3020.000000	99.060433
3019.000000	99.061589
3018.000000	99.061035
3017.000000	99.059073
3016.000000	99.056315
3015.000000	99.053994
3014.000000	99.053131
3013.000000	99.053217
3012.000000	99.052278
3011.000000	99.048745
3010.000000	99.043196
3009.000000	99.037989
3008.000000	99.035215
3007.000000	99.035369
3006.000000	99.038037
3005.000000	99.043040
3004.000000	99.049969
3003.000000	99.056737
3002.000000	99.060011
3001.000000	99.058107
3000.000000	99.052923
2999.000000	99.048248
2998.000000	99.046426
2997.000000	99.047330
2996.000000	99.049814
2995.000000	99.052720
2994.000000	99.054509
2993.000000	99.053625
2992.000000	99.050038
2991.000000	99.045535
2990.000000	99.041829
2989.000000	99.038930
2988.000000	99.035831
2987.000000	99.031902
2986.000000	99.026964
2985.000000	99.020821
2984.000000	99.013671
2983.000000	99.006584
2982.000000	99.000486
2981.000000	98.994645
2980.000000	98.986893
2979.000000	98.975563
2978.000000	98.961150
2977.000000	98.946226
2976.000000	98.933955
2975.000000	98.926117
2974.000000	98.921857
2973.000000	98.918428
2972.000000	98.913430
2971.000000	98.906053
2970.000000	98.896017
2969.000000	98.882354
2968.000000	98.864304
2967.000000	98.843031
2966.000000	98.821136
2965.000000	98.800326
2964.000000	98.780217
2963.000000	98.759670
2962.000000	98.738586
2961.000000	98.718325
2960.000000	98.700986
2959.000000	98.688337
2958.000000	98.680802
2957.000000	98.677035
2956.000000	98.674982
2955.000000	98.673619
2954.000000	98.673497
2953.000000	98.675397
2952.000000	98.678689
2951.000000	98.681178
2950.000000	98.680487
2949.000000	98.675904
2948.000000	98.669161
2947.000000	98.663155
2946.000000	98.659023
2945.000000	98.654317
2944.000000	98.644653
2943.000000	98.627559
2942.000000	98.604490
2941.000000	98.579017
2940.000000	98.553499
2939.000000	98.527743
2938.000000	98.500226
2937.000000	98.469985
2936.000000	98.437218
2935.000000	98.402541
2934.000000	98.366073
2933.000000	98.327492
2932.000000	98.287050
2931.000000	98.246088
2930.000000	98.206059
2929.000000	98.167210
2928.000000	98.128935
2927.000000	98.091490
2926.000000	98.056447
2925.000000	98.025140
2924.000000	97.997432
2923.000000	97.972746
2922.000000	97.951566
2921.000000	97.935057
2920.000000	97.924047
2919.000000	97.919586
2918.000000	97.924350
2917.000000	97.941758
2916.000000	97.972923
2915.000000	98.015392
2914.000000	98.065216
2913.000000	98.119516
2912.000000	98.176159
2911.000000	98.232130
2910.000000	98.283695
2909.000000	98.328583
2908.000000	98.367058
2907.000000	98.400444
2906.000000	98.429207
2905.000000	98.452955
2904.000000	98.471945
2903.000000	98.487885
2902.000000	98.503113
2901.000000	98.519526
2900.000000	98.537351
2899.000000	98.555510
2898.000000	98.572258
2897.000000	98.586384
2896.000000	98.598164
2895.000000	98.609269
2894.000000	98.621424
2893.000000	98.634836
2892.000000	98.647883
2891.000000	98.658579
2890.000000	98.666612
2889.000000	98.673766
2888.000000	98.682110
2887.000000	98.691942
2886.000000	98.701939
2885.000000	98.711034
2884.000000	98.719291
2883.000000	98.726645
2882.000000	98.731916
2881.000000	98.734094
2880.000000	98.734245
2879.000000	98.734825
2878.000000	98.736877
2877.000000	98.738668
2876.000000	98.737600
2875.000000	98.733029
2874.000000	98.726864
2873.000000	98.721666
2872.000000	98.718491
2871.000000	98.716466
2870.000000	98.714132
2869.000000	98.711107
2868.000000	98.708271
2867.000000	98.706244
2866.000000	98.703841
2865.000000	98.698419
2864.000000	98.687619
2863.000000	98.670570
2862.000000	98.647781
2861.000000	98.620656
2860.000000	98.591046
2859.000000	98.560163
2858.000000	98.527541
2857.000000	98.491779
2856.000000	98.452948
2855.000000	98.413685
2854.000000	98.377603
2853.000000	98.346986
2852.000000	98.322720
2851.000000	98.306492
2850.000000	98.302345
2849.000000	98.315751
2848.000000	98.350203
2847.000000	98.403816
2846.000000	98.468902
2845.000000	98.535774
2844.000000	98.597709
2843.000000	98.652773
2842.000000	98.701485
2841.000000	98.743897
2840.000000	98.779491
2839.000000	98.808437
2838.000000	98.831800
2837.000000	98.850971
2836.000000	98.867754
2835.000000	98.884325
2834.000000	98.901755
2833.000000	98.918786
2832.000000	98.933225
2831.000000	98.944520
2830.000000	98.953789
2829.000000	98.961580
2828.000000	98.967162
2827.000000	98.970475
2826.000000	98.973248
2825.000000	98.977054
2824.000000	98.981220
2823.000000	98.983968
2822.000000	98.985200
2821.000000	98.986896
2820.000000	98.990684
2819.000000	98.996100
2818.000000	99.001677
2817.000000	99.006864
2816.000000	99.012161
2815.000000	99.017776
2814.000000	99.022939
2813.000000	99.026659
2812.000000	99.028695
2811.000000	99.029719
2810.000000	99.030997
2809.000000	99.033987
2808.000000	99.039572
2807.000000	99.047010
2806.000000	99.053978
2805.000000	99.058471
2804.000000	99.060843
2803.000000	99.063268
2802.000000	99.066918
2801.000000	99.070373
2800.000000	99.071397
2799.000000	99.069770
2798.000000	99.067719
2797.000000	99.067783
2796.000000	99.070990
2795.000000	99.076815
2794.000000	99.083792
2793.000000	99.089708
2792.000000	99.092174
2791.000000	99.090267
2790.000000	99.085882
2789.000000	99.082822
2788.000000	99.083980
2787.000000	99.089176
2786.000000	99.095611
2785.000000	99.100180
2784.000000	99.101392
2783.000000	99.099806
2782.000000	99.097459
2781.000000	99.096985
2780.000000	99.100265
2779.000000	99.107002
2778.000000	99.114615
2777.000000	99.120096
2776.000000	99.121991
2775.000000	99.120554
2774.000000	99.116710
2773.000000	99.111873
2772.000000	99.108264
2771.000000	99.107750
2770.000000	99.109910
2769.000000	99.112409
2768.000000	99.113926
2767.000000	99.115549
2766.000000	99.118535
2765.000000	99.121751
2764.000000	99.122685
2763.000000	99.120401
2762.000000	99.116373
2761.000000	99.112816
2760.000000	99.111328
2759.000000	99.112697
2758.000000	99.116513
2757.000000	99.120942
2756.000000	99.124280
2755.000000	99.127104
2754.000000	99.131700
2753.000000	99.138845
2752.000000	99.146181
2751.000000	99.150525
2750.000000	99.151078
2749.000000	99.149762
2748.000000	99.149015
2747.000000	99.149836
2746.000000	99.151513
2745.000000	99.152496
2744.000000	99.151740
2743.000000	99.149653
2742.000000	99.147558
2741.000000	99.146023
2740.000000	99.144231
2739.000000	99.141382
2738.000000	99.138200
2737.000000	99.136352
2736.000000	99.136520
2735.000000	99.137609
2734.000000	99.137854
2733.000000	99.136389
2732.000000	99.133915
2731.000000	99.132189
2730.000000	99.132735
2729.000000	99.135615
2728.000000	99.139392
2727.000000	99.142523
2726.000000	99.144687
2725.000000	99.146701
2724.000000	99.149490
2723.000000	99.153419
2722.000000	99.158221
2721.000000	99.162977
2720.000000	99.166298
2719.000000	99.167198
2718.000000	99.165930
2717.000000	99.163612
2716.000000	99.160983
2715.000000	99.158025
2714.000000	99.154879
2713.000000	99.152571
2712.000000	99.152339
2711.000000	99.154447
2710.000000	99.158085
2709.000000	99.162351
2708.000000	99.166909
2707.000000	99.171591
2706.000000	99.175713
2705.000000	99.178163
2704.000000	99.178261
2703.000000	99.176410
2702.000000	99.173820
2701.000000	99.171651
2700.000000	99.170455
2699.000000	99.170240
2698.000000	99.170788
2697.000000	99.171786
2696.000000	99.172808
2695.000000	99.173360
2694.000000	99.173044
2693.000000	99.171854
2692.000000	99.170561
2691.000000	99.170687
2690.000000	99.173444
2689.000000	99.178265
2688.000000	99.182715
2687.000000	99.184515
2686.000000	99.183687
2685.000000	99.182250
2684.000000	99.181790
2683.000000	99.181971
2682.000000	99.181673
2681.000000	99.180865
2680.000000	99.180588
2679.000000	99.181293
2678.000000	99.181957
2677.000000	99.181075
2676.000000	99.178135
2675.000000	99.174042
2674.000000	99.170441
2673.000000	99.168783
2672.000000	99.169628
2671.000000	99.172534
2670.000000	99.176616
2669.000000	99.181303
2668.000000	99.186389
2667.000000	99.191374
2666.000000	99.195138
2665.000000	99.196481
2664.000000	99.194796
2663.000000	99.190143
2662.000000	99.183219
2661.000000	99.175641
2660.000000	99.169853
2659.000000	99.167798
2658.000000	99.169338
2657.000000	99.172365
2656.000000	99.174837
2655.000000	99.176563
2654.000000	99.178733
2653.000000	99.181868
2652.000000	99.184662
2651.000000	99.185241
2650.000000	99.183573
2649.000000	99.182241
2648.000000	99.184288
2647.000000	99.190126
2646.000000	99.196838
2645.000000	99.200747
2644.000000	99.200546
2643.000000	99.197909
2642.000000	99.195568
2641.000000	99.195183
2640.000000	99.196602
2639.000000	99.198476
2638.000000	99.199623
2637.000000	99.200303
2636.000000	99.202164
2635.000000	99.206436
2634.000000	99.212139
2633.000000	99.216523
2632.000000	99.217418
2631.000000	99.215006
2630.000000	99.211474
2629.000000	99.209393
2628.000000	99.210152
2627.000000	99.213261
2626.000000	99.217034
2625.000000	99.220339
2624.000000	99.223517
2623.000000	99.227207
2622.000000	99.230852
2621.000000	99.233437
2620.000000	99.235303
2619.000000	99.237688
2618.000000	99.240250
2617.000000	99.240687
2616.000000	99.237540
2615.000000	99.231855
2614.000000	99.225342
2613.000000	99.218536
2612.000000	99.212170
2611.000000	99.208695
2610.000000	99.210020
2609.000000	99.214491
2608.000000	99.218594
2607.000000	99.221763
2606.000000	99.227060
2605.000000	99.236449
2604.000000	99.247491
2603.000000	99.255844
2602.000000	99.259470
2601.000000	99.259072
2600.000000	99.256001
2599.000000	99.251614
2598.000000	99.247692
2597.000000	99.245391
2596.000000	99.243920
2595.000000	99.241910
2594.000000	99.239964
2593.000000	99.240016
2592.000000	99.241936
2591.000000	99.242903
2590.000000	99.241251
2589.000000	99.239187
2588.000000	99.240016
2587.000000	99.243611
2586.000000	99.246713
2585.000000	99.247473
2584.000000	99.247929
2583.000000	99.251465
2582.000000	99.259138
2581.000000	99.269061
2580.000000	99.278345
2579.000000	99.284945
2578.000000	99.288396
2577.000000	99.289593
2576.000000	99.289666
2575.000000	99.288812
2574.000000	99.286718
2573.000000	99.284104
2572.000000	99.282531
2571.000000	99.282134
2570.000000	99.280956
2569.000000	99.277905
2568.000000	99.275344
2567.000000	99.276706
2566.000000	99.281780
2565.000000	99.286207
2564.000000	99.286145
2563.000000	99.282092
2562.000000	99.277518
2561.000000	99.275112
2560.000000	99.275121
2559.000000	99.276253
2558.000000	99.276790
2557.000000	99.275133
2556.000000	99.270541
2555.000000	99.263831
2554.000000	99.257184
2553.000000	99.253140
2552.000000	99.253483
2551.000000	99.258234
2550.000000	99.265204
2549.000000	99.271178
2548.000000	99.274441
2547.000000	99.276193
2546.000000	99.278706
2545.000000	99.281999
2544.000000	99.283170
2543.000000	99.279760
2542.000000	99.273321
2541.000000	99.268693
2540.000000	99.269363
2539.000000	99.274303
2538.000000	99.279869
2537.000000	99.283916
2536.000000	99.286650
2535.000000	99.287754
2534.000000	99.284750
2533.000000	99.275657
2532.000000	99.262342
2531.000000	99.249977
2530.000000	99.243293
2529.000000	99.244144
2528.000000	99.251616
2527.000000	99.262608
2526.000000	99.272274
2525.000000	99.276082
2524.000000	99.273097
2523.000000	99.266757
2522.000000	99.261328
2521.000000	99.257776
2520.000000	99.253894
2519.000000	99.248280
2518.000000	99.242954
2517.000000	99.241277
2516.000000	99.243579
2515.000000	99.245914
2514.000000	99.243610
2513.000000	99.235707
2512.000000	99.225683
2511.000000	99.218344
2510.000000	99.216671
2509.000000	99.220869
2508.000000	99.228614
2507.000000	99.235673
2506.000000	99.237904
2505.000000	99.234265
2504.000000	99.227901
2503.000000	99.223412
2502.000000	99.223117
2501.000000	99.226387
2500.000000	99.231924
2499.000000	99.239564
2498.000000	99.249573
2497.000000	99.260860
2496.000000	99.270685
2495.000000	99.276501
2494.000000	99.278118
2493.000000	99.277564
2492.000000	99.276640
2491.000000	99.275448
2490.000000	99.274155
2489.000000	99.274972
2488.000000	99.280164
2487.000000	99.288324
2486.000000	99.295170
2485.000000	99.298510
2484.000000	99.299952
2483.000000	99.300581
2482.000000	99.298118
2481.000000	99.290920
2480.000000	99.282525
2479.000000	99.278506
2478.000000	99.279445
2477.000000	99.280503
2476.000000	99.278075
2475.000000	99.274279
2474.000000	99.273954
2473.000000	99.279338
2472.000000	99.288702
2471.000000	99.298675
2470.000000	99.306749
2469.000000	99.312266
2468.000000	99.315754
2467.000000	99.317410
2466.000000	99.316585
2465.000000	99.313138
2464.000000	99.308465
2463.000000	99.304266
2462.000000	99.301333
2461.000000	99.300597
2460.000000	99.303851
2459.000000	99.311177
2458.000000	99.318814
2457.000000	99.322438
2456.000000	99.322522
2455.000000	99.323523
2454.000000	99.327176
2453.000000	99.329559
2452.000000	99.326277
2451.000000	99.318411
2450.000000	99.311431
2449.000000	99.309448
2448.000000	99.312227
2447.000000	99.316978
2446.000000	99.321352
2445.000000	99.324420
2444.000000	99.325877
2443.000000	99.325592
2442.000000	99.324443
2441.000000	99.325000
2440.000000	99.329543
2439.000000	99.336654
2438.000000	99.341280
2437.000000	99.339677
2436.000000	99.333399
2435.000000	99.327188
2434.000000	99.324338
2433.000000	99.325424
2432.000000	99.329259
2431.000000	99.332466
2430.000000	99.330229
2429.000000	99.321613
2428.000000	99.313483
2427.000000	99.314667
2426.000000	99.325674
2425.000000	99.337996
2424.000000	99.344280
2423.000000	99.345216
2422.000000	99.345132
2421.000000	99.345044
2420.000000	99.343156
2419.000000	99.339414
2418.000000	99.336267
2417.000000	99.335839
2416.000000	99.338304
2415.000000	99.342075
2414.000000	99.344423
2413.000000	99.343387
2412.000000	99.340360
2411.000000	99.339255
2410.000000	99.342094
2409.000000	99.346943
2408.000000	99.351073
2407.000000	99.354000
2406.000000	99.356229
2405.000000	99.357491
2404.000000	99.358190
2403.000000	99.360401
2402.000000	99.365045
2401.000000	99.369731
2400.000000	99.371647
2399.000000	99.371267
2398.000000	99.370967
2397.000000	99.371150
2396.000000	99.370173
2395.000000	99.367359
2394.000000	99.364031
2393.000000	99.362160
2392.000000	99.363590
2391.000000	99.369423
2390.000000	99.377780
2389.000000	99.382962
2388.000000	99.379763
2387.000000	99.369124
2386.000000	99.357817
2385.000000	99.352405
2384.000000	99.354807
2383.000000	99.363360
2382.000000	99.375721
2381.000000	99.389633
2380.000000	99.402440
2379.000000	99.411686
2378.000000	99.416385
2377.000000	99.417288
2376.000000	99.415757
2375.000000	99.412148
2374.000000	99.405370
2373.000000	99.395276
2372.000000	99.386121
2371.000000	99.385379
2370.000000	99.396035
2369.000000	99.410672
2368.000000	99.416609
2367.000000	99.407428
2366.000000	99.387272
2365.000000	99.364906
2364.000000	99.347976
2363.000000	99.342083
2362.000000	99.349933
2361.000000	99.367965
2360.000000	99.385203
2359.000000	99.391163
2358.000000	99.385432
2357.000000	99.375957
2356.000000	99.372291
2355.000000	99.375938
2354.000000	99.380603
2353.000000	99.379717
2352.000000	99.374189
2351.000000	99.369936
2350.000000	99.368657
2349.000000	99.367959
2348.000000	99.365269
2347.000000	99.360383
2346.000000	99.355965
2345.000000	99.354557
2344.000000	99.357024
2343.000000	99.361084
2342.000000	99.364415
2341.000000	99.364499
2340.000000	99.360755
2339.000000	99.356337
2338.000000	99.353779
2337.000000	99.352464
2336.000000	99.350011
2335.000000	99.346323
2334.000000	99.340839
2333.000000	99.332812
2332.000000	99.323117
2331.000000	99.319256
2330.000000	99.326381
2329.000000	99.341604
2328.000000	99.351967
2327.000000	99.347561
2326.000000	99.329154
2325.000000	99.306792
2324.000000	99.291482
2323.000000	99.287831
2322.000000	99.293363
2321.000000	99.303377
2320.000000	99.314330
2319.000000	99.325346
2318.000000	99.334423
2317.000000	99.340491
2316.000000	99.343122
2315.000000	99.343988
2314.000000	99.342349
2313.000000	99.337413
2312.000000	99.331369
2311.000000	99.331718
2310.000000	99.342187
2309.000000	99.356301
2308.000000	99.361057
2307.000000	99.351403
2306.000000	99.336058
2305.000000	99.328894
2304.000000	99.334582
2303.000000	99.345826
2302.000000	99.351738
2301.000000	99.348649
2300.000000	99.340966
2299.000000	99.336490
2298.000000	99.339505
2297.000000	99.349580
2296.000000	99.362251
2295.000000	99.372192
2294.000000	99.374632
2293.000000	99.367334
2292.000000	99.352232
2291.000000	99.336087
2290.000000	99.327410
2289.000000	99.330385
2288.000000	99.341035
2287.000000	99.349718
2286.000000	99.348600
2285.000000	99.336541
2284.000000	99.318202
2283.000000	99.299749
2282.000000	99.286563
2281.000000	99.282513
2280.000000	99.288476
2279.000000	99.301158
2278.000000	99.315807
2277.000000	99.330869
2276.000000	99.347909
2275.000000	99.366143
2274.000000	99.379140
2273.000000	99.379811
2272.000000	99.367431
2271.000000	99.347477
2270.000000	99.325380
2269.000000	99.303742
2268.000000	99.285652
2267.000000	99.277162
2266.000000	99.283685
2265.000000	99.304596
2264.000000	99.332396
2263.000000	99.357362
2262.000000	99.372914
2261.000000	99.377517
2260.000000	99.373429
2259.000000	99.364205
2258.000000	99.354121
2257.000000	99.348955
2256.000000	99.354604
2255.000000	99.372324
2254.000000	99.395711
2253.000000	99.414521
2252.000000	99.422178
2251.000000	99.419371
2250.000000	99.410791
2249.000000	99.400035
2248.000000	99.387066
2247.000000	99.370026
2246.000000	99.349633
2245.000000	99.332204
2244.000000	99.325795
2243.000000	99.331263
2242.000000	99.339074
2241.000000	99.337833
2240.000000	99.326145
2239.000000	99.314063
2238.000000	99.313076
2237.000000	99.326123
2236.000000	99.346660
2235.000000	99.365761
2234.000000	99.379832
2233.000000	99.391845
2232.000000	99.405005
2231.000000	99.416526
2230.000000	99.420719
2229.000000	99.417809
2228.000000	99.414363
2227.000000	99.413104
2226.000000	99.408413
2225.000000	99.396280
2224.000000	99.382881
2223.000000	99.376565
2222.000000	99.376431
2221.000000	99.376683
2220.000000	99.378946
2219.000000	99.390098
2218.000000	99.408403
2217.000000	99.421840
2216.000000	99.423205
2215.000000	99.419680
2214.000000	99.423206
2213.000000	99.436389
2212.000000	99.450534
2211.000000	99.454512
2210.000000	99.444361
2209.000000	99.428046
2208.000000	99.420958
2207.000000	99.431652
2206.000000	99.451288
2205.000000	99.461375
2204.000000	99.452359
2203.000000	99.430672
2202.000000	99.409079
2201.000000	99.396588
2200.000000	99.397407
2199.000000	99.411316
2198.000000	99.431846
2197.000000	99.448671
2196.000000	99.454932
2195.000000	99.449523
2194.000000	99.433042
2193.000000	99.407754
2192.000000	99.382388
2191.000000	99.369640
2190.000000	99.375318
2189.000000	99.392971
2188.000000	99.410178
2187.000000	99.417772
2186.000000	99.413974
2185.000000	99.404716
2184.000000	99.399903
2183.000000	99.404198
2182.000000	99.412424
2181.000000	99.419208
2180.000000	99.430258
2179.000000	99.455809
2178.000000	99.493648
2177.000000	99.526258
2176.000000	99.535793
2175.000000	99.517599
2174.000000	99.481461
2173.000000	99.446376
2172.000000	99.430557
2171.000000	99.435747
2170.000000	99.442296
2169.000000	99.428970
2168.000000	99.399264
2167.000000	99.378739
2166.000000	99.384879
2165.000000	99.408295
2164.000000	99.424562
2163.000000	99.418933
2162.000000	99.399194
2161.000000	99.394207
2160.000000	99.437619
2159.000000	99.534753
2158.000000	99.644205
2157.000000	99.713229
2156.000000	99.727698
2155.000000	99.707450
2154.000000	99.670086
2153.000000	99.624241
2152.000000	99.584913
2151.000000	99.569146
2150.000000	99.575785
2149.000000	99.584299
2148.000000	99.577653
2147.000000	99.555752
2146.000000	99.525951
2145.000000	99.492611
2144.000000	99.459019
2143.000000	99.429422
2142.000000	99.406356
2141.000000	99.392555
2140.000000	99.394719
2139.000000	99.417851
2138.000000	99.456788
2137.000000	99.500649
2136.000000	99.543262
2135.000000	99.580697
2134.000000	99.601425
2133.000000	99.592941
2132.000000	99.559349
2131.000000	99.521141
2130.000000	99.495816
2129.000000	99.486439
2128.000000	99.486592
2127.000000	99.487107
2126.000000	99.478365
2125.000000	99.456596
2124.000000	99.431266
2123.000000	99.418760
2122.000000	99.426093
2121.000000	99.445875
2120.000000	99.466918
2119.000000	99.481645
2118.000000	99.483174
2117.000000	99.466885
2116.000000	99.439910
2115.000000	99.419024
2114.000000	99.412818
2113.000000	99.413061
2112.000000	99.409111
2111.000000	99.403334
2110.000000	99.404881
2109.000000	99.415187
2108.000000	99.428239
2107.000000	99.440565
2106.000000	99.452554
2105.000000	99.462719
2104.000000	99.467863
2103.000000	99.466365
2102.000000	99.456449
2101.000000	99.436155
2100.000000	99.411635
2099.000000	99.399870
2098.000000	99.414033
2097.000000	99.447016
2096.000000	99.476816
2095.000000	99.487906
2094.000000	99.481272
2093.000000	99.466268
2092.000000	99.451530
2091.000000	99.444006
2090.000000	99.448027
2089.000000	99.461067
2088.000000	99.473597
2087.000000	99.476188
2086.000000	99.465490
2085.000000	99.444263
2084.000000	99.419124
2083.000000	99.399017
2082.000000	99.392512
2081.000000	99.402570
2080.000000	99.422222
2079.000000	99.437502
2078.000000	99.438623
2077.000000	99.429975
2076.000000	99.426051
2075.000000	99.434033
2074.000000	99.443768
2073.000000	99.440932
2072.000000	99.428003
2071.000000	99.423572
2070.000000	99.440115
2069.000000	99.469692
2068.000000	99.493725
2067.000000	99.500548
2066.000000	99.490830
2065.000000	99.473671
2064.000000	99.460768
2063.000000	99.457983
2062.000000	99.460141
2061.000000	99.458254
2060.000000	99.451609
2059.000000	99.446347
2058.000000	99.442655
2057.000000	99.434054
2056.000000	99.421274
2055.000000	99.415196
2054.000000	99.420140
2053.000000	99.424876
2052.000000	99.418370
2051.000000	99.405308
2050.000000	99.397911
2049.000000	99.399832
2048.000000	99.407304
2047.000000	99.420959
2046.000000	99.444343
2045.000000	99.473324
2044.000000	99.498456
2043.000000	99.515528
2042.000000	99.523974
2041.000000	99.518846
2040.000000	99.495122
2039.000000	99.458755
2038.000000	99.425655
2037.000000	99.411384
2036.000000	99.423969
2035.000000	99.461054
2034.000000	99.509374
2033.000000	99.550585
2032.000000	99.573253
2031.000000	99.576503
2030.000000	99.561280
2029.000000	99.529629
2028.000000	99.495687
2027.000000	99.483737
2026.000000	99.506990
2025.000000	99.553014
2024.000000	99.594159
2023.000000	99.610584
2022.000000	99.602638
2021.000000	99.587686
2020.000000	99.584314
2019.000000	99.592712
2018.000000	99.595043
2017.000000	99.582898
2016.000000	99.574925
2015.000000	99.589862
2014.000000	99.613754
2013.000000	99.614847
2012.000000	99.583999
2011.000000	99.540139
2010.000000	99.500954
2009.000000	99.474590
2008.000000	99.475861
2007.000000	99.517548
2006.000000	99.580602
2005.000000	99.624357
2004.000000	99.636115
2003.000000	99.641937
2002.000000	99.660259
2001.000000	99.673450
2000.000000	99.656512
1999.000000	99.611546
1998.000000	99.561008
1997.000000	99.526787
1996.000000	99.526073
1995.000000	99.565788
1994.000000	99.624149
1993.000000	99.653121
1992.000000	99.625404
1991.000000	99.570495
1990.000000	99.535074
1989.000000	99.526165
1988.000000	99.520672
1987.000000	99.511361
1986.000000	99.513121
1985.000000	99.528694
1984.000000	99.534709
1983.000000	99.509258
1982.000000	99.460365
1981.000000	99.423796
1980.000000	99.438526
1979.000000	99.517025
1978.000000	99.626924
1977.000000	99.707337
1976.000000	99.723352
1975.000000	99.695846
1974.000000	99.663923
1973.000000	99.640510
1972.000000	99.616990
1971.000000	99.589600
1970.000000	99.563240
1969.000000	99.542710
1968.000000	99.536692
1967.000000	99.559422
1966.000000	99.610098
1965.000000	99.658537
1964.000000	99.670276
1963.000000	99.641420
1962.000000	99.599374
1961.000000	99.575670
1960.000000	99.581030
1959.000000	99.600963
1958.000000	99.610316
1957.000000	99.595267
1956.000000	99.567053
1955.000000	99.550220
1954.000000	99.554942
1953.000000	99.567644
1952.000000	99.570943
1951.000000	99.564362
1950.000000	99.560364
1949.000000	99.568680
1948.000000	99.589905
1947.000000	99.616548
1946.000000	99.634202
1945.000000	99.630301
1944.000000	99.610081
1943.000000	99.598257
1942.000000	99.613581
1941.000000	99.644732
1940.000000	99.665307
1939.000000	99.663754
1938.000000	99.647041
1937.000000	99.627442
1936.000000	99.613528
1935.000000	99.608646
1934.000000	99.611944
1933.000000	99.620144
1932.000000	99.629794
1931.000000	99.637601
1930.000000	99.639190
1929.000000	99.632546
1928.000000	99.622971
1927.000000	99.618308
1926.000000	99.618448
1925.000000	99.614889
1924.000000	99.602927
1923.000000	99.587292
1922.000000	99.572734
1921.000000	99.557132
1920.000000	99.540976
1919.000000	99.534998
1918.000000	99.548600
1917.000000	99.572599
1916.000000	99.587706
1915.000000	99.588217
1914.000000	99.583361
1913.000000	99.583308
1912.000000	99.591657
1911.000000	99.606209
1910.000000	99.619835
1909.000000	99.622214
1908.000000	99.608571
1907.000000	99.586596
1906.000000	99.569836
1905.000000	99.565294
1904.000000	99.570693
1903.000000	99.580616
1902.000000	99.591309
1901.000000	99.600190
1900.000000	99.605361
1899.000000	99.605999
1898.000000	99.601352
1897.000000	99.591076
1896.000000	99.579267
1895.000000	99.574301
1894.000000	99.579640
1893.000000	99.587188
1892.000000	99.585288
1891.000000	99.571581
1890.000000	99.555843
1889.000000	99.551283
1888.000000	99.561363
1887.000000	99.578508
1886.000000	99.592976
1885.000000	99.598442
1884.000000	99.594307
1883.000000	99.585036
1882.000000	99.575464
1881.000000	99.567961
1880.000000	99.564243
1879.000000	99.566048
1878.000000	99.572203
1877.000000	99.577685
1876.000000	99.578937
1875.000000	99.578545
1874.000000	99.581357
1873.000000	99.588028
1872.000000	99.594979
1871.000000	99.598679
1870.000000	99.597218
1869.000000	99.591150
1868.000000	99.585323
1867.000000	99.584769
1866.000000	99.589625
1865.000000	99.596641
1864.000000	99.604113
1863.000000	99.613283
1862.000000	99.624417
1861.000000	99.634383
1860.000000	99.640369
1859.000000	99.643468
1858.000000	99.645923
1857.000000	99.647111
1856.000000	99.645439
1855.000000	99.642196
1854.000000	99.639227
1853.000000	99.635253
1852.000000	99.628509
1851.000000	99.620816
1850.000000	99.617204
1849.000000	99.620745
1848.000000	99.629912
1847.000000	99.640307
1846.000000	99.647311
1845.000000	99.647927
1844.000000	99.644170
1843.000000	99.642137
1842.000000	99.642713
1841.000000	99.640589
1840.000000	99.633003
1839.000000	99.623551
1838.000000	99.617951
1837.000000	99.617425
1836.000000	99.619139
1835.000000	99.621579
1834.000000	99.625875
1833.000000	99.632444
1832.000000	99.639488
1831.000000	99.643461
1830.000000	99.641861
1829.000000	99.636870
1828.000000	99.631962
1827.000000	99.626626
1826.000000	99.619286
1825.000000	99.612614
1824.000000	99.612884
1823.000000	99.621296
1822.000000	99.631271
1821.000000	99.636758
1820.000000	99.638628
1819.000000	99.641870
1818.000000	99.647783
1817.000000	99.651763
1816.000000	99.649667
1815.000000	99.642540
1814.000000	99.634754
1813.000000	99.631104
1812.000000	99.634529
1811.000000	99.642391
1810.000000	99.645813
1809.000000	99.638279
1808.000000	99.622879
1807.000000	99.608210
1806.000000	99.598961
1805.000000	99.592321
1804.000000	99.583099
1803.000000	99.568990
1802.000000	99.550128
1801.000000	99.528141
1800.000000	99.505936
1799.000000	99.486710
1798.000000	99.471909
1797.000000	99.460965
1796.000000	99.452414
1795.000000	99.446075
1794.000000	99.444435
1793.000000	99.452887
1792.000000	99.473874
1791.000000	99.499623
1790.000000	99.519200
1789.000000	99.529518
1788.000000	99.534120
1787.000000	99.539010
1786.000000	99.548953
1785.000000	99.563922
1784.000000	99.579364
1783.000000	99.590684
1782.000000	99.595814
1781.000000	99.596186
1780.000000	99.595978
1779.000000	99.600175
1778.000000	99.609712
1777.000000	99.621630
1776.000000	99.633297
1775.000000	99.644210
1774.000000	99.654248
1773.000000	99.660498
1772.000000	99.659057
1771.000000	99.649244
1770.000000	99.633748
1769.000000	99.618275
1768.000000	99.611257
1767.000000	99.616948
1766.000000	99.628557
1765.000000	99.635558
1764.000000	99.634304
1763.000000	99.629553
1762.000000	99.627000
1761.000000	99.626045
1760.000000	99.621631
1759.000000	99.611389
1758.000000	99.596150
1757.000000	99.579363
1756.000000	99.566855
1755.000000	99.561252
1754.000000	99.557587
1753.000000	99.548697
1752.000000	99.532921
1751.000000	99.516997
1750.000000	99.507090
1749.000000	99.497993
1748.000000	99.484260
1747.000000	99.468329
1746.000000	99.453487
1745.000000	99.439931
1744.000000	99.428222
1743.000000	99.419632
1742.000000	99.410954
1741.000000	99.397557
1740.000000	99.383823
1739.000000	99.380703
1738.000000	99.386818
1737.000000	99.390734
1736.000000	99.388014
1735.000000	99.387770
1734.000000	99.404482
1733.000000	99.429912
1732.000000	99.442235
1731.000000	99.442361
1730.000000	99.443313
1729.000000	99.450963
1728.000000	99.464426
1727.000000	99.480859
1726.000000	99.495094
1725.000000	99.500837
1724.000000	99.497668
1723.000000	99.494456
1722.000000	99.497199
1721.000000	99.502476
1720.000000	99.506058
1719.000000	99.508777
1718.000000	99.511449
1717.000000	99.513641
1716.000000	99.511514
1715.000000	99.504205
1714.000000	99.498019
1713.000000	99.493758
1712.000000	99.487329
1711.000000	99.479107
1710.000000	99.472707
1709.000000	99.468791
1708.000000	99.464840
1707.000000	99.459640
1706.000000	99.454193
1705.000000	99.447199
1704.000000	99.434271
1703.000000	99.412439
1702.000000	99.382319
1701.000000	99.352134
1700.000000	99.336572
1699.000000	99.334238
1698.000000	99.327293
1697.000000	99.305391
1696.000000	99.272035
1695.000000	99.237459
1694.000000	99.205442
1693.000000	99.173020
1692.000000	99.140430
1691.000000	99.110585
1690.000000	99.084514
1689.000000	99.062214
1688.000000	99.044954
1687.000000	99.032247
1686.000000	99.018945
1685.000000	98.993916
1684.000000	98.952348
1683.000000	98.906010
1682.000000	98.862073
1681.000000	98.820799
1680.000000	98.785387
1679.000000	98.757860
1678.000000	98.735175
1677.000000	98.711644
1676.000000	98.685368
1675.000000	98.658677
1674.000000	98.630231
1673.000000	98.595222
1672.000000	98.554924
1671.000000	98.518796
1670.000000	98.493089
1669.000000	98.470579
1668.000000	98.440946
1667.000000	98.406541
1666.000000	98.371947
1665.000000	98.336603
1664.000000	98.299445
1663.000000	98.263799
1662.000000	98.232362
1661.000000	98.200651
1660.000000	98.163746
1659.000000	98.124337
1658.000000	98.087134
1657.000000	98.054090
1656.000000	98.024833
1655.000000	98.001644
1654.000000	97.988497
1653.000000	97.987217
1652.000000	97.979731
1651.000000	97.954839
1650.000000	97.920931
1649.000000	97.892745
1648.000000	97.875627
1647.000000	97.874503
1646.000000	97.890641
1645.000000	97.906729
1644.000000	97.911563
1643.000000	97.909793
1642.000000	97.908950
1641.000000	97.912377
1640.000000	97.919144
1639.000000	97.928027
1638.000000	97.940173
1637.000000	97.959782
1636.000000	97.993668
1635.000000	98.036565
1634.000000	98.065851
1633.000000	98.074282
1632.000000	98.072110
1631.000000	98.072032
1630.000000	98.082287
1629.000000	98.104749
1628.000000	98.134889
1627.000000	98.165669
1626.000000	98.192232
1625.000000	98.215414
1624.000000	98.241042
1623.000000	98.273439
1622.000000	98.305956
1621.000000	98.328587
1620.000000	98.343484
1619.000000	98.361615
1618.000000	98.391722
1617.000000	98.431908
1616.000000	98.467047
1615.000000	98.485016
1614.000000	98.491462
1613.000000	98.497463
1612.000000	98.509426
1611.000000	98.527921
1610.000000	98.549099
1609.000000	98.567162
1608.000000	98.579122
1607.000000	98.586993
1606.000000	98.593553
1605.000000	98.599663
1604.000000	98.605846
1603.000000	98.613846
1602.000000	98.624227
1601.000000	98.634504
1600.000000	98.642036
1599.000000	98.646304
1598.000000	98.647340
1597.000000	98.645444
1596.000000	98.642776
1595.000000	98.642512
1594.000000	98.645234
1593.000000	98.647820
1592.000000	98.647091
1591.000000	98.642162
1590.000000	98.633148
1589.000000	98.621030
1588.000000	98.608889
1587.000000	98.599485
1586.000000	98.590709
1585.000000	98.577318
1584.000000	98.558639
1583.000000	98.539053
1582.000000	98.521381
1581.000000	98.503394
1580.000000	98.483991
1579.000000	98.467235
1578.000000	98.458017
1577.000000	98.456940
1576.000000	98.462877
1575.000000	98.471435
1574.000000	98.474215
1573.000000	98.471124
1572.000000	98.469786
1571.000000	98.476250
1570.000000	98.489045
1569.000000	98.497867
1568.000000	98.497270
1567.000000	98.493020
1566.000000	98.490842
1565.000000	98.490306
1564.000000	98.488662
1563.000000	98.485169
1562.000000	98.480893
1561.000000	98.475858
1560.000000	98.472329
1559.000000	98.465334
1558.000000	98.453205
1557.000000	98.416593
1556.000000	98.364796
1555.000000	98.315636
1554.000000	98.274000
1553.000000	98.234369
1552.000000	98.192186
1551.000000	98.151380
1550.000000	98.118495
1549.000000	98.090847
1548.000000	98.059059
1547.000000	98.016110
1546.000000	97.961569
1545.000000	97.900466
1544.000000	97.842935
1543.000000	97.796455
1542.000000	97.757184
1541.000000	97.718356
1540.000000	97.692783
1539.000000	97.689396
1538.000000	97.681169
1537.000000	97.656605
1536.000000	97.627917
1535.000000	97.612138
1534.000000	97.620408
1533.000000	97.645141
1532.000000	97.661793
1531.000000	97.660274
1530.000000	97.646738
1529.000000	97.626570
1528.000000	97.602480
1527.000000	97.578799
1526.000000	97.560151
1525.000000	97.546713
1524.000000	97.534045
1523.000000	97.518937
1522.000000	97.501926
1521.000000	97.486846
1520.000000	97.470822
1519.000000	97.448235
1518.000000	97.419648
1517.000000	97.388780
1516.000000	97.359691
1515.000000	97.332069
1514.000000	97.301736
1513.000000	97.269077
1512.000000	97.240118
1511.000000	97.219183
1510.000000	97.202246
1509.000000	97.182698
1508.000000	97.163357
1507.000000	97.162033
1506.000000	97.172442
1505.000000	97.154069
1504.000000	97.109930
1503.000000	97.059311
1502.000000	97.013967
1501.000000	96.976360
1500.000000	96.945501
1499.000000	96.918700
1498.000000	96.890002
1497.000000	96.856553
1496.000000	96.824220
1495.000000	96.794354
1494.000000	96.758448
1493.000000	96.712082
1492.000000	96.660670
1491.000000	96.614612
1490.000000	96.577611
1489.000000	96.543152
1488.000000	96.504125
1487.000000	96.460245
1486.000000	96.414232
1485.000000	96.367135
1484.000000	96.320352
1483.000000	96.274733
1482.000000	96.227543
1481.000000	96.174214
1480.000000	96.115056
1479.000000	96.053662
1478.000000	95.991510
1477.000000	95.928174
1476.000000	95.864801
1475.000000	95.801741
1474.000000	95.735829
1473.000000	95.669607
1472.000000	95.615066
1471.000000	95.570367
1470.000000	95.520873
1469.000000	95.461478
1468.000000	95.397404
1467.000000	95.334560
1466.000000	95.274419
1465.000000	95.219010
1464.000000	95.172934
1463.000000	95.132206
1462.000000	95.085442
1461.000000	95.027396
1460.000000	94.962872
1459.000000	94.899432
1458.000000	94.841669
1457.000000	94.798620
1456.000000	94.775154
1455.000000	94.751975
1454.000000	94.712494
1453.000000	94.658401
1452.000000	94.599715
1451.000000	94.544486
1450.000000	94.492631
1449.000000	94.443068
1448.000000	94.401303
1447.000000	94.369903
1446.000000	94.338415
1445.000000	94.298760
1444.000000	94.254897
1443.000000	94.214893
1442.000000	94.179028
1441.000000	94.140574
1440.000000	94.095638
1439.000000	94.045755
1438.000000	93.995240
1437.000000	93.952004
1436.000000	93.923145
1435.000000	93.898638
1434.000000	93.861728
1433.000000	93.811788
1432.000000	93.762141
1431.000000	93.724205
1430.000000	93.694717
1429.000000	93.662675
1428.000000	93.625493
1427.000000	93.585652
1426.000000	93.541918
1425.000000	93.494891
1424.000000	93.451338
1423.000000	93.413540
1422.000000	93.370694
1421.000000	93.315655
1420.000000	93.260985
1419.000000	93.228066
1418.000000	93.211305
1417.000000	93.188478
1416.000000	93.160216
1415.000000	93.136676
1414.000000	93.117030
1413.000000	93.096450
1412.000000	93.079513
1411.000000	93.073934
1410.000000	93.075420
1409.000000	93.073757
1408.000000	93.069218
1407.000000	93.069628
1406.000000	93.078128
1405.000000	93.093492
1404.000000	93.114028
1403.000000	93.132309
1402.000000	93.137461
1401.000000	93.130084
1400.000000	93.125976
1399.000000	93.136889
1398.000000	93.150765
1397.000000	93.153592
1396.000000	93.157848
1395.000000	93.185904
1394.000000	93.232543
1393.000000	93.271450
1392.000000	93.292963
1391.000000	93.304142
1390.000000	93.312081
1389.000000	93.325206
1388.000000	93.359038
1387.000000	93.420597
1386.000000	93.489717
1385.000000	93.543516
1384.000000	93.584543
1383.000000	93.626921
1382.000000	93.674969
1381.000000	93.723583
1380.000000	93.770649
1379.000000	93.816779
1378.000000	93.858507
1377.000000	93.894207
1376.000000	93.933728
1375.000000	93.990537
1374.000000	94.062111
1373.000000	94.129657
1372.000000	94.182782
1371.000000	94.227769
1370.000000	94.274078
1369.000000	94.326089
1368.000000	94.382044
1367.000000	94.434662
1366.000000	94.477287
1365.000000	94.513541
1364.000000	94.557263
1363.000000	94.618522
1362.000000	94.689972
1361.000000	94.756473
1360.000000	94.814949
1359.000000	94.870721
1358.000000	94.925569
1357.000000	94.978690
1356.000000	95.032215
1355.000000	95.088154
1354.000000	95.143243
1353.000000	95.193054
1352.000000	95.238416
1351.000000	95.283191
1350.000000	95.329162
1349.000000	95.376274
1348.000000	95.424744
1347.000000	95.473943
1346.000000	95.521187
1345.000000	95.564239
1344.000000	95.602779
1343.000000	95.636467
1342.000000	95.665519
1341.000000	95.694497
1340.000000	95.730846
1339.000000	95.775746
1338.000000	95.821113
1337.000000	95.861428
1336.000000	95.899758
1335.000000	95.939237
1334.000000	95.978281
1333.000000	96.016175
1332.000000	96.056181
1331.000000	96.099301
1330.000000	96.140318
1329.000000	96.174159
1328.000000	96.202273
1327.000000	96.229140
1326.000000	96.256356
1325.000000	96.283301
1324.000000	96.310434
1323.000000	96.337783
1322.000000	96.363061
1321.000000	96.384893
1320.000000	96.405760
1319.000000	96.428973
1318.000000	96.454469
1317.000000	96.480405
1316.000000	96.506415
1315.000000	96.532856
1314.000000	96.559701
1313.000000	96.588054
1312.000000	96.619260
1311.000000	96.650895
1310.000000	96.677683
1309.000000	96.698667
1308.000000	96.719751
1307.000000	96.746749
1306.000000	96.778755
1305.000000	96.810596
1304.000000	96.839597
1303.000000	96.866921
1302.000000	96.894600
1301.000000	96.923570
1300.000000	96.952814
1299.000000	96.979011
1298.000000	96.999031
1297.000000	97.013914
1296.000000	97.028282
1295.000000	97.045120
1294.000000	97.063785
1293.000000	97.083598
1292.000000	97.105758
1291.000000	97.130352
1290.000000	97.154668
1289.000000	97.176422
1288.000000	97.196172
1287.000000	97.215303
1286.000000	97.234048
1285.000000	97.252279
1284.000000	97.269442
1283.000000	97.282969
1282.000000	97.290297
1281.000000	97.293917
1280.000000	97.300935
1279.000000	97.315760
1278.000000	97.335611
1277.000000	97.354776
1276.000000	97.370796
1275.000000	97.384618
1274.000000	97.397276
1273.000000	97.408920
1272.000000	97.419813
1271.000000	97.430405
1270.000000	97.440854
1269.000000	97.451106
1268.000000	97.460710
1267.000000	97.468736
1266.000000	97.475500
1265.000000	97.483951
1264.000000	97.496695
1263.000000	97.511586
1262.000000	97.523351
1261.000000	97.530400
1260.000000	97.536719
1259.000000	97.545931
1258.000000	97.556566
1257.000000	97.565193
1256.000000	97.571386
1255.000000	97.577209
1254.000000	97.583603
1253.000000	97.589087
1252.000000	97.591329
1251.000000	97.589554
1250.000000	97.586372
1249.000000	97.587167
1248.000000	97.595730
1247.000000	97.609690
1246.000000	97.621829
1245.000000	97.626676
1244.000000	97.624676
1243.000000	97.620071
1242.000000	97.616940
1241.000000	97.617758
1240.000000	97.623206
1239.000000	97.631619
1238.000000	97.639927
1237.000000	97.646365
1236.000000	97.651421
1235.000000	97.656066
1234.000000	97.660784
1233.000000	97.666538
1232.000000	97.674893
1231.000000	97.686415
1230.000000	97.700312
1229.000000	97.716038
1228.000000	97.733578
1227.000000	97.752340
1226.000000	97.771786
1225.000000	97.793060
1224.000000	97.817309
1223.000000	97.842063
1222.000000	97.862415
1221.000000	97.876692
1220.000000	97.888312
1219.000000	97.900985
1218.000000	97.914750
1217.000000	97.928199
1216.000000	97.941953
1215.000000	97.957657
1214.000000	97.974960
1213.000000	97.991582
1212.000000	98.005421
1211.000000	98.015301
1210.000000	98.020991
1209.000000	98.023945
1208.000000	98.027139
1207.000000	98.032652
1206.000000	98.039678
1205.000000	98.045905
1204.000000	98.050389
1203.000000	98.054385
1202.000000	98.059791
1201.000000	98.067570
1200.000000	98.077432
1199.000000	98.088280
1198.000000	98.098577
1197.000000	98.106726
1196.000000	98.111974
1195.000000	98.115680
1194.000000	98.121133
1193.000000	98.130456
1192.000000	98.141506
1191.000000	98.149640
1190.000000	98.153424
1189.000000	98.156578
1188.000000	98.162901
1187.000000	98.171257
1186.000000	98.177454
1185.000000	98.179521
1184.000000	98.178541
1183.000000	98.175923
1182.000000	98.172994
1181.000000	98.172108
1180.000000	98.174563
1179.000000	98.177516
1178.000000	98.176531
1177.000000	98.171555
1176.000000	98.166996
1175.000000	98.165394
1174.000000	98.164193
1173.000000	98.160150
1172.000000	98.154219
1171.000000	98.149655
1170.000000	98.147082
1169.000000	98.144016
1168.000000	98.138809
1167.000000	98.133000
1166.000000	98.129502
1165.000000	98.129681
1164.000000	98.132603
1163.000000	98.136254
1162.000000	98.138920
1161.000000	98.139748
1160.000000	98.138789
1159.000000	98.137277
1158.000000	98.137779
1157.000000	98.142781
1156.000000	98.152571
1155.000000	98.164930
1154.000000	98.177287
1153.000000	98.188491
1152.000000	98.198091
1151.000000	98.205413
1150.000000	98.210600
1149.000000	98.215543
1148.000000	98.222310
1147.000000	98.231239
1146.000000	98.241491
1145.000000	98.252281
1144.000000	98.262120
1143.000000	98.268372
1142.000000	98.270108
1141.000000	98.271053
1140.000000	98.277114
1139.000000	98.290382
1138.000000	98.307053
1137.000000	98.321631
1136.000000	98.331627
1135.000000	98.337575
1134.000000	98.340095
1133.000000	98.338491
1132.000000	98.332404
1131.000000	98.323827
1130.000000	98.316200
1129.000000	98.311199
1128.000000	98.307509
1127.000000	98.303860
1126.000000	98.301682
1125.000000	98.302228
1124.000000	98.302082
1123.000000	98.295619
1122.000000	98.283135
1121.000000	98.272796
1120.000000	98.271677
1119.000000	98.277327
1118.000000	98.280892
1117.000000	98.276921
1116.000000	98.267130
1115.000000	98.256063
1114.000000	98.246667
1113.000000	98.240270
1112.000000	98.237968
1111.000000	98.240684
1110.000000	98.248318
1109.000000	98.258602
1108.000000	98.266973
1107.000000	98.269452
1106.000000	98.267194
1105.000000	98.266294
1104.000000	98.270955
1103.000000	98.278878
1102.000000	98.285590
1101.000000	98.290846
1100.000000	98.297616
1099.000000	98.305293
1098.000000	98.309677
1097.000000	98.308560
1096.000000	98.303971
1095.000000	98.298645
1094.000000	98.293779
1093.000000	98.290793
1092.000000	98.291534
1091.000000	98.294978
1090.000000	98.296000
1089.000000	98.289725
1088.000000	98.276403
1087.000000	98.261404
1086.000000	98.251006
1085.000000	98.247843
1084.000000	98.248992
1083.000000	98.248350
1082.000000	98.242200
1081.000000	98.232801
1080.000000	98.225948
1079.000000	98.225425
1078.000000	98.230710
1077.000000	98.238514
1076.000000	98.244530
1075.000000	98.245100
1074.000000	98.240465
1073.000000	98.236189
1072.000000	98.238701
1071.000000	98.248850
1070.000000	98.261647
1069.000000	98.272209
1068.000000	98.279576
1067.000000	98.284634
1066.000000	98.287280
1065.000000	98.286765
1064.000000	98.283116
1063.000000	98.277379
1062.000000	98.271451
1061.000000	98.267772
1060.000000	98.267724
1059.000000	98.270237
1058.000000	98.273294
1057.000000	98.276739
1056.000000	98.282129
1055.000000	98.289952
1054.000000	98.298434
1053.000000	98.304932
1052.000000	98.307272
1051.000000	98.304686
1050.000000	98.299425
1049.000000	98.296285
1048.000000	98.297879
1047.000000	98.301038
1046.000000	98.300788
1045.000000	98.297256
1044.000000	98.295404
1043.000000	98.298266
1042.000000	98.303779
1041.000000	98.309030
1040.000000	98.314198
1039.000000	98.320336
1038.000000	98.325943
1037.000000	98.328166
1036.000000	98.326294
1035.000000	98.322367
1034.000000	98.319231
1033.000000	98.318960
1032.000000	98.321808
1031.000000	98.325300
1030.000000	98.325649
1029.000000	98.321889
1028.000000	98.318166
1027.000000	98.320484
1026.000000	98.330987
1025.000000	98.346175
1024.000000	98.360641
1023.000000	98.371983
1022.000000	98.382385
1021.000000	98.396040
1020.000000	98.415023
1019.000000	98.437038
1018.000000	98.456592
1017.000000	98.468644
1016.000000	98.472122
1015.000000	98.471079
1014.000000	98.472104
1013.000000	98.478983
1012.000000	98.489740
1011.000000	98.499943
1010.000000	98.508393
1009.000000	98.517375
1008.000000	98.527514
1007.000000	98.536131
1006.000000	98.542486
1005.000000	98.550996
1004.000000	98.565879
1003.000000	98.584444
1002.000000	98.599576
1001.000000	98.608039
1000.000000	98.613088
999.000000	98.619525
998.000000	98.629477
997.000000	98.643142
996.000000	98.660211
995.000000	98.679265
994.000000	98.697709
993.000000	98.713334
992.000000	98.724827
991.000000	98.731270
990.000000	98.733271
989.000000	98.734482
988.000000	98.739722
987.000000	98.751048
986.000000	98.766745
985.000000	98.783934
984.000000	98.800588
983.000000	98.815300
982.000000	98.827258
981.000000	98.836588
980.000000	98.843227
979.000000	98.846069
978.000000	98.845157
977.000000	98.843849
976.000000	98.846183
975.000000	98.852381
974.000000	98.859744
973.000000	98.867667
972.000000	98.878172
971.000000	98.891212
970.000000	98.903392
969.000000	98.913264
968.000000	98.924563
967.000000	98.941612
966.000000	98.963741
965.000000	98.986755
964.000000	99.007891
963.000000	99.026198
962.000000	99.039731
961.000000	99.046256
960.000000	99.047578
959.000000	99.050115
958.000000	99.059268
957.000000	99.074323
956.000000	99.090370
955.000000	99.104455
954.000000	99.117763
953.000000	99.131837
952.000000	99.144982
951.000000	99.154527
950.000000	99.161787
949.000000	99.171898
948.000000	99.187961
947.000000	99.207131
946.000000	99.223857
945.000000	99.235519
944.000000	99.243349
943.000000	99.249173
942.000000	99.253376
941.000000	99.255850
940.000000	99.257050
939.000000	99.257834
938.000000	99.259229
937.000000	99.262409
936.000000	99.268106
935.000000	99.275803
934.000000	99.283750
933.000000	99.289798
932.000000	99.292755
931.000000	99.293981
930.000000	99.297675
929.000000	99.307898
928.000000	99.324432
927.000000	99.342623
926.000000	99.357934
925.000000	99.368979
924.000000	99.375609
923.000000	99.376607
922.000000	99.371934
921.000000	99.365652
920.000000	99.363652
919.000000	99.368732
918.000000	99.379630
917.000000	99.394261
916.000000	99.411268
915.000000	99.428317
914.000000	99.441441
913.000000	99.447808
912.000000	99.448625
911.000000	99.448714
910.000000	99.453246
909.000000	99.463985
908.000000	99.477943
907.000000	99.490055
906.000000	99.497868
905.000000	99.503694
904.000000	99.512050
903.000000	99.525667
902.000000	99.543926
901.000000	99.563406
900.000000	99.579340
899.000000	99.588531
898.000000	99.592688
897.000000	99.597499
896.000000	99.607373
895.000000	99.621950
894.000000	99.638228
893.000000	99.653944
892.000000	99.667517
891.000000	99.677315
890.000000	99.682460
889.000000	99.680591
888.000000	99.661744
887.000000	99.607328
886.000000	99.502198
885.000000	99.347546
884.000000	99.156462
883.000000	98.936523
882.000000	98.678894
881.000000	98.367405
880.000000	97.995482
879.000000	97.572627
878.000000	97.117963
877.000000	96.650603
876.000000	96.186312
875.000000	95.738139
874.000000	95.323650
873.000000	94.979822
872.000000	94.776605
871.000000	94.796162
870.000000	95.075704
869.000000	95.567329
868.000000	96.157467
867.000000	96.731552
866.000000	97.225253
865.000000	97.627055
864.000000	97.947861
863.000000	98.197704
862.000000	98.384995
861.000000	98.521649
860.000000	98.621014
859.000000	98.694075
858.000000	98.752928
857.000000	98.810743
856.000000	98.873667
855.000000	98.936610
854.000000	98.991114
853.000000	99.033832
852.000000	99.062114
851.000000	99.067973
850.000000	99.047487
849.000000	99.015446
848.000000	99.000497
847.000000	99.020804
846.000000	99.068982
845.000000	99.123582
844.000000	99.169661
843.000000	99.205520
842.000000	99.235676
841.000000	99.263661
840.000000	99.289933
839.000000	99.311672
838.000000	99.324336
837.000000	99.326211
836.000000	99.321411
835.000000	99.316894
834.000000	99.316997
833.000000	99.322068
832.000000	99.331312
831.000000	99.344693
830.000000	99.361567
829.000000	99.378664
828.000000	99.391054
827.000000	99.396494
826.000000	99.398829
825.000000	99.404743
824.000000	99.415040
823.000000	99.421602
822.000000	99.417364
821.000000	99.407959
820.000000	99.408033
819.000000	99.424874
818.000000	99.449626
817.000000	99.467071
816.000000	99.470834
815.000000	99.466357
814.000000	99.461456
813.000000	99.458156
812.000000	99.454278
811.000000	99.449471
810.000000	99.446944
809.000000	99.449335
808.000000	99.454717
807.000000	99.458242
806.000000	99.457402
805.000000	99.453930
804.000000	99.449988
803.000000	99.445402
802.000000	99.441063
801.000000	99.442051
800.000000	99.452213
799.000000	99.466135
798.000000	99.472332
797.000000	99.466374
796.000000	99.456315
795.000000	99.452469
794.000000	99.456011
793.000000	99.461529
792.000000	99.467032
791.000000	99.475575
790.000000	99.487810
789.000000	99.498222
788.000000	99.500391
787.000000	99.493463
786.000000	99.482780
785.000000	99.475801
784.000000	99.476961
783.000000	99.483876
782.000000	99.488271
781.000000	99.483071
780.000000	99.469405
779.000000	99.454856
778.000000	99.444783
777.000000	99.437764
776.000000	99.430225
775.000000	99.422642
774.000000	99.418950
773.000000	99.421698
772.000000	99.430098
771.000000	99.441486
770.000000	99.452452
769.000000	99.459723
768.000000	99.462879
767.000000	99.466067
766.000000	99.473787
765.000000	99.483632
764.000000	99.486276
763.000000	99.475870
762.000000	99.459287
761.000000	99.451113
760.000000	99.458451
759.000000	99.473447
758.000000	99.482785
757.000000	99.482308
756.000000	99.479065
755.000000	99.480482
754.000000	99.486252
753.000000	99.492480
752.000000	99.499085
751.000000	99.508404
750.000000	99.518155
749.000000	99.521520
748.000000	99.516130
747.000000	99.509239
746.000000	99.510607
745.000000	99.521033
744.000000	99.530876
743.000000	99.530366
742.000000	99.519173
741.000000	99.505014
740.000000	99.494646
739.000000	99.488258
738.000000	99.482631
737.000000	99.477328
736.000000	99.475462
735.000000	99.478259
734.000000	99.481315
733.000000	99.478613
732.000000	99.469734
731.000000	99.460691
730.000000	99.456417
729.000000	99.454247
728.000000	99.447061
727.000000	99.431666
726.000000	99.411313
725.000000	99.389976
724.000000	99.367673
723.000000	99.343341
722.000000	99.319667
721.000000	99.300813
720.000000	99.283517
719.000000	99.251658
718.000000	99.179525
717.000000	99.040066
716.000000	98.817991
715.000000	98.529513
714.000000	98.236646
713.000000	98.031334
712.000000	97.984762
711.000000	98.098526
710.000000	98.305351
709.000000	98.519663
708.000000	98.689273
707.000000	98.807356
706.000000	98.889242
705.000000	98.949084
704.000000	98.994127
703.000000	99.027665
702.000000	99.050716
701.000000	99.064236
700.000000	99.072699
699.000000	99.083129
698.000000	99.098731
697.000000	99.115920
696.000000	99.129601
695.000000	99.138842
694.000000	99.145556
693.000000	99.150705
692.000000	99.155093
691.000000	99.161759
690.000000	99.173304
689.000000	99.186535
688.000000	99.193432
687.000000	99.190563
686.000000	99.185278
685.000000	99.188861
684.000000	99.203302
683.000000	99.217008
682.000000	99.216223
681.000000	99.199827
680.000000	99.180734
679.000000	99.172479
678.000000	99.176631
677.000000	99.185575
676.000000	99.193909
675.000000	99.202385
674.000000	99.212361
673.000000	99.220418
672.000000	99.221223
671.000000	99.214467
670.000000	99.206418
669.000000	99.205481
668.000000	99.210110
667.000000	99.212905
666.000000	99.200574
665.000000	99.171465
664.000000	99.144627
663.000000	99.139128
662.000000	99.157018
661.000000	99.180320
660.000000	99.190521
659.000000	99.187367
658.000000	99.183599
657.000000	99.186855
656.000000	99.193215
655.000000	99.196736
654.000000	99.199773
653.000000	99.209177
652.000000	99.223692
651.000000	99.231023
650.000000	99.220741
649.000000	99.197970
648.000000	99.178908
647.000000	99.174443
646.000000	99.181625
645.000000	99.190522
644.000000	99.194352
643.000000	99.191350
642.000000	99.183812
641.000000	99.178836
640.000000	99.184779
639.000000	99.201067
638.000000	99.214640
637.000000	99.212345
636.000000	99.196140
635.000000	99.181977
634.000000	99.183738
633.000000	99.201490
632.000000	99.223526
631.000000	99.234630
630.000000	99.225142
629.000000	99.199694
628.000000	99.176765
627.000000	99.173868
626.000000	99.190151
625.000000	99.206649
624.000000	99.204770
623.000000	99.181543
622.000000	99.149714
621.000000	99.128358
620.000000	99.130780
619.000000	99.153556
618.000000	99.176696
617.000000	99.182606
616.000000	99.175868
615.000000	99.174500
614.000000	99.184119
613.000000	99.193239
612.000000	99.192842
611.000000	99.186286
610.000000	99.176834
609.000000	99.160005
608.000000	99.136777
607.000000	99.123536
606.000000	99.135446
605.000000	99.166478
604.000000	99.196979
603.000000	99.215479
602.000000	99.223946
601.000000	99.226420
600.000000	99.222504
599.000000	99.210625
598.000000	99.189171
597.000000	99.157742
596.000000	99.125102
595.000000	99.109792
594.000000	99.121657
593.000000	99.145400
592.000000	99.155218
591.000000	99.144938
590.000000	99.131276
589.000000	99.128535
588.000000	99.136285
587.000000	99.152458
586.000000	99.180597
585.000000	99.218417
584.000000	99.250665
583.000000	99.263777
582.000000	99.260747
581.000000	99.253694
580.000000	99.246972
579.000000	99.235398
578.000000	99.215987
577.000000	99.193863
576.000000	99.176863
575.000000	99.169157
574.000000	99.172219
573.000000	99.188660
572.000000	99.220297
571.000000	99.259567
570.000000	99.287339
569.000000	99.288224
568.000000	99.268740
567.000000	99.251886
566.000000	99.251767
565.000000	99.260015
564.000000	99.260458
563.000000	99.248364
562.000000	99.229671
561.000000	99.210380
560.000000	99.194976
559.000000	99.190730
558.000000	99.202287
557.000000	99.223057
556.000000	99.241184
555.000000	99.253724
554.000000	99.267175
553.000000	99.283299
552.000000	99.292433
551.000000	99.282779
550.000000	99.253318
549.000000	99.215074
548.000000	99.182077
547.000000	99.163679
546.000000	99.161210
545.000000	99.169552
544.000000	99.184681
543.000000	99.207693
542.000000	99.238779
541.000000	99.271144
540.000000	99.294162
539.000000	99.301033
538.000000	99.292407
537.000000	99.274706
536.000000	99.255524
535.000000	99.239537
534.000000	99.226779
533.000000	99.217311
532.000000	99.214616
531.000000	99.218066
530.000000	99.214898
529.000000	99.192445
528.000000	99.159871
527.000000	99.148017
526.000000	99.177849
525.000000	99.233458
524.000000	99.285652
523.000000	99.328917
522.000000	99.373818
521.000000	99.418270
520.000000	99.445191
519.000000	99.445126
518.000000	99.427769
517.000000	99.406272
516.000000	99.381148
515.000000	99.346013
514.000000	99.301029
513.000000	99.259183
512.000000	99.242831
511.000000	99.267754
510.000000	99.322815
509.000000	99.373893
508.000000	99.394957
507.000000	99.392484
506.000000	99.391710
505.000000	99.402789
504.000000	99.417873
503.000000	99.434371
502.000000	99.460886
501.000000	99.497754
500.000000	99.528946
499.000000	99.538915
498.000000	99.522175
497.000000	99.480954
496.000000	99.426408
495.000000	99.380226
494.000000	99.362935
493.000000	99.373313
492.000000	99.387252
491.000000	99.384912
490.000000	99.368676
489.000000	99.352060
488.000000	99.344444
487.000000	99.351075
486.000000	99.373336
485.000000	99.402504
484.000000	99.425116
483.000000	99.441049
482.000000	99.461475
481.000000	99.485047
480.000000	99.496438
479.000000	99.492925
478.000000	99.493850
477.000000	99.513925
476.000000	99.539438
475.000000	99.544121
474.000000	99.519398
473.000000	99.480927
472.000000	99.450214
471.000000	99.437515
470.000000	99.440433
469.000000	99.454555
468.000000	99.475473
467.000000	99.490167
466.000000	99.477708
465.000000	99.427935
464.000000	99.357588
463.000000	99.308138
462.000000	99.319581
461.000000	99.399448
460.000000	99.529957
459.000000	99.684366
458.000000	99.807848
457.000000	99.828820
456.000000	99.744038
455.000000	99.628225
454.000000	99.550668
453.000000	99.503473
452.000000	99.540742
451.000000	99.607384
450.000000	99.670962
