PE IR       SUBTECH     SPECTRUM    ASCII       PEDS        4.00        
   -1
AG1-C002_1.ASC
23/09/08
11:19:10.00
23/09/08
11:39:14.00
uco
Sample 002 By uco Date Friday, September 08 2023
450.000000
#HDR
-1
-1
#GR
cm-1
%T
1.0
0.0
4000.000000
-1.000000
3551
8
99.861543
94.941268
#DATA
4000.000000	99.772081
3999.000000	99.775996
3998.000000	99.777425
3997.000000	99.776317
3996.000000	99.774032
3995.000000	99.772753
3994.000000	99.773466
3993.000000	99.774924
3992.000000	99.775002
3991.000000	99.773098
3990.000000	99.770751
3989.000000	99.769855
3988.000000	99.770957
3987.000000	99.773346
3986.000000	99.776069
3985.000000	99.778281
3984.000000	99.778941
3983.000000	99.777057
3982.000000	99.772598
3981.000000	99.766902
3980.000000	99.761847
3979.000000	99.758560
3978.000000	99.757071
3977.000000	99.756989
3976.000000	99.758087
3975.000000	99.760040
3974.000000	99.761822
3973.000000	99.761949
3972.000000	99.759686
3971.000000	99.756110
3970.000000	99.753723
3969.000000	99.754767
3968.000000	99.759446
3967.000000	99.765451
3966.000000	99.769465
3965.000000	99.769425
3964.000000	99.765939
3963.000000	99.761536
3962.000000	99.758430
3961.000000	99.757136
3960.000000	99.756930
3959.000000	99.757180
3958.000000	99.757805
3957.000000	99.758739
3956.000000	99.759755
3955.000000	99.760799
3954.000000	99.762161
3953.000000	99.764238
3952.000000	99.767261
3951.000000	99.771205
3950.000000	99.775434
3949.000000	99.778436
3948.000000	99.778540
3947.000000	99.775226
3946.000000	99.769685
3945.000000	99.764068
3944.000000	99.760385
3943.000000	99.759623
3942.000000	99.761346
3941.000000	99.764525
3940.000000	99.768252
3939.000000	99.771357
3938.000000	99.772236
3937.000000	99.769540
3936.000000	99.763415
3935.000000	99.755923
3934.000000	99.750229
3933.000000	99.749184
3932.000000	99.753417
3931.000000	99.760497
3930.000000	99.766407
3929.000000	99.768400
3928.000000	99.766680
3927.000000	99.763485
3926.000000	99.761099
3925.000000	99.760225
3924.000000	99.759977
3923.000000	99.759377
3922.000000	99.758329
3921.000000	99.757180
3920.000000	99.756061
3919.000000	99.754453
3918.000000	99.751577
3917.000000	99.747734
3916.000000	99.745081
3915.000000	99.746041
3914.000000	99.750848
3913.000000	99.757326
3912.000000	99.762736
3911.000000	99.765825
3910.000000	99.766952
3909.000000	99.766798
3908.000000	99.765243
3907.000000	99.760919
3906.000000	99.752050
3905.000000	99.738472
3904.000000	99.723901
3903.000000	99.715293
3902.000000	99.717499
3901.000000	99.728496
3900.000000	99.741532
3899.000000	99.750732
3898.000000	99.755053
3897.000000	99.757168
3896.000000	99.759433
3895.000000	99.762088
3894.000000	99.763533
3893.000000	99.761337
3892.000000	99.753857
3891.000000	99.742529
3890.000000	99.731882
3889.000000	99.725277
3888.000000	99.722685
3887.000000	99.723584
3886.000000	99.728388
3885.000000	99.736160
3884.000000	99.744728
3883.000000	99.752683
3882.000000	99.759228
3881.000000	99.763456
3880.000000	99.764351
3879.000000	99.762359
3878.000000	99.759170
3877.000000	99.755086
3876.000000	99.750497
3875.000000	99.748307
3874.000000	99.751040
3873.000000	99.757198
3872.000000	99.762757
3871.000000	99.765067
3870.000000	99.763855
3869.000000	99.760591
3868.000000	99.757809
3867.000000	99.756862
3866.000000	99.757624
3865.000000	99.760143
3864.000000	99.763820
3863.000000	99.766226
3862.000000	99.764865
3861.000000	99.759827
3860.000000	99.754126
3859.000000	99.750961
3858.000000	99.750817
3857.000000	99.750728
3856.000000	99.747533
3855.000000	99.742868
3854.000000	99.742589
3853.000000	99.746515
3852.000000	99.750254
3851.000000	99.753730
3850.000000	99.756130
3849.000000	99.756180
3848.000000	99.755118
3847.000000	99.755323
3846.000000	99.757536
3845.000000	99.760180
3844.000000	99.761294
3843.000000	99.760360
3842.000000	99.757577
3841.000000	99.753156
3840.000000	99.748144
3839.000000	99.745146
3838.000000	99.746317
3837.000000	99.750583
3836.000000	99.755070
3835.000000	99.758049
3834.000000	99.759181
3833.000000	99.758756
3832.000000	99.757450
3831.000000	99.755867
3830.000000	99.754393
3829.000000	99.753177
3828.000000	99.752744
3827.000000	99.753838
3826.000000	99.755766
3825.000000	99.756611
3824.000000	99.755381
3823.000000	99.753635
3822.000000	99.753598
3821.000000	99.753417
3820.000000	99.750422
3819.000000	99.747767
3818.000000	99.748582
3817.000000	99.751273
3816.000000	99.752699
3815.000000	99.751864
3814.000000	99.751365
3813.000000	99.753532
3812.000000	99.757665
3811.000000	99.761826
3810.000000	99.764065
3809.000000	99.762688
3808.000000	99.757244
3807.000000	99.749133
3806.000000	99.741075
3805.000000	99.735788
3804.000000	99.734445
3803.000000	99.738037
3802.000000	99.746732
3801.000000	99.756144
3800.000000	99.762047
3799.000000	99.765999
3798.000000	99.769430
3797.000000	99.770953
3796.000000	99.769349
3795.000000	99.765727
3794.000000	99.762326
3793.000000	99.759698
3792.000000	99.756917
3791.000000	99.753679
3790.000000	99.750778
3789.000000	99.749187
3788.000000	99.749583
3787.000000	99.751704
3786.000000	99.753871
3785.000000	99.754157
3784.000000	99.752701
3783.000000	99.751827
3782.000000	99.753039
3781.000000	99.754992
3780.000000	99.755069
3779.000000	99.752451
3778.000000	99.749493
3777.000000	99.749283
3776.000000	99.752404
3775.000000	99.756803
3774.000000	99.759420
3773.000000	99.758072
3772.000000	99.753318
3771.000000	99.748735
3770.000000	99.747907
3769.000000	99.750871
3768.000000	99.755200
3767.000000	99.758692
3766.000000	99.760583
3765.000000	99.761934
3764.000000	99.764916
3763.000000	99.770542
3762.000000	99.776888
3761.000000	99.780088
3760.000000	99.776908
3759.000000	99.767631
3758.000000	99.756955
3757.000000	99.750507
3756.000000	99.750685
3755.000000	99.755575
3754.000000	99.760765
3753.000000	99.762320
3752.000000	99.759353
3751.000000	99.753733
3750.000000	99.746933
3749.000000	99.739820
3748.000000	99.733233
3747.000000	99.726707
3746.000000	99.720301
3745.000000	99.715830
3744.000000	99.715145
3743.000000	99.721173
3742.000000	99.735266
3741.000000	99.752932
3740.000000	99.768499
3739.000000	99.778416
3738.000000	99.780804
3737.000000	99.775552
3736.000000	99.766423
3735.000000	99.759775
3734.000000	99.758364
3733.000000	99.759911
3732.000000	99.762227
3731.000000	99.765618
3730.000000	99.770168
3729.000000	99.774011
3728.000000	99.775949
3727.000000	99.776856
3726.000000	99.777627
3725.000000	99.777481
3724.000000	99.775782
3723.000000	99.773345
3722.000000	99.770490
3721.000000	99.766712
3720.000000	99.762269
3719.000000	99.758790
3718.000000	99.757370
3717.000000	99.757307
3716.000000	99.757309
3715.000000	99.756866
3714.000000	99.756100
3713.000000	99.755396
3712.000000	99.755408
3711.000000	99.756796
3710.000000	99.759729
3709.000000	99.763161
3708.000000	99.766070
3707.000000	99.767803
3706.000000	99.767402
3705.000000	99.764062
3704.000000	99.758745
3703.000000	99.754274
3702.000000	99.752366
3701.000000	99.751398
3700.000000	99.749516
3699.000000	99.747591
3698.000000	99.747710
3697.000000	99.751361
3696.000000	99.758580
3695.000000	99.767527
3694.000000	99.774686
3693.000000	99.777056
3692.000000	99.774710
3691.000000	99.770938
3690.000000	99.768154
3689.000000	99.764644
3688.000000	99.759536
3687.000000	99.756943
3686.000000	99.759442
3685.000000	99.764216
3684.000000	99.767389
3683.000000	99.768000
3682.000000	99.768073
3681.000000	99.769990
3680.000000	99.774340
3679.000000	99.779183
3678.000000	99.781464
3677.000000	99.780102
3676.000000	99.776694
3675.000000	99.771662
3674.000000	99.765473
3673.000000	99.760096
3672.000000	99.755825
3671.000000	99.754222
3670.000000	99.756411
3669.000000	99.757124
3668.000000	99.752184
3667.000000	99.744254
3666.000000	99.736604
3665.000000	99.730949
3664.000000	99.728369
3663.000000	99.728563
3662.000000	99.729048
3661.000000	99.726841
3660.000000	99.721960
3659.000000	99.717769
3658.000000	99.717514
3657.000000	99.720658
3656.000000	99.723154
3655.000000	99.722659
3654.000000	99.720165
3653.000000	99.716543
3652.000000	99.713029
3651.000000	99.713124
3650.000000	99.718762
3649.000000	99.725250
3648.000000	99.726628
3647.000000	99.723700
3646.000000	99.720815
3645.000000	99.720267
3644.000000	99.721767
3643.000000	99.723702
3642.000000	99.723949
3641.000000	99.721381
3640.000000	99.717760
3639.000000	99.716194
3638.000000	99.716834
3637.000000	99.716338
3636.000000	99.712392
3635.000000	99.706627
3634.000000	99.701825
3633.000000	99.698074
3632.000000	99.693696
3631.000000	99.688970
3630.000000	99.686045
3629.000000	99.683066
3628.000000	99.675321
3627.000000	99.666680
3626.000000	99.663180
3625.000000	99.663644
3624.000000	99.664984
3623.000000	99.666222
3622.000000	99.667308
3621.000000	99.667977
3620.000000	99.668370
3619.000000	99.669064
3618.000000	99.670229
3617.000000	99.671499
3616.000000	99.672394
3615.000000	99.672850
3614.000000	99.672577
3613.000000	99.670064
3612.000000	99.664299
3611.000000	99.657138
3610.000000	99.651350
3609.000000	99.647852
3608.000000	99.645646
3607.000000	99.643775
3606.000000	99.642529
3605.000000	99.642304
3604.000000	99.643043
3603.000000	99.644173
3602.000000	99.644360
3601.000000	99.642458
3600.000000	99.639531
3599.000000	99.638670
3598.000000	99.641658
3597.000000	99.646667
3596.000000	99.650011
3595.000000	99.649231
3594.000000	99.644121
3593.000000	99.636591
3592.000000	99.629688
3591.000000	99.626105
3590.000000	99.627188
3589.000000	99.632598
3588.000000	99.639318
3587.000000	99.642164
3586.000000	99.638584
3585.000000	99.631379
3584.000000	99.624838
3583.000000	99.620806
3582.000000	99.618210
3581.000000	99.614963
3580.000000	99.610592
3579.000000	99.606850
3578.000000	99.605025
3577.000000	99.604169
3576.000000	99.602539
3575.000000	99.599631
3574.000000	99.596023
3573.000000	99.592376
3572.000000	99.589258
3571.000000	99.586595
3570.000000	99.583135
3569.000000	99.577707
3568.000000	99.571631
3567.000000	99.567826
3566.000000	99.566443
3565.000000	99.564833
3564.000000	99.562348
3563.000000	99.560659
3562.000000	99.560512
3561.000000	99.560453
3560.000000	99.558836
3559.000000	99.555475
3558.000000	99.550368
3557.000000	99.542726
3556.000000	99.533015
3555.000000	99.524431
3554.000000	99.520550
3553.000000	99.521509
3552.000000	99.524001
3551.000000	99.524941
3550.000000	99.523724
3549.000000	99.521274
3548.000000	99.518750
3547.000000	99.516721
3546.000000	99.514321
3545.000000	99.509970
3544.000000	99.503578
3543.000000	99.496614
3542.000000	99.489852
3541.000000	99.482957
3540.000000	99.476455
3539.000000	99.472207
3538.000000	99.471285
3537.000000	99.472627
3536.000000	99.474569
3535.000000	99.476351
3534.000000	99.477123
3533.000000	99.475405
3532.000000	99.470800
3531.000000	99.464894
3530.000000	99.459139
3529.000000	99.452879
3528.000000	99.445026
3527.000000	99.436750
3526.000000	99.430805
3525.000000	99.429024
3524.000000	99.431537
3523.000000	99.437009
3522.000000	99.442754
3521.000000	99.445780
3520.000000	99.444598
3519.000000	99.439493
3518.000000	99.431189
3517.000000	99.420533
3516.000000	99.409449
3515.000000	99.400554
3514.000000	99.394975
3513.000000	99.392017
3512.000000	99.391367
3511.000000	99.393782
3510.000000	99.398547
3509.000000	99.402291
3508.000000	99.402233
3507.000000	99.399172
3506.000000	99.395853
3505.000000	99.393971
3504.000000	99.393540
3503.000000	99.393447
3502.000000	99.391946
3501.000000	99.388123
3500.000000	99.383256
3499.000000	99.379238
3498.000000	99.375447
3497.000000	99.368972
3496.000000	99.358806
3495.000000	99.348006
3494.000000	99.340495
3493.000000	99.337575
3492.000000	99.338917
3491.000000	99.344492
3490.000000	99.353324
3489.000000	99.361819
3488.000000	99.365725
3487.000000	99.363446
3486.000000	99.356431
3485.000000	99.347214
3484.000000	99.338396
3483.000000	99.332329
3482.000000	99.329882
3481.000000	99.329908
3480.000000	99.330947
3479.000000	99.332319
3478.000000	99.332792
3477.000000	99.329986
3476.000000	99.322681
3475.000000	99.312678
3474.000000	99.302989
3473.000000	99.295108
3472.000000	99.289250
3471.000000	99.285886
3470.000000	99.285253
3469.000000	99.286167
3468.000000	99.286995
3467.000000	99.287617
3466.000000	99.289318
3465.000000	99.292724
3464.000000	99.296378
3463.000000	99.297259
3462.000000	99.292832
3461.000000	99.283588
3460.000000	99.273609
3459.000000	99.267398
3458.000000	99.265939
3457.000000	99.266817
3456.000000	99.267969
3455.000000	99.269858
3454.000000	99.273533
3453.000000	99.278386
3452.000000	99.282455
3451.000000	99.283596
3450.000000	99.279875
3449.000000	99.270678
3448.000000	99.258684
3447.000000	99.249216
3446.000000	99.245875
3445.000000	99.247875
3444.000000	99.252288
3443.000000	99.256960
3442.000000	99.260561
3441.000000	99.261818
3440.000000	99.260068
3439.000000	99.255593
3438.000000	99.248900
3437.000000	99.240979
3436.000000	99.234429
3435.000000	99.232189
3434.000000	99.234078
3433.000000	99.236230
3432.000000	99.235051
3431.000000	99.230570
3430.000000	99.225165
3429.000000	99.220641
3428.000000	99.217548
3427.000000	99.215664
3426.000000	99.213944
3425.000000	99.211337
3424.000000	99.208616
3423.000000	99.208070
3422.000000	99.210445
3421.000000	99.213731
3420.000000	99.215796
3419.000000	99.216394
3418.000000	99.215394
3417.000000	99.211458
3416.000000	99.204322
3415.000000	99.196606
3414.000000	99.191350
3413.000000	99.188694
3412.000000	99.186648
3411.000000	99.184070
3410.000000	99.181404
3409.000000	99.179431
3408.000000	99.178838
3407.000000	99.180401
3406.000000	99.184347
3405.000000	99.189822
3404.000000	99.195295
3403.000000	99.198545
3402.000000	99.196340
3401.000000	99.186615
3400.000000	99.171975
3399.000000	99.159176
3398.000000	99.153520
3397.000000	99.154708
3396.000000	99.158991
3395.000000	99.163413
3394.000000	99.166517
3393.000000	99.167133
3392.000000	99.165030
3391.000000	99.161757
3390.000000	99.158947
3389.000000	99.156560
3388.000000	99.154042
3387.000000	99.151961
3386.000000	99.150744
3385.000000	99.148708
3384.000000	99.143371
3383.000000	99.134583
3382.000000	99.125134
3381.000000	99.118611
3380.000000	99.117233
3379.000000	99.120665
3378.000000	99.125788
3377.000000	99.128565
3376.000000	99.127418
3375.000000	99.124397
3374.000000	99.122434
3373.000000	99.122283
3372.000000	99.122749
3371.000000	99.122732
3370.000000	99.121860
3369.000000	99.120005
3368.000000	99.117394
3367.000000	99.114677
3366.000000	99.112046
3365.000000	99.108744
3364.000000	99.104078
3363.000000	99.098391
3362.000000	99.092720
3361.000000	99.088202
3360.000000	99.085810
3359.000000	99.085502
3358.000000	99.085547
3357.000000	99.083900
3356.000000	99.080462
3355.000000	99.076640
3354.000000	99.072620
3353.000000	99.066965
3352.000000	99.059401
3351.000000	99.051759
3350.000000	99.045147
3349.000000	99.038262
3348.000000	99.029942
3347.000000	99.022063
3346.000000	99.018290
3345.000000	99.020418
3344.000000	99.026593
3343.000000	99.032375
3342.000000	99.033344
3341.000000	99.028241
3340.000000	99.020329
3339.000000	99.014459
3338.000000	99.012279
3337.000000	99.011435
3336.000000	99.009318
3335.000000	99.005515
3334.000000	99.000150
3333.000000	98.992500
3332.000000	98.983074
3331.000000	98.974914
3330.000000	98.970808
3329.000000	98.970350
3328.000000	98.971051
3327.000000	98.971187
3326.000000	98.970391
3325.000000	98.968663
3324.000000	98.966182
3323.000000	98.963253
3322.000000	98.959506
3321.000000	98.954265
3320.000000	98.948372
3319.000000	98.944064
3318.000000	98.942033
3317.000000	98.940155
3316.000000	98.936333
3315.000000	98.931186
3314.000000	98.926608
3313.000000	98.923105
3312.000000	98.920037
3311.000000	98.917248
3310.000000	98.915113
3309.000000	98.913897
3308.000000	98.914007
3307.000000	98.915542
3306.000000	98.916726
3305.000000	98.914621
3304.000000	98.908835
3303.000000	98.903018
3302.000000	98.901111
3301.000000	98.903292
3300.000000	98.907107
3299.000000	98.910999
3298.000000	98.914534
3297.000000	98.916665
3296.000000	98.916202
3295.000000	98.913726
3294.000000	98.911263
3293.000000	98.910201
3292.000000	98.910870
3291.000000	98.913472
3290.000000	98.917788
3289.000000	98.922305
3288.000000	98.925081
3287.000000	98.925502
3286.000000	98.924096
3285.000000	98.921001
3284.000000	98.915891
3283.000000	98.909351
3282.000000	98.903408
3281.000000	98.900288
3280.000000	98.900874
3279.000000	98.904172
3278.000000	98.908263
3277.000000	98.912268
3276.000000	98.917317
3275.000000	98.924592
3274.000000	98.932468
3273.000000	98.937103
3272.000000	98.936170
3271.000000	98.930787
3270.000000	98.923530
3269.000000	98.916526
3268.000000	98.912010
3267.000000	98.912385
3266.000000	98.917838
3265.000000	98.924941
3264.000000	98.929398
3263.000000	98.929762
3262.000000	98.927842
3261.000000	98.926523
3260.000000	98.928031
3259.000000	98.932957
3258.000000	98.939480
3257.000000	98.944260
3256.000000	98.945462
3255.000000	98.944713
3254.000000	98.945343
3253.000000	98.949139
3252.000000	98.955243
3251.000000	98.961369
3250.000000	98.965411
3249.000000	98.966719
3248.000000	98.966523
3247.000000	98.966497
3246.000000	98.966720
3245.000000	98.966035
3244.000000	98.964513
3243.000000	98.963962
3242.000000	98.965410
3241.000000	98.967642
3240.000000	98.969102
3239.000000	98.969884
3238.000000	98.971023
3237.000000	98.973076
3236.000000	98.976136
3235.000000	98.980046
3234.000000	98.983860
3233.000000	98.986478
3232.000000	98.988442
3231.000000	98.991588
3230.000000	98.995987
3229.000000	98.998957
3228.000000	98.998452
3227.000000	98.996119
3226.000000	98.995385
3225.000000	98.997515
3224.000000	99.000685
3223.000000	99.002046
3222.000000	98.999786
3221.000000	98.994268
3220.000000	98.988545
3219.000000	98.986821
3218.000000	98.990968
3217.000000	98.999081
3216.000000	99.007864
3215.000000	99.015517
3214.000000	99.021642
3213.000000	99.025638
3212.000000	99.026653
3211.000000	99.024462
3210.000000	99.019653
3209.000000	99.013609
3208.000000	99.008956
3207.000000	99.008699
3206.000000	99.013582
3205.000000	99.020862
3204.000000	99.026620
3203.000000	99.029131
3202.000000	99.029705
3201.000000	99.031033
3200.000000	99.035192
3199.000000	99.042026
3198.000000	99.048826
3197.000000	99.052463
3196.000000	99.052524
3195.000000	99.051329
3194.000000	99.050419
3193.000000	99.048815
3192.000000	99.045646
3191.000000	99.042928
3190.000000	99.043886
3189.000000	99.049127
3188.000000	99.055804
3187.000000	99.060330
3186.000000	99.061113
3185.000000	99.059308
3184.000000	99.057912
3183.000000	99.059710
3182.000000	99.065037
3181.000000	99.071329
3180.000000	99.075201
3179.000000	99.074920
3178.000000	99.071502
3177.000000	99.068189
3176.000000	99.068610
3175.000000	99.073842
3174.000000	99.080862
3173.000000	99.085139
3172.000000	99.085427
3171.000000	99.085133
3170.000000	99.088347
3169.000000	99.095850
3168.000000	99.105266
3167.000000	99.113650
3166.000000	99.118972
3165.000000	99.120759
3164.000000	99.120781
3163.000000	99.122069
3162.000000	99.125789
3161.000000	99.129583
3160.000000	99.130154
3159.000000	99.126939
3158.000000	99.122496
3157.000000	99.120000
3156.000000	99.121339
3155.000000	99.126630
3154.000000	99.134097
3153.000000	99.140576
3152.000000	99.143474
3151.000000	99.142530
3150.000000	99.139494
3149.000000	99.136405
3148.000000	99.134536
3147.000000	99.134335
3146.000000	99.135573
3145.000000	99.137756
3144.000000	99.140714
3143.000000	99.144550
3142.000000	99.148998
3141.000000	99.153584
3140.000000	99.158535
3139.000000	99.164570
3138.000000	99.171227
3137.000000	99.176184
3136.000000	99.176867
3135.000000	99.172776
3134.000000	99.166390
3133.000000	99.162301
3132.000000	99.164667
3131.000000	99.173971
3130.000000	99.185896
3129.000000	99.194485
3128.000000	99.196768
3127.000000	99.194112
3126.000000	99.189648
3125.000000	99.185776
3124.000000	99.183889
3123.000000	99.184454
3122.000000	99.186613
3121.000000	99.188993
3120.000000	99.191351
3119.000000	99.194120
3118.000000	99.196307
3117.000000	99.195773
3116.000000	99.192220
3115.000000	99.187994
3114.000000	99.185077
3113.000000	99.183052
3112.000000	99.180999
3111.000000	99.179605
3110.000000	99.179928
3109.000000	99.181293
3108.000000	99.181770
3107.000000	99.180111
3106.000000	99.176601
3105.000000	99.173113
3104.000000	99.172744
3103.000000	99.177685
3102.000000	99.186201
3101.000000	99.193135
3100.000000	99.194942
3099.000000	99.193016
3098.000000	99.190982
3097.000000	99.190275
3096.000000	99.189960
3095.000000	99.189247
3094.000000	99.188019
3093.000000	99.185510
3092.000000	99.180722
3091.000000	99.174279
3090.000000	99.168530
3089.000000	99.165638
3088.000000	99.166163
3087.000000	99.169181
3086.000000	99.173010
3085.000000	99.176247
3084.000000	99.178775
3083.000000	99.181320
3082.000000	99.183695
3081.000000	99.184443
3080.000000	99.182781
3079.000000	99.179775
3078.000000	99.176736
3077.000000	99.173753
3076.000000	99.170841
3075.000000	99.169207
3074.000000	99.169821
3073.000000	99.171625
3072.000000	99.172710
3071.000000	99.172760
3070.000000	99.172944
3069.000000	99.173787
3068.000000	99.174550
3067.000000	99.174591
3066.000000	99.174282
3065.000000	99.174639
3064.000000	99.176779
3063.000000	99.181409
3062.000000	99.187920
3061.000000	99.194194
3060.000000	99.197933
3059.000000	99.198031
3058.000000	99.194683
3057.000000	99.189208
3056.000000	99.184260
3055.000000	99.182789
3054.000000	99.185482
3053.000000	99.190039
3052.000000	99.193949
3051.000000	99.196998
3050.000000	99.200020
3049.000000	99.202610
3048.000000	99.203970
3047.000000	99.205303
3046.000000	99.208972
3045.000000	99.215068
3044.000000	99.220746
3043.000000	99.223514
3042.000000	99.223889
3041.000000	99.224137
3040.000000	99.225507
3039.000000	99.227557
3038.000000	99.229540
3037.000000	99.231473
3036.000000	99.233773
3035.000000	99.236295
3034.000000	99.238286
3033.000000	99.239603
3032.000000	99.241523
3031.000000	99.245311
3030.000000	99.249861
3029.000000	99.252063
3028.000000	99.250268
3027.000000	99.246597
3026.000000	99.244940
3025.000000	99.247333
3024.000000	99.253047
3023.000000	99.260401
3022.000000	99.268032
3021.000000	99.274636
3020.000000	99.279088
3019.000000	99.281306
3018.000000	99.282225
3017.000000	99.282712
3016.000000	99.283097
3015.000000	99.283709
3014.000000	99.284818
3013.000000	99.285763
3012.000000	99.284985
3011.000000	99.281713
3010.000000	99.277294
3009.000000	99.274292
3008.000000	99.274189
3007.000000	99.276295
3006.000000	99.279105
3005.000000	99.282278
3004.000000	99.286543
3003.000000	99.291491
3002.000000	99.294631
3001.000000	99.293739
3000.000000	99.289624
2999.000000	99.285302
2998.000000	99.282634
2997.000000	99.281268
2996.000000	99.280806
2995.000000	99.281979
2994.000000	99.284706
2993.000000	99.286704
2992.000000	99.285733
2991.000000	99.282388
2990.000000	99.279387
2989.000000	99.278596
2988.000000	99.279760
2987.000000	99.281390
2986.000000	99.281608
2985.000000	99.278734
2984.000000	99.272506
2983.000000	99.264872
2982.000000	99.258457
2981.000000	99.254167
2980.000000	99.250834
2979.000000	99.246897
2978.000000	99.241674
2977.000000	99.235492
2976.000000	99.229815
2975.000000	99.226932
2974.000000	99.228087
2973.000000	99.231620
2972.000000	99.233971
2971.000000	99.232787
2970.000000	99.228233
2969.000000	99.221293
2968.000000	99.212088
2967.000000	99.200572
2966.000000	99.187902
2965.000000	99.176108
2964.000000	99.166435
2963.000000	99.158579
2962.000000	99.151444
2961.000000	99.144425
2960.000000	99.138048
2959.000000	99.133561
2958.000000	99.131754
2957.000000	99.132024
2956.000000	99.132745
2955.000000	99.132641
2954.000000	99.131795
2953.000000	99.131360
2952.000000	99.132449
2951.000000	99.135163
2950.000000	99.138415
2949.000000	99.140698
2948.000000	99.141270
2947.000000	99.140451
2946.000000	99.138375
2945.000000	99.133707
2944.000000	99.124544
2943.000000	99.111104
2942.000000	99.096953
2941.000000	99.086620
2940.000000	99.081786
2939.000000	99.080054
2938.000000	99.077298
2937.000000	99.070694
2936.000000	99.059644
2935.000000	99.045038
2934.000000	99.028687
2933.000000	99.012996
2932.000000	98.999807
2931.000000	98.989006
2930.000000	98.978607
2929.000000	98.966591
2928.000000	98.952495
2927.000000	98.937397
2926.000000	98.922859
2925.000000	98.910001
2924.000000	98.899010
2923.000000	98.889290
2922.000000	98.880420
2921.000000	98.872968
2920.000000	98.867961
2919.000000	98.865820
2918.000000	98.866686
2917.000000	98.871620
2916.000000	98.882031
2915.000000	98.897376
2914.000000	98.914661
2913.000000	98.931267
2912.000000	98.947418
2911.000000	98.964793
2910.000000	98.983513
2909.000000	99.001893
2908.000000	99.018689
2907.000000	99.033895
2906.000000	99.047256
2905.000000	99.057596
2904.000000	99.064420
2903.000000	99.069338
2902.000000	99.075012
2901.000000	99.083054
2900.000000	99.092709
2899.000000	99.101747
2898.000000	99.108185
2897.000000	99.111762
2896.000000	99.113826
2895.000000	99.115779
2894.000000	99.117979
2893.000000	99.120526
2892.000000	99.124207
2891.000000	99.129627
2890.000000	99.135835
2889.000000	99.141218
2888.000000	99.145706
2887.000000	99.150648
2886.000000	99.156197
2885.000000	99.160243
2884.000000	99.160816
2883.000000	99.158602
2882.000000	99.156158
2881.000000	99.155309
2880.000000	99.156037
2879.000000	99.157511
2878.000000	99.159238
2877.000000	99.161314
2876.000000	99.164010
2875.000000	99.167038
2874.000000	99.168912
2873.000000	99.167510
2872.000000	99.161993
2871.000000	99.154250
2870.000000	99.148125
2869.000000	99.146840
2868.000000	99.150874
2867.000000	99.157764
2866.000000	99.163757
2865.000000	99.166106
2864.000000	99.164204
2863.000000	99.158958
2862.000000	99.151644
2861.000000	99.143554
2860.000000	99.135960
2859.000000	99.129022
2858.000000	99.120848
2857.000000	99.108828
2856.000000	99.092507
2855.000000	99.074403
2854.000000	99.057832
2853.000000	99.044618
2852.000000	99.035282
2851.000000	99.030491
2850.000000	99.031317
2849.000000	99.038273
2848.000000	99.050533
2847.000000	99.066080
2846.000000	99.082677
2845.000000	99.099251
2844.000000	99.116412
2843.000000	99.135103
2842.000000	99.154653
2841.000000	99.172868
2840.000000	99.188347
2839.000000	99.201716
2838.000000	99.214083
2837.000000	99.225298
2836.000000	99.234539
2835.000000	99.241843
2834.000000	99.247953
2833.000000	99.253222
2832.000000	99.257764
2831.000000	99.262205
2830.000000	99.267021
2829.000000	99.271212
2828.000000	99.273006
2827.000000	99.272223
2826.000000	99.270911
2825.000000	99.271030
2824.000000	99.272380
2823.000000	99.273589
2822.000000	99.274495
2821.000000	99.276404
2820.000000	99.280022
2819.000000	99.284193
2818.000000	99.287231
2817.000000	99.288913
2816.000000	99.290502
2815.000000	99.293058
2814.000000	99.296391
2813.000000	99.299685
2812.000000	99.302397
2811.000000	99.304240
2810.000000	99.304912
2809.000000	99.304468
2808.000000	99.303692
2807.000000	99.303497
2806.000000	99.304098
2805.000000	99.305154
2804.000000	99.306447
2803.000000	99.307854
2802.000000	99.308889
2801.000000	99.309021
2800.000000	99.308459
2799.000000	99.307976
2798.000000	99.307936
2797.000000	99.308162
2796.000000	99.308844
2795.000000	99.310764
2794.000000	99.314221
2793.000000	99.318348
2792.000000	99.322021
2791.000000	99.325100
2790.000000	99.328367
2789.000000	99.332369
2788.000000	99.336613
2787.000000	99.339840
2786.000000	99.341002
2785.000000	99.340113
2784.000000	99.338175
2783.000000	99.336205
2782.000000	99.334577
2781.000000	99.333474
2780.000000	99.333464
2779.000000	99.334983
2778.000000	99.337587
2777.000000	99.340400
2776.000000	99.342977
2775.000000	99.344862
2774.000000	99.344714
2773.000000	99.341396
2772.000000	99.336238
2771.000000	99.332766
2770.000000	99.333283
2769.000000	99.336553
2768.000000	99.339516
2767.000000	99.340516
2766.000000	99.340198
2765.000000	99.340073
2764.000000	99.341083
2763.000000	99.343030
2762.000000	99.344486
2761.000000	99.343775
2760.000000	99.340958
2759.000000	99.338544
2758.000000	99.339328
2757.000000	99.343636
2756.000000	99.349291
2755.000000	99.354005
2754.000000	99.357032
2753.000000	99.358815
2752.000000	99.360086
2751.000000	99.361403
2750.000000	99.362738
2749.000000	99.363287
2748.000000	99.362287
2747.000000	99.360156
2746.000000	99.358247
2745.000000	99.357406
2744.000000	99.357337
2743.000000	99.357481
2742.000000	99.357837
2741.000000	99.358543
2740.000000	99.359143
2739.000000	99.358840
2738.000000	99.357555
2737.000000	99.356507
2736.000000	99.357507
2735.000000	99.361266
2734.000000	99.366186
2733.000000	99.369190
2732.000000	99.368372
2731.000000	99.364808
2730.000000	99.361505
2729.000000	99.360703
2728.000000	99.362496
2727.000000	99.365655
2726.000000	99.368903
2725.000000	99.371419
2724.000000	99.373109
2723.000000	99.374817
2722.000000	99.377602
2721.000000	99.381204
2720.000000	99.383557
2719.000000	99.382417
2718.000000	99.377556
2717.000000	99.371188
2716.000000	99.366296
2715.000000	99.364524
2714.000000	99.365315
2713.000000	99.366827
2712.000000	99.367850
2711.000000	99.369039
2710.000000	99.372127
2709.000000	99.377708
2708.000000	99.383922
2707.000000	99.387595
2706.000000	99.386867
2705.000000	99.382766
2704.000000	99.378251
2703.000000	99.375701
2702.000000	99.375194
2701.000000	99.375166
2700.000000	99.374628
2699.000000	99.374457
2698.000000	99.376335
2697.000000	99.380694
2696.000000	99.385977
2695.000000	99.389744
2694.000000	99.390244
2693.000000	99.387298
2692.000000	99.382534
2691.000000	99.378850
2690.000000	99.378782
2689.000000	99.382637
2688.000000	99.388214
2687.000000	99.392577
2686.000000	99.394106
2685.000000	99.393037
2684.000000	99.390647
2683.000000	99.388224
2682.000000	99.386353
2681.000000	99.384631
2680.000000	99.382257
2679.000000	99.379237
2678.000000	99.376799
2677.000000	99.376257
2676.000000	99.377752
2675.000000	99.380519
2674.000000	99.384069
2673.000000	99.388345
2672.000000	99.392688
2671.000000	99.395529
2670.000000	99.395685
2669.000000	99.393623
2668.000000	99.391005
2667.000000	99.389166
2666.000000	99.388238
2665.000000	99.387426
2664.000000	99.385627
2663.000000	99.381958
2662.000000	99.376412
2661.000000	99.370270
2660.000000	99.365480
2659.000000	99.363237
2658.000000	99.363163
2657.000000	99.364001
2656.000000	99.365008
2655.000000	99.366517
2654.000000	99.369172
2653.000000	99.372804
2652.000000	99.376149
2651.000000	99.377847
2650.000000	99.377866
2649.000000	99.377911
2648.000000	99.380167
2647.000000	99.385400
2646.000000	99.392205
2645.000000	99.398049
2644.000000	99.400969
2643.000000	99.400669
2642.000000	99.398610
2641.000000	99.397131
2640.000000	99.397674
2639.000000	99.399320
2638.000000	99.399614
2637.000000	99.397644
2636.000000	99.395938
2635.000000	99.398168
2634.000000	99.404833
2633.000000	99.412252
2632.000000	99.416202
2631.000000	99.415696
2630.000000	99.412621
2629.000000	99.408822
2628.000000	99.404809
2627.000000	99.400854
2626.000000	99.397974
2625.000000	99.397465
2624.000000	99.400127
2623.000000	99.405870
2622.000000	99.413287
2621.000000	99.419794
2620.000000	99.423432
2619.000000	99.424811
2618.000000	99.426180
2617.000000	99.428096
2616.000000	99.428220
2615.000000	99.424269
2614.000000	99.417245
2613.000000	99.410772
2612.000000	99.407819
2611.000000	99.408899
2610.000000	99.412542
2609.000000	99.416225
2608.000000	99.417673
2607.000000	99.417106
2606.000000	99.418120
2605.000000	99.424561
2604.000000	99.436033
2603.000000	99.447689
2602.000000	99.454814
2601.000000	99.456445
2600.000000	99.454452
2599.000000	99.451075
2598.000000	99.448186
2597.000000	99.447077
2596.000000	99.447118
2595.000000	99.445488
2594.000000	99.440069
2593.000000	99.432465
2592.000000	99.426990
2591.000000	99.426733
2590.000000	99.431490
2589.000000	99.438811
2588.000000	99.445656
2587.000000	99.449296
2586.000000	99.448492
2585.000000	99.444740
2584.000000	99.441641
2583.000000	99.442399
2582.000000	99.447974
2581.000000	99.457049
2580.000000	99.466635
2579.000000	99.472855
2578.000000	99.472997
2577.000000	99.468103
2576.000000	99.462872
2575.000000	99.461839
2574.000000	99.465572
2573.000000	99.471012
2572.000000	99.474792
2571.000000	99.475403
2570.000000	99.472675
2569.000000	99.467010
2568.000000	99.460029
2567.000000	99.454875
2566.000000	99.454164
2565.000000	99.457308
2564.000000	99.460837
2563.000000	99.462207
2562.000000	99.462686
2561.000000	99.465451
2560.000000	99.470769
2559.000000	99.474382
2558.000000	99.471644
2557.000000	99.462622
2556.000000	99.452121
2555.000000	99.444934
2554.000000	99.442520
2553.000000	99.444448
2552.000000	99.450949
2551.000000	99.461977
2550.000000	99.474394
2549.000000	99.482693
2548.000000	99.483823
2547.000000	99.480218
2546.000000	99.476730
2545.000000	99.475224
2544.000000	99.473653
2543.000000	99.470331
2542.000000	99.467201
2541.000000	99.467803
2540.000000	99.472787
2539.000000	99.478860
2538.000000	99.482232
2537.000000	99.482153
2536.000000	99.480425
2535.000000	99.477970
2534.000000	99.473047
2533.000000	99.463721
2532.000000	99.451688
2531.000000	99.442608
2530.000000	99.441783
2529.000000	99.449843
2528.000000	99.462715
2527.000000	99.475055
2526.000000	99.483022
2525.000000	99.484886
2524.000000	99.481047
2523.000000	99.473837
2522.000000	99.465806
2521.000000	99.457692
2520.000000	99.449251
2519.000000	99.442201
2518.000000	99.440286
2517.000000	99.444952
2516.000000	99.452238
2515.000000	99.455827
2514.000000	99.452875
2513.000000	99.445737
2512.000000	99.438935
2511.000000	99.435936
2510.000000	99.438077
2509.000000	99.444036
2508.000000	99.449716
2507.000000	99.450312
2506.000000	99.443859
2505.000000	99.432770
2504.000000	99.422264
2503.000000	99.417452
2502.000000	99.420680
2501.000000	99.429907
2500.000000	99.439983
2499.000000	99.447312
2498.000000	99.453188
2497.000000	99.460893
2496.000000	99.470220
2495.000000	99.477470
2494.000000	99.480823
2493.000000	99.482482
2492.000000	99.484264
2491.000000	99.484115
2490.000000	99.479446
2489.000000	99.471980
2488.000000	99.466569
2487.000000	99.466200
2486.000000	99.470320
2485.000000	99.476859
2484.000000	99.483254
2483.000000	99.485984
2482.000000	99.482354
2481.000000	99.473821
2480.000000	99.465790
2479.000000	99.462771
2478.000000	99.464544
2477.000000	99.467685
2476.000000	99.469799
2475.000000	99.471550
2474.000000	99.474961
2473.000000	99.480589
2472.000000	99.486701
2471.000000	99.491271
2470.000000	99.494304
2469.000000	99.497288
2468.000000	99.500109
2467.000000	99.500007
2466.000000	99.494716
2465.000000	99.485874
2464.000000	99.477810
2463.000000	99.473384
2462.000000	99.472586
2461.000000	99.474813
2460.000000	99.480366
2459.000000	99.488796
2458.000000	99.497532
2457.000000	99.503658
2456.000000	99.506622
2455.000000	99.508122
2454.000000	99.509465
2453.000000	99.509877
2452.000000	99.507563
2451.000000	99.501956
2450.000000	99.494851
2449.000000	99.489396
2448.000000	99.487785
2447.000000	99.489793
2446.000000	99.493647
2445.000000	99.498096
2444.000000	99.502947
2443.000000	99.507411
2442.000000	99.508864
2441.000000	99.504315
2440.000000	99.493414
2439.000000	99.479706
2438.000000	99.468944
2437.000000	99.466033
2436.000000	99.472635
2435.000000	99.486377
2434.000000	99.501843
2433.000000	99.513025
2432.000000	99.515982
2431.000000	99.510286
2430.000000	99.498939
2429.000000	99.487182
2428.000000	99.480149
2427.000000	99.479641
2426.000000	99.482775
2425.000000	99.485134
2424.000000	99.485899
2423.000000	99.488545
2422.000000	99.495414
2421.000000	99.503244
2420.000000	99.506361
2419.000000	99.503695
2418.000000	99.500335
2417.000000	99.501756
2416.000000	99.508474
2415.000000	99.516975
2414.000000	99.523867
2413.000000	99.527911
2412.000000	99.529388
2411.000000	99.529125
2410.000000	99.527715
2409.000000	99.524859
2408.000000	99.519943
2407.000000	99.513762
2406.000000	99.508891
2405.000000	99.507768
2404.000000	99.511067
2403.000000	99.518105
2402.000000	99.527495
2401.000000	99.536717
2400.000000	99.542511
2399.000000	99.543072
2398.000000	99.539230
2397.000000	99.532982
2396.000000	99.526072
2395.000000	99.520597
2394.000000	99.519095
2393.000000	99.522379
2392.000000	99.528166
2391.000000	99.533222
2390.000000	99.535891
2389.000000	99.535657
2388.000000	99.532029
2387.000000	99.526059
2386.000000	99.521706
2385.000000	99.523048
2384.000000	99.530160
2383.000000	99.539653
2382.000000	99.549177
2381.000000	99.559343
2380.000000	99.571063
2379.000000	99.582977
2378.000000	99.592218
2377.000000	99.596295
2376.000000	99.593780
2375.000000	99.584984
2374.000000	99.573115
2373.000000	99.563588
2372.000000	99.561205
2371.000000	99.568075
2370.000000	99.583204
2369.000000	99.601599
2368.000000	99.614297
2367.000000	99.613216
2366.000000	99.598033
2365.000000	99.576484
2364.000000	99.557420
2363.000000	99.545829
2362.000000	99.544049
2361.000000	99.551631
2360.000000	99.562414
2359.000000	99.567942
2358.000000	99.564746
2357.000000	99.557566
2356.000000	99.553312
2355.000000	99.553877
2354.000000	99.556864
2353.000000	99.559250
2352.000000	99.559860
2351.000000	99.558843
2350.000000	99.557297
2349.000000	99.556188
2348.000000	99.554901
2347.000000	99.552982
2346.000000	99.551383
2345.000000	99.552114
2344.000000	99.555035
2343.000000	99.557721
2342.000000	99.559933
2341.000000	99.563324
2340.000000	99.567879
2339.000000	99.569357
2338.000000	99.563755
2337.000000	99.552331
2336.000000	99.540993
2335.000000	99.534308
2334.000000	99.532109
2333.000000	99.530372
2332.000000	99.525679
2331.000000	99.518889
2330.000000	99.515490
2329.000000	99.519508
2328.000000	99.525575
2327.000000	99.523241
2326.000000	99.507752
2325.000000	99.486608
2324.000000	99.471986
2323.000000	99.469640
2322.000000	99.476533
2321.000000	99.486631
2320.000000	99.496441
2319.000000	99.503796
2318.000000	99.506982
2317.000000	99.506535
2316.000000	99.506198
2315.000000	99.509912
2314.000000	99.517150
2313.000000	99.523021
2312.000000	99.523212
2311.000000	99.519343
2310.000000	99.516678
2309.000000	99.517138
2308.000000	99.516097
2307.000000	99.509344
2306.000000	99.500284
2305.000000	99.497164
2304.000000	99.503331
2303.000000	99.513850
2302.000000	99.521564
2301.000000	99.522550
2300.000000	99.515861
2299.000000	99.503113
2298.000000	99.490112
2297.000000	99.484414
2296.000000	99.487139
2295.000000	99.490771
2294.000000	99.487709
2293.000000	99.479371
2292.000000	99.473165
2291.000000	99.473515
2290.000000	99.478627
2289.000000	99.484443
2288.000000	99.487428
2287.000000	99.484760
2286.000000	99.475354
2285.000000	99.461334
2284.000000	99.446885
2283.000000	99.436028
2282.000000	99.432177
2281.000000	99.436876
2280.000000	99.447039
2279.000000	99.456461
2278.000000	99.463204
2277.000000	99.472099
2276.000000	99.486453
2275.000000	99.500260
2274.000000	99.503607
2273.000000	99.494076
2272.000000	99.478218
2271.000000	99.463017
2270.000000	99.450610
2269.000000	99.440959
2268.000000	99.435161
2267.000000	99.435293
2266.000000	99.443301
2265.000000	99.459809
2264.000000	99.482180
2263.000000	99.504985
2262.000000	99.523460
2261.000000	99.534807
2260.000000	99.535706
2259.000000	99.522798
2258.000000	99.498860
2257.000000	99.475495
2256.000000	99.465971
2255.000000	99.475675
2254.000000	99.500044
2253.000000	99.527657
2252.000000	99.544527
2251.000000	99.541720
2250.000000	99.522937
2249.000000	99.500993
2248.000000	99.484344
2247.000000	99.472069
2246.000000	99.464168
2245.000000	99.467638
2244.000000	99.485341
2243.000000	99.505901
2242.000000	99.513872
2241.000000	99.505825
2240.000000	99.489406
2239.000000	99.471081
2238.000000	99.453653
2237.000000	99.442149
2236.000000	99.442621
2235.000000	99.456499
2234.000000	99.482951
2233.000000	99.522587
2232.000000	99.569745
2231.000000	99.605612
2230.000000	99.611409
2229.000000	99.589451
2228.000000	99.561458
2227.000000	99.544619
2226.000000	99.538348
2225.000000	99.534928
2224.000000	99.531882
2223.000000	99.529179
2222.000000	99.523184
2221.000000	99.510009
2220.000000	99.492105
2219.000000	99.477738
2218.000000	99.475108
2217.000000	99.486511
2216.000000	99.505386
2215.000000	99.520700
2214.000000	99.528153
2213.000000	99.535108
2212.000000	99.550577
2211.000000	99.573067
2210.000000	99.594153
2209.000000	99.610667
2208.000000	99.625637
2207.000000	99.637989
2206.000000	99.639505
2205.000000	99.623930
2204.000000	99.593722
2203.000000	99.557196
2202.000000	99.524256
2201.000000	99.504386
2200.000000	99.501301
2199.000000	99.507813
2198.000000	99.511265
2197.000000	99.505747
2196.000000	99.496309
2195.000000	99.491786
2194.000000	99.497099
2193.000000	99.510803
2192.000000	99.525569
2191.000000	99.532801
2190.000000	99.531717
2189.000000	99.532955
2188.000000	99.548548
2187.000000	99.578234
2186.000000	99.608635
2185.000000	99.624514
2184.000000	99.619952
2183.000000	99.603061
2182.000000	99.592751
2181.000000	99.604959
2180.000000	99.636154
2179.000000	99.664804
2178.000000	99.673390
2177.000000	99.663645
2176.000000	99.647943
2175.000000	99.633793
2174.000000	99.622950
2173.000000	99.617715
2172.000000	99.616568
2171.000000	99.607214
2170.000000	99.574621
2169.000000	99.518857
2168.000000	99.461942
2167.000000	99.434859
2166.000000	99.454571
2165.000000	99.505242
2164.000000	99.541100
2163.000000	99.524117
2162.000000	99.466441
2161.000000	99.426963
2160.000000	99.458199
2159.000000	99.558338
2158.000000	99.681213
2157.000000	99.781291
2156.000000	99.837098
2155.000000	99.849475
2154.000000	99.835836
2153.000000	99.816438
2152.000000	99.794254
2151.000000	99.755704
2150.000000	99.696781
2149.000000	99.636687
2148.000000	99.596776
2147.000000	99.578158
2146.000000	99.569769
2145.000000	99.565666
2144.000000	99.563369
2143.000000	99.558252
2142.000000	99.553046
2141.000000	99.563086
2140.000000	99.598025
2139.000000	99.644824
2138.000000	99.681315
2137.000000	99.700540
2136.000000	99.709708
2135.000000	99.709689
2134.000000	99.691209
2133.000000	99.652731
2132.000000	99.608561
2131.000000	99.575378
2130.000000	99.558813
2129.000000	99.554875
2128.000000	99.557428
2127.000000	99.562266
2126.000000	99.568050
2125.000000	99.575169
2124.000000	99.582367
2123.000000	99.585700
2122.000000	99.583520
2121.000000	99.580694
2120.000000	99.582998
2119.000000	99.587483
2118.000000	99.583153
2117.000000	99.562577
2116.000000	99.530630
2115.000000	99.500789
2114.000000	99.485146
2113.000000	99.487531
2112.000000	99.502508
2111.000000	99.519843
2110.000000	99.532165
2109.000000	99.539349
2108.000000	99.545625
2107.000000	99.553311
2106.000000	99.561124
2105.000000	99.567280
2104.000000	99.571084
2103.000000	99.571103
2102.000000	99.565101
2101.000000	99.554275
2100.000000	99.546259
2099.000000	99.550795
2098.000000	99.570599
2097.000000	99.596173
2096.000000	99.611619
2095.000000	99.607437
2094.000000	99.587093
2093.000000	99.560970
2092.000000	99.536740
2091.000000	99.517980
2090.000000	99.508555
2089.000000	99.512021
2088.000000	99.525692
2087.000000	99.540172
2086.000000	99.546842
2085.000000	99.543628
2084.000000	99.533881
2083.000000	99.523236
2082.000000	99.517805
2081.000000	99.520948
2080.000000	99.529665
2079.000000	99.537837
2078.000000	99.544367
2077.000000	99.553428
2076.000000	99.564722
2075.000000	99.568690
2074.000000	99.555758
2073.000000	99.528462
2072.000000	99.501360
2071.000000	99.489857
2070.000000	99.499950
2069.000000	99.525380
2068.000000	99.552771
2067.000000	99.571942
2066.000000	99.581605
2065.000000	99.584380
2064.000000	99.579889
2063.000000	99.567700
2062.000000	99.553730
2061.000000	99.545945
2060.000000	99.544881
2059.000000	99.546222
2058.000000	99.552014
2057.000000	99.569440
2056.000000	99.597569
2055.000000	99.624465
2054.000000	99.639010
2053.000000	99.637342
2052.000000	99.618623
2051.000000	99.586169
2050.000000	99.555011
2049.000000	99.544312
2048.000000	99.553197
2047.000000	99.558132
2046.000000	99.544600
2045.000000	99.524766
2044.000000	99.515412
2043.000000	99.517118
2042.000000	99.524857
2041.000000	99.539878
2040.000000	99.558832
2039.000000	99.570029
2038.000000	99.574832
2037.000000	99.594785
2036.000000	99.641069
2035.000000	99.691356
2034.000000	99.715588
2033.000000	99.711027
2032.000000	99.695038
2031.000000	99.676552
2030.000000	99.653709
2029.000000	99.625546
2028.000000	99.588593
2027.000000	99.537815
2026.000000	99.487733
2025.000000	99.475081
2024.000000	99.518494
2023.000000	99.589256
2022.000000	99.638706
2021.000000	99.640254
2020.000000	99.595623
2019.000000	99.522205
2018.000000	99.454595
2017.000000	99.437679
2016.000000	99.484280
2015.000000	99.554597
2014.000000	99.603280
2013.000000	99.626832
2012.000000	99.647595
2011.000000	99.670449
2010.000000	99.682120
2009.000000	99.682884
2008.000000	99.689388
2007.000000	99.705231
2006.000000	99.715945
2005.000000	99.718129
2004.000000	99.730501
2003.000000	99.768132
2002.000000	99.819524
2001.000000	99.853967
2000.000000	99.846303
1999.000000	99.794661
1998.000000	99.720583
1997.000000	99.656656
1996.000000	99.627973
1995.000000	99.639235
1994.000000	99.675512
1993.000000	99.708822
1992.000000	99.711597
1991.000000	99.680529
1990.000000	99.642611
1989.000000	99.624050
1988.000000	99.617896
1987.000000	99.596440
1986.000000	99.555932
1985.000000	99.529324
1984.000000	99.544089
1983.000000	99.584454
1982.000000	99.612024
1981.000000	99.612105
1980.000000	99.603707
1979.000000	99.610053
1978.000000	99.633385
1977.000000	99.656434
1976.000000	99.660517
1975.000000	99.645881
1974.000000	99.637019
1973.000000	99.658323
1972.000000	99.699786
1971.000000	99.721266
1970.000000	99.698627
1969.000000	99.653713
1968.000000	99.631240
1967.000000	99.652579
1966.000000	99.699859
1965.000000	99.737205
1964.000000	99.737647
1963.000000	99.699727
1962.000000	99.652234
1961.000000	99.635199
1960.000000	99.660381
1959.000000	99.697494
1958.000000	99.710641
1957.000000	99.697524
1956.000000	99.684027
1955.000000	99.689827
1954.000000	99.710077
1953.000000	99.726017
1952.000000	99.724544
1951.000000	99.708822
1950.000000	99.694290
1949.000000	99.693611
1948.000000	99.704114
1947.000000	99.712108
1946.000000	99.708374
1945.000000	99.694881
1944.000000	99.678721
1943.000000	99.668399
1942.000000	99.674446
1941.000000	99.699812
1940.000000	99.730218
1939.000000	99.746820
1938.000000	99.746072
1937.000000	99.739813
1936.000000	99.736375
1935.000000	99.731331
1934.000000	99.721333
1933.000000	99.714423
1932.000000	99.717366
1931.000000	99.722843
1930.000000	99.719657
1929.000000	99.709021
1928.000000	99.701431
1927.000000	99.701841
1926.000000	99.706133
1925.000000	99.708916
1924.000000	99.708009
1923.000000	99.703776
1922.000000	99.699583
1921.000000	99.699358
1920.000000	99.701404
1919.000000	99.698308
1918.000000	99.685883
1917.000000	99.670945
1916.000000	99.663563
1915.000000	99.666089
1914.000000	99.675967
1913.000000	99.690542
1912.000000	99.705994
1911.000000	99.717534
1910.000000	99.723667
1909.000000	99.726772
1908.000000	99.727001
1907.000000	99.720487
1906.000000	99.706271
1905.000000	99.689961
1904.000000	99.678049
1903.000000	99.672788
1902.000000	99.674631
1901.000000	99.683433
1900.000000	99.694198
1899.000000	99.698223
1898.000000	99.692662
1897.000000	99.684564
1896.000000	99.682106
1895.000000	99.685275
1894.000000	99.688853
1893.000000	99.689675
1892.000000	99.686859
1891.000000	99.680183
1890.000000	99.673030
1889.000000	99.672913
1888.000000	99.682266
1887.000000	99.694585
1886.000000	99.704197
1885.000000	99.712103
1884.000000	99.720274
1883.000000	99.725997
1882.000000	99.725206
1881.000000	99.717493
1880.000000	99.704720
1879.000000	99.688670
1878.000000	99.673307
1877.000000	99.665020
1876.000000	99.666354
1875.000000	99.673172
1874.000000	99.680936
1873.000000	99.689127
1872.000000	99.696816
1871.000000	99.698841
1870.000000	99.690761
1869.000000	99.677635
1868.000000	99.672420
1867.000000	99.680347
1866.000000	99.695745
1865.000000	99.712012
1864.000000	99.725312
1863.000000	99.734358
1862.000000	99.741600
1861.000000	99.751113
1860.000000	99.761715
1859.000000	99.765386
1858.000000	99.756113
1857.000000	99.737724
1856.000000	99.720055
1855.000000	99.710159
1854.000000	99.709833
1853.000000	99.717424
1852.000000	99.728040
1851.000000	99.735663
1850.000000	99.738290
1849.000000	99.738668
1848.000000	99.738972
1847.000000	99.737424
1846.000000	99.732495
1845.000000	99.727554
1844.000000	99.727931
1843.000000	99.732849
1842.000000	99.736588
1841.000000	99.735947
1840.000000	99.730488
1839.000000	99.720655
1838.000000	99.709599
1837.000000	99.702972
1836.000000	99.703631
1835.000000	99.709431
1834.000000	99.718447
1833.000000	99.732213
1832.000000	99.751391
1831.000000	99.769844
1830.000000	99.776477
1829.000000	99.768483
1828.000000	99.754128
1827.000000	99.740430
1826.000000	99.730252
1825.000000	99.725254
1824.000000	99.725297
1823.000000	99.727619
1822.000000	99.730068
1821.000000	99.733247
1820.000000	99.737955
1819.000000	99.743378
1818.000000	99.748911
1817.000000	99.754340
1816.000000	99.757305
1815.000000	99.754637
1814.000000	99.747700
1813.000000	99.742419
1812.000000	99.742302
1811.000000	99.743926
1810.000000	99.742777
1809.000000	99.740064
1808.000000	99.738497
1807.000000	99.736263
1806.000000	99.729013
1805.000000	99.715301
1804.000000	99.698157
1803.000000	99.682707
1802.000000	99.673170
1801.000000	99.669739
1800.000000	99.666894
1799.000000	99.658217
1798.000000	99.644298
1797.000000	99.632324
1796.000000	99.627630
1795.000000	99.629501
1794.000000	99.635931
1793.000000	99.647655
1792.000000	99.663154
1791.000000	99.675487
1790.000000	99.681674
1789.000000	99.685126
1788.000000	99.688266
1787.000000	99.691098
1786.000000	99.695325
1785.000000	99.704668
1784.000000	99.718764
1783.000000	99.731022
1782.000000	99.735831
1781.000000	99.734570
1780.000000	99.733266
1779.000000	99.735541
1778.000000	99.740222
1777.000000	99.745951
1776.000000	99.753782
1775.000000	99.765359
1774.000000	99.780800
1773.000000	99.795457
1772.000000	99.799701
1771.000000	99.788778
1770.000000	99.770014
1769.000000	99.755072
1768.000000	99.749946
1767.000000	99.751753
1766.000000	99.754380
1765.000000	99.755698
1764.000000	99.757676
1763.000000	99.762337
1762.000000	99.768556
1761.000000	99.772983
1760.000000	99.772573
1759.000000	99.766420
1758.000000	99.757728
1757.000000	99.752839
1756.000000	99.755050
1755.000000	99.759537
1754.000000	99.759041
1753.000000	99.751392
1752.000000	99.739622
1751.000000	99.729302
1750.000000	99.725540
1749.000000	99.729436
1748.000000	99.736808
1747.000000	99.740481
1746.000000	99.736157
1745.000000	99.726301
1744.000000	99.717617
1743.000000	99.714803
1742.000000	99.717030
1741.000000	99.720544
1740.000000	99.722748
1739.000000	99.723096
1738.000000	99.721881
1737.000000	99.720271
1736.000000	99.719798
1735.000000	99.721660
1734.000000	99.726704
1733.000000	99.733713
1732.000000	99.736098
1731.000000	99.731808
1730.000000	99.725824
1729.000000	99.723550
1728.000000	99.727408
1727.000000	99.735663
1726.000000	99.744685
1725.000000	99.752065
1724.000000	99.757346
1723.000000	99.760720
1722.000000	99.761684
1721.000000	99.760712
1720.000000	99.760998
1719.000000	99.766403
1718.000000	99.776127
1717.000000	99.785315
1716.000000	99.786626
1715.000000	99.778183
1714.000000	99.766901
1713.000000	99.757840
1712.000000	99.750295
1711.000000	99.743539
1710.000000	99.739386
1709.000000	99.738266
1708.000000	99.736116
1707.000000	99.727223
1706.000000	99.709153
1705.000000	99.686393
1704.000000	99.664999
1703.000000	99.645049
1702.000000	99.624399
1701.000000	99.604555
1700.000000	99.590417
1699.000000	99.583018
1698.000000	99.576144
1697.000000	99.563267
1696.000000	99.537805
1695.000000	99.500644
1694.000000	99.462231
1693.000000	99.429824
1692.000000	99.403762
1691.000000	99.378564
1690.000000	99.350601
1689.000000	99.325329
1688.000000	99.311009
1687.000000	99.306216
1686.000000	99.299323
1685.000000	99.272332
1684.000000	99.216842
1683.000000	99.156299
1682.000000	99.107876
1681.000000	99.069262
1680.000000	99.038403
1679.000000	99.013412
1678.000000	98.991117
1677.000000	98.966820
1676.000000	98.935713
1675.000000	98.897190
1674.000000	98.857870
1673.000000	98.821940
1672.000000	98.786683
1671.000000	98.746389
1670.000000	98.696728
1669.000000	98.643120
1668.000000	98.595557
1667.000000	98.556434
1666.000000	98.523017
1665.000000	98.492024
1664.000000	98.458689
1663.000000	98.418225
1662.000000	98.373479
1661.000000	98.332886
1660.000000	98.298997
1659.000000	98.269350
1658.000000	98.241916
1657.000000	98.219180
1656.000000	98.205843
1655.000000	98.204899
1654.000000	98.205570
1653.000000	98.191946
1652.000000	98.171665
1651.000000	98.146246
1650.000000	98.118304
1649.000000	98.099832
1648.000000	98.090085
1647.000000	98.081595
1646.000000	98.074724
1645.000000	98.070384
1644.000000	98.063547
1643.000000	98.053226
1642.000000	98.042961
1641.000000	98.035684
1640.000000	98.031911
1639.000000	98.031559
1638.000000	98.035966
1637.000000	98.046045
1636.000000	98.057210
1635.000000	98.063092
1634.000000	98.061724
1633.000000	98.057547
1632.000000	98.055704
1631.000000	98.058259
1630.000000	98.066281
1629.000000	98.082353
1628.000000	98.107276
1627.000000	98.137588
1626.000000	98.169943
1625.000000	98.205135
1624.000000	98.243079
1623.000000	98.278086
1622.000000	98.306326
1621.000000	98.333072
1620.000000	98.367111
1619.000000	98.413673
1618.000000	98.472166
1617.000000	98.534551
1616.000000	98.586085
1615.000000	98.617489
1614.000000	98.636974
1613.000000	98.658119
1612.000000	98.685389
1611.000000	98.714054
1610.000000	98.740243
1609.000000	98.766500
1608.000000	98.795282
1607.000000	98.823078
1606.000000	98.846125
1605.000000	98.866472
1604.000000	98.887640
1603.000000	98.909053
1602.000000	98.929162
1601.000000	98.950059
1600.000000	98.973181
1599.000000	98.994471
1598.000000	99.009074
1597.000000	99.017873
1596.000000	99.024536
1595.000000	99.029716
1594.000000	99.033614
1593.000000	99.039335
1592.000000	99.047403
1591.000000	99.051739
1590.000000	99.047416
1589.000000	99.039252
1588.000000	99.035711
1587.000000	99.036990
1586.000000	99.036007
1585.000000	99.028492
1584.000000	99.016116
1583.000000	99.000913
1582.000000	98.982821
1581.000000	98.963073
1580.000000	98.945442
1579.000000	98.932580
1578.000000	98.922587
1577.000000	98.908891
1576.000000	98.887782
1575.000000	98.863326
1574.000000	98.840442
1573.000000	98.824465
1572.000000	98.817768
1571.000000	98.813498
1570.000000	98.799989
1569.000000	98.776699
1568.000000	98.753706
1567.000000	98.732876
1566.000000	98.710101
1565.000000	98.685621
1564.000000	98.664060
1563.000000	98.648227
1562.000000	98.637298
1561.000000	98.629251
1560.000000	98.619791
1559.000000	98.580749
1558.000000	98.529964
1557.000000	98.495773
1556.000000	98.469243
1555.000000	98.444640
1554.000000	98.417951
1553.000000	98.388288
1552.000000	98.357898
1551.000000	98.330537
1550.000000	98.310454
1549.000000	98.298658
1548.000000	98.289137
1547.000000	98.272667
1546.000000	98.246936
1545.000000	98.218850
1544.000000	98.198354
1543.000000	98.188453
1542.000000	98.183143
1541.000000	98.174430
1540.000000	98.162117
1539.000000	98.152499
1538.000000	98.140269
1537.000000	98.124350
1536.000000	98.112833
1535.000000	98.110866
1534.000000	98.117664
1533.000000	98.129870
1532.000000	98.143097
1531.000000	98.153329
1530.000000	98.159284
1529.000000	98.161409
1528.000000	98.159116
1527.000000	98.151928
1526.000000	98.145382
1525.000000	98.149188
1524.000000	98.164713
1523.000000	98.182049
1522.000000	98.187539
1521.000000	98.178428
1520.000000	98.163143
1519.000000	98.144108
1518.000000	98.120493
1517.000000	98.097628
1516.000000	98.084411
1515.000000	98.079692
1514.000000	98.073896
1513.000000	98.063329
1512.000000	98.050465
1511.000000	98.036968
1510.000000	98.023329
1509.000000	98.012656
1508.000000	98.008512
1507.000000	98.004344
1506.000000	97.996896
1505.000000	97.982885
1504.000000	97.958000
1503.000000	97.926643
1502.000000	97.896111
1501.000000	97.871022
1500.000000	97.852955
1499.000000	97.837049
1498.000000	97.813478
1497.000000	97.779566
1496.000000	97.745929
1495.000000	97.719107
1494.000000	97.693418
1493.000000	97.663413
1492.000000	97.628216
1491.000000	97.588525
1490.000000	97.546704
1489.000000	97.510153
1488.000000	97.481413
1487.000000	97.452124
1486.000000	97.417326
1485.000000	97.381523
1484.000000	97.349094
1483.000000	97.317215
1482.000000	97.280293
1481.000000	97.238566
1480.000000	97.196941
1479.000000	97.155195
1478.000000	97.109160
1477.000000	97.059765
1476.000000	97.013519
1475.000000	96.971676
1474.000000	96.926362
1473.000000	96.873537
1472.000000	96.824373
1471.000000	96.786634
1470.000000	96.753608
1469.000000	96.720238
1468.000000	96.686209
1467.000000	96.648444
1466.000000	96.601407
1465.000000	96.547810
1464.000000	96.501078
1463.000000	96.465002
1462.000000	96.429892
1461.000000	96.390457
1460.000000	96.348382
1459.000000	96.300973
1458.000000	96.236926
1457.000000	96.164881
1456.000000	96.120928
1455.000000	96.100375
1454.000000	96.075298
1453.000000	96.039602
1452.000000	96.000614
1451.000000	95.964643
1450.000000	95.931514
1449.000000	95.900337
1448.000000	95.872902
1447.000000	95.848340
1446.000000	95.821999
1445.000000	95.792726
1444.000000	95.763361
1443.000000	95.735868
1442.000000	95.710144
1441.000000	95.686461
1440.000000	95.663697
1439.000000	95.636326
1438.000000	95.599567
1437.000000	95.559858
1436.000000	95.532139
1435.000000	95.515568
1434.000000	95.495546
1433.000000	95.468319
1432.000000	95.440138
1431.000000	95.414272
1430.000000	95.388296
1429.000000	95.362422
1428.000000	95.339686
1427.000000	95.316337
1426.000000	95.285450
1425.000000	95.248566
1424.000000	95.215550
1423.000000	95.190320
1422.000000	95.164217
1421.000000	95.129676
1420.000000	95.089495
1419.000000	95.051112
1418.000000	95.019185
1417.000000	94.998098
1416.000000	94.990588
1415.000000	94.991016
1414.000000	94.988431
1413.000000	94.978181
1412.000000	94.965054
1411.000000	94.954004
1410.000000	94.945365
1409.000000	94.941268
1408.000000	94.946711
1407.000000	94.961187
1406.000000	94.977979
1405.000000	94.994253
1404.000000	95.013275
1403.000000	95.032816
1402.000000	95.044737
1401.000000	95.047806
1400.000000	95.049192
1399.000000	95.052841
1398.000000	95.055426
1397.000000	95.058781
1396.000000	95.073474
1395.000000	95.104540
1394.000000	95.142429
1393.000000	95.176635
1392.000000	95.206211
1391.000000	95.232122
1390.000000	95.254250
1389.000000	95.278006
1388.000000	95.314077
1387.000000	95.364812
1386.000000	95.418855
1385.000000	95.467545
1384.000000	95.512398
1383.000000	95.555747
1382.000000	95.597119
1381.000000	95.637935
1380.000000	95.680887
1379.000000	95.723454
1378.000000	95.760436
1377.000000	95.793412
1376.000000	95.830309
1375.000000	95.875531
1374.000000	95.926481
1373.000000	95.979619
1372.000000	96.032663
1371.000000	96.082037
1370.000000	96.127356
1369.000000	96.174905
1368.000000	96.228476
1367.000000	96.280506
1366.000000	96.322016
1365.000000	96.356793
1364.000000	96.397098
1363.000000	96.448260
1362.000000	96.504625
1361.000000	96.560922
1360.000000	96.615308
1359.000000	96.663627
1358.000000	96.703165
1357.000000	96.738594
1356.000000	96.776176
1355.000000	96.814880
1354.000000	96.850307
1353.000000	96.883083
1352.000000	96.915284
1351.000000	96.943601
1350.000000	96.965076
1349.000000	96.984531
1348.000000	97.007630
1347.000000	97.031790
1346.000000	97.052170
1345.000000	97.070280
1344.000000	97.088171
1343.000000	97.100766
1342.000000	97.103561
1341.000000	97.103045
1340.000000	97.110276
1339.000000	97.126724
1338.000000	97.146636
1337.000000	97.169709
1336.000000	97.198424
1335.000000	97.230009
1334.000000	97.260961
1333.000000	97.293581
1332.000000	97.329732
1331.000000	97.363474
1330.000000	97.388536
1329.000000	97.408397
1328.000000	97.430179
1327.000000	97.453620
1326.000000	97.474604
1325.000000	97.493922
1324.000000	97.514085
1323.000000	97.532323
1322.000000	97.545016
1321.000000	97.554290
1320.000000	97.563349
1319.000000	97.570860
1318.000000	97.577029
1317.000000	97.588332
1316.000000	97.608347
1315.000000	97.631562
1314.000000	97.653032
1313.000000	97.676495
1312.000000	97.705245
1311.000000	97.733036
1310.000000	97.752840
1309.000000	97.767416
1308.000000	97.783095
1307.000000	97.800317
1306.000000	97.817461
1305.000000	97.836801
1304.000000	97.858976
1303.000000	97.878794
1302.000000	97.893758
1301.000000	97.909320
1300.000000	97.928671
1299.000000	97.945681
1298.000000	97.955317
1297.000000	97.962098
1296.000000	97.970872
1295.000000	97.978494
1294.000000	97.983194
1293.000000	97.991945
1292.000000	98.009056
1291.000000	98.026345
1290.000000	98.034297
1289.000000	98.035296
1288.000000	98.036540
1287.000000	98.038513
1286.000000	98.039670
1285.000000	98.043764
1284.000000	98.052387
1283.000000	98.058519
1282.000000	98.056980
1281.000000	98.054195
1280.000000	98.058413
1279.000000	98.067740
1278.000000	98.076421
1277.000000	98.085206
1276.000000	98.096710
1275.000000	98.107960
1274.000000	98.116271
1273.000000	98.125295
1272.000000	98.137596
1271.000000	98.148536
1270.000000	98.154993
1269.000000	98.161448
1268.000000	98.170275
1267.000000	98.175926
1266.000000	98.176628
1265.000000	98.181161
1264.000000	98.194729
1263.000000	98.208061
1262.000000	98.210115
1261.000000	98.203040
1260.000000	98.195220
1259.000000	98.189198
1258.000000	98.185079
1257.000000	98.185621
1256.000000	98.189124
1255.000000	98.187123
1254.000000	98.176986
1253.000000	98.167130
1252.000000	98.162486
1251.000000	98.156025
1250.000000	98.142468
1249.000000	98.128709
1248.000000	98.121587
1247.000000	98.116228
1246.000000	98.106366
1245.000000	98.095640
1244.000000	98.088858
1243.000000	98.081937
1242.000000	98.070789
1241.000000	98.060658
1240.000000	98.056747
1239.000000	98.054657
1238.000000	98.049318
1237.000000	98.044688
1236.000000	98.045574
1235.000000	98.049258
1234.000000	98.053951
1233.000000	98.065496
1232.000000	98.086368
1231.000000	98.107719
1230.000000	98.121921
1229.000000	98.134012
1228.000000	98.151168
1227.000000	98.170962
1226.000000	98.189692
1225.000000	98.212376
1224.000000	98.243784
1223.000000	98.277984
1222.000000	98.306997
1221.000000	98.331654
1220.000000	98.355378
1219.000000	98.376346
1218.000000	98.394290
1217.000000	98.415059
1216.000000	98.439616
1215.000000	98.458750
1214.000000	98.467296
1213.000000	98.472972
1212.000000	98.481891
1211.000000	98.486973
1210.000000	98.481188
1209.000000	98.470882
1208.000000	98.465031
1207.000000	98.461892
1206.000000	98.457018
1205.000000	98.454454
1204.000000	98.458803
1203.000000	98.465351
1202.000000	98.468579
1201.000000	98.472181
1200.000000	98.481135
1199.000000	98.492786
1198.000000	98.504171
1197.000000	98.518671
1196.000000	98.537255
1195.000000	98.553433
1194.000000	98.565113
1193.000000	98.580015
1192.000000	98.600903
1191.000000	98.617782
1190.000000	98.624306
1189.000000	98.629257
1188.000000	98.641279
1187.000000	98.654736
1186.000000	98.661815
1185.000000	98.666785
1184.000000	98.676195
1183.000000	98.686404
1182.000000	98.692711
1181.000000	98.699970
1180.000000	98.711989
1179.000000	98.720958
1178.000000	98.720245
1177.000000	98.717086
1176.000000	98.720344
1175.000000	98.726141
1174.000000	98.726677
1173.000000	98.723624
1172.000000	98.722080
1171.000000	98.720702
1170.000000	98.717885
1169.000000	98.718108
1168.000000	98.722934
1167.000000	98.725833
1166.000000	98.724187
1165.000000	98.725017
1164.000000	98.730433
1163.000000	98.730595
1162.000000	98.720735
1161.000000	98.711726
1160.000000	98.713382
1159.000000	98.720756
1158.000000	98.727472
1157.000000	98.738272
1156.000000	98.756536
1155.000000	98.772999
1154.000000	98.779789
1153.000000	98.783411
1152.000000	98.791859
1151.000000	98.801256
1150.000000	98.806614
1149.000000	98.812925
1148.000000	98.823972
1147.000000	98.833439
1146.000000	98.838185
1145.000000	98.846400
1144.000000	98.861267
1143.000000	98.871299
1142.000000	98.868920
1141.000000	98.864496
1140.000000	98.869656
1139.000000	98.880948
1138.000000	98.891661
1137.000000	98.904962
1136.000000	98.922749
1135.000000	98.935833
1134.000000	98.938277
1133.000000	98.938035
1132.000000	98.941795
1131.000000	98.943086
1130.000000	98.936428
1129.000000	98.928528
1128.000000	98.924816
1127.000000	98.920560
1126.000000	98.915758
1125.000000	98.921173
1124.000000	98.937874
1123.000000	98.948846
1122.000000	98.944090
1121.000000	98.936323
1120.000000	98.937914
1119.000000	98.940851
1118.000000	98.934272
1117.000000	98.924286
1116.000000	98.920284
1115.000000	98.918235
1114.000000	98.912857
1113.000000	98.910626
1112.000000	98.915854
1111.000000	98.919891
1110.000000	98.918035
1109.000000	98.920143
1108.000000	98.930895
1107.000000	98.937406
1106.000000	98.931113
1105.000000	98.923045
1104.000000	98.922664
1103.000000	98.920847
1102.000000	98.909978
1101.000000	98.900980
1100.000000	98.903316
1099.000000	98.906710
1098.000000	98.900824
1097.000000	98.894894
1096.000000	98.899519
1095.000000	98.906623
1094.000000	98.905332
1093.000000	98.901467
1092.000000	98.902907
1091.000000	98.902123
1090.000000	98.890375
1089.000000	98.874413
1088.000000	98.862737
1087.000000	98.850944
1086.000000	98.835310
1085.000000	98.823933
1084.000000	98.819736
1083.000000	98.809862
1082.000000	98.787365
1081.000000	98.765604
1080.000000	98.756777
1079.000000	98.754539
1078.000000	98.752755
1077.000000	98.759979
1076.000000	98.778960
1075.000000	98.793062
1074.000000	98.791692
1073.000000	98.789088
1072.000000	98.799581
1071.000000	98.813937
1070.000000	98.818401
1069.000000	98.818458
1068.000000	98.824237
1067.000000	98.830886
1066.000000	98.831677
1065.000000	98.833336
1064.000000	98.840062
1063.000000	98.840522
1062.000000	98.828211
1061.000000	98.817308
1060.000000	98.820837
1059.000000	98.830777
1058.000000	98.836447
1057.000000	98.843817
1056.000000	98.859607
1055.000000	98.874291
1054.000000	98.878997
1053.000000	98.881368
1052.000000	98.888150
1051.000000	98.890439
1050.000000	98.884161
1049.000000	98.883976
1048.000000	98.898103
1047.000000	98.910525
1046.000000	98.906612
1045.000000	98.894998
1044.000000	98.887210
1043.000000	98.878261
1042.000000	98.863999
1041.000000	98.856635
1040.000000	98.863990
1039.000000	98.872869
1038.000000	98.870280
1037.000000	98.862725
1036.000000	98.858035
1035.000000	98.848979
1034.000000	98.831890
1033.000000	98.820370
1032.000000	98.822862
1031.000000	98.827160
1030.000000	98.824846
1029.000000	98.829096
1028.000000	98.850278
1027.000000	98.875146
1026.000000	98.889888
1025.000000	98.901759
1024.000000	98.919045
1023.000000	98.931519
1022.000000	98.931651
1021.000000	98.933419
1020.000000	98.948552
1019.000000	98.964700
1018.000000	98.967682
1017.000000	98.965794
1016.000000	98.970889
1015.000000	98.976373
1014.000000	98.974190
1013.000000	98.974189
1012.000000	98.985399
1011.000000	98.997521
1010.000000	99.000465
1009.000000	99.003202
1008.000000	99.014143
1007.000000	99.022846
1006.000000	99.021578
1005.000000	99.024704
1004.000000	99.046238
1003.000000	99.075456
1002.000000	99.095552
1001.000000	99.108604
1000.000000	99.123239
999.000000	99.134866
998.000000	99.138175
997.000000	99.142466
996.000000	99.155607
995.000000	99.168889
994.000000	99.174817
993.000000	99.182854
992.000000	99.199942
991.000000	99.214276
990.000000	99.216083
989.000000	99.217125
988.000000	99.230362
987.000000	99.248311
986.000000	99.259022
985.000000	99.266646
984.000000	99.278109
983.000000	99.286610
982.000000	99.286164
981.000000	99.285375
980.000000	99.290208
979.000000	99.290232
978.000000	99.278789
977.000000	99.268200
976.000000	99.269245
975.000000	99.273521
974.000000	99.272782
973.000000	99.275742
972.000000	99.288853
971.000000	99.299969
970.000000	99.299304
969.000000	99.297808
968.000000	99.306770
967.000000	99.318349
966.000000	99.323522
965.000000	99.330805
964.000000	99.348267
963.000000	99.365935
962.000000	99.373387
961.000000	99.377764
960.000000	99.387170
959.000000	99.394777
958.000000	99.395539
957.000000	99.399812
956.000000	99.413980
955.000000	99.426378
954.000000	99.428531
953.000000	99.430250
952.000000	99.438996
951.000000	99.444847
950.000000	99.442430
949.000000	99.445055
948.000000	99.460492
947.000000	99.474159
946.000000	99.474306
945.000000	99.471786
944.000000	99.477400
943.000000	99.482210
942.000000	99.478146
941.000000	99.476474
940.000000	99.486275
939.000000	99.496623
938.000000	99.497650
937.000000	99.498652
936.000000	99.506917
935.000000	99.511522
934.000000	99.505757
933.000000	99.503225
932.000000	99.512839
931.000000	99.521139
930.000000	99.518418
929.000000	99.518195
928.000000	99.531330
927.000000	99.544111
926.000000	99.543812
925.000000	99.542343
924.000000	99.553791
923.000000	99.569727
922.000000	99.578495
921.000000	99.586890
920.000000	99.601561
919.000000	99.610551
918.000000	99.604872
917.000000	99.597999
916.000000	99.602952
915.000000	99.611366
914.000000	99.613820
913.000000	99.619432
912.000000	99.634707
911.000000	99.646496
910.000000	99.646113
909.000000	99.648172
908.000000	99.663929
907.000000	99.679460
906.000000	99.681508
905.000000	99.681439
904.000000	99.692106
903.000000	99.704157
902.000000	99.707783
901.000000	99.713395
900.000000	99.729051
899.000000	99.740670
898.000000	99.738354
897.000000	99.737792
896.000000	99.753381
895.000000	99.773271
894.000000	99.783386
893.000000	99.791761
892.000000	99.806359
891.000000	99.814691
890.000000	99.807641
889.000000	99.796901
888.000000	99.783817
887.000000	99.738648
886.000000	99.638147
885.000000	99.499320
884.000000	99.348049
883.000000	99.180641
882.000000	98.981767
881.000000	98.755051
880.000000	98.506017
879.000000	98.219011
878.000000	97.882668
877.000000	97.516334
876.000000	97.147222
875.000000	96.786970
874.000000	96.464795
873.000000	96.256456
872.000000	96.244832
871.000000	96.452722
870.000000	96.830523
869.000000	97.293222
868.000000	97.749752
867.000000	98.127553
866.000000	98.404477
865.000000	98.609329
864.000000	98.773622
863.000000	98.900964
862.000000	98.992090
861.000000	99.066870
860.000000	99.137724
859.000000	99.191165
858.000000	99.220895
857.000000	99.250200
856.000000	99.296548
855.000000	99.343293
854.000000	99.372217
853.000000	99.394321
852.000000	99.420703
851.000000	99.432795
850.000000	99.414425
849.000000	99.386861
848.000000	99.381396
847.000000	99.399187
846.000000	99.426047
845.000000	99.461933
844.000000	99.507480
843.000000	99.545866
842.000000	99.566676
841.000000	99.585601
840.000000	99.614859
839.000000	99.638902
838.000000	99.643544
837.000000	99.643203
836.000000	99.652846
835.000000	99.660909
834.000000	99.656428
833.000000	99.656031
832.000000	99.674912
831.000000	99.697010
830.000000	99.702327
829.000000	99.698663
828.000000	99.699427
827.000000	99.696947
826.000000	99.687240
825.000000	99.690914
824.000000	99.717656
823.000000	99.740299
822.000000	99.737061
821.000000	99.726927
820.000000	99.733260
819.000000	99.746349
818.000000	99.750851
817.000000	99.756520
816.000000	99.771910
815.000000	99.779417
814.000000	99.766608
813.000000	99.753851
812.000000	99.760551
811.000000	99.772177
810.000000	99.769335
809.000000	99.762086
808.000000	99.766610
807.000000	99.775417
806.000000	99.778191
805.000000	99.783797
804.000000	99.794731
803.000000	99.789966
802.000000	99.761519
801.000000	99.737932
800.000000	99.743197
799.000000	99.761780
798.000000	99.771183
797.000000	99.777177
796.000000	99.788784
795.000000	99.791011
794.000000	99.772815
793.000000	99.752493
792.000000	99.747286
791.000000	99.746974
790.000000	99.742183
789.000000	99.747267
788.000000	99.769468
787.000000	99.787171
786.000000	99.784712
785.000000	99.777958
784.000000	99.780712
783.000000	99.778104
782.000000	99.758635
781.000000	99.740064
780.000000	99.737816
779.000000	99.739997
778.000000	99.738297
777.000000	99.749299
776.000000	99.778429
775.000000	99.797778
774.000000	99.788478
773.000000	99.772291
772.000000	99.772267
771.000000	99.775751
770.000000	99.765964
769.000000	99.756795
768.000000	99.764096
767.000000	99.773731
766.000000	99.769533
765.000000	99.762949
764.000000	99.765451
763.000000	99.762291
762.000000	99.744375
761.000000	99.734539
760.000000	99.750778
759.000000	99.772835
758.000000	99.776334
757.000000	99.770600
756.000000	99.772624
755.000000	99.773996
754.000000	99.764807
753.000000	99.760812
752.000000	99.774321
751.000000	99.786451
750.000000	99.778729
749.000000	99.765371
748.000000	99.764575
747.000000	99.766783
746.000000	99.760000
745.000000	99.757565
744.000000	99.771002
743.000000	99.784208
742.000000	99.783234
741.000000	99.781986
740.000000	99.790774
739.000000	99.790137
738.000000	99.765742
737.000000	99.738112
736.000000	99.729235
735.000000	99.728822
734.000000	99.722061
733.000000	99.718830
732.000000	99.727172
731.000000	99.729994
730.000000	99.717703
729.000000	99.711869
728.000000	99.727002
727.000000	99.742005
726.000000	99.738127
725.000000	99.732116
724.000000	99.740976
723.000000	99.749086
722.000000	99.739659
721.000000	99.725044
720.000000	99.714028
719.000000	99.682506
718.000000	99.607071
717.000000	99.490798
716.000000	99.330380
715.000000	99.106166
714.000000	98.844332
713.000000	98.644582
712.000000	98.596139
711.000000	98.688749
710.000000	98.844100
709.000000	99.001332
708.000000	99.135760
707.000000	99.231998
706.000000	99.288724
705.000000	99.330688
704.000000	99.376438
703.000000	99.412375
702.000000	99.425672
701.000000	99.435346
700.000000	99.460000
699.000000	99.484640
698.000000	99.488697
697.000000	99.479462
696.000000	99.468898
695.000000	99.450461
694.000000	99.427381
693.000000	99.427961
692.000000	99.460313
691.000000	99.487547
690.000000	99.481460
689.000000	99.464573
688.000000	99.466955
687.000000	99.477804
686.000000	99.479106
685.000000	99.483499
684.000000	99.499899
683.000000	99.502780
682.000000	99.476337
681.000000	99.449982
680.000000	99.452355
679.000000	99.466748
678.000000	99.468672
677.000000	99.469268
676.000000	99.482304
675.000000	99.487713
674.000000	99.468770
673.000000	99.449063
672.000000	99.452460
671.000000	99.463655
670.000000	99.460776
669.000000	99.452278
668.000000	99.450223
667.000000	99.438064
666.000000	99.416792
665.000000	99.410164
664.000000	99.421577
663.000000	99.427624
662.000000	99.416118
661.000000	99.406760
660.000000	99.410125
659.000000	99.403335
658.000000	99.379429
657.000000	99.371970
656.000000	99.397557
655.000000	99.422962
654.000000	99.425746
653.000000	99.434779
652.000000	99.468506
651.000000	99.489205
650.000000	99.463172
649.000000	99.418762
648.000000	99.394293
647.000000	99.380389
646.000000	99.359151
645.000000	99.350875
644.000000	99.372658
643.000000	99.397355
642.000000	99.399189
641.000000	99.397555
640.000000	99.412128
639.000000	99.418776
638.000000	99.396729
637.000000	99.373994
636.000000	99.381697
635.000000	99.404005
634.000000	99.416527
633.000000	99.429017
632.000000	99.447656
631.000000	99.442853
630.000000	99.401253
629.000000	99.364171
628.000000	99.369164
627.000000	99.396939
626.000000	99.414859
625.000000	99.428996
624.000000	99.448188
623.000000	99.447641
622.000000	99.415690
621.000000	99.390519
620.000000	99.402317
619.000000	99.425319
618.000000	99.429143
617.000000	99.432264
616.000000	99.457921
615.000000	99.484286
614.000000	99.487982
613.000000	99.485705
612.000000	99.489270
611.000000	99.471201
610.000000	99.420648
609.000000	99.378580
608.000000	99.373906
607.000000	99.377088
606.000000	99.363234
605.000000	99.361809
604.000000	99.394996
603.000000	99.427959
602.000000	99.431495
601.000000	99.432843
600.000000	99.451708
599.000000	99.452745
598.000000	99.415453
597.000000	99.386211
596.000000	99.401902
595.000000	99.427854
594.000000	99.423362
593.000000	99.410407
592.000000	99.419966
591.000000	99.430142
590.000000	99.419362
589.000000	99.416281
588.000000	99.437856
587.000000	99.445520
586.000000	99.418349
585.000000	99.402766
584.000000	99.431509
583.000000	99.459197
582.000000	99.444366
581.000000	99.424195
580.000000	99.442145
579.000000	99.467859
578.000000	99.459539
577.000000	99.439469
576.000000	99.440233
575.000000	99.442099
574.000000	99.428778
573.000000	99.435823
572.000000	99.476241
571.000000	99.493156
570.000000	99.447305
569.000000	99.388583
568.000000	99.368840
567.000000	99.359559
566.000000	99.326762
565.000000	99.305355
564.000000	99.325578
563.000000	99.344835
562.000000	99.326498
561.000000	99.311684
560.000000	99.338785
559.000000	99.365570
558.000000	99.349994
557.000000	99.331831
556.000000	99.358031
555.000000	99.399297
554.000000	99.416689
553.000000	99.435856
552.000000	99.477848
551.000000	99.495079
550.000000	99.455133
549.000000	99.412567
548.000000	99.413055
547.000000	99.412172
546.000000	99.369189
545.000000	99.338569
544.000000	99.374338
543.000000	99.430741
542.000000	99.444772
541.000000	99.435823
540.000000	99.440486
539.000000	99.429313
538.000000	99.375536
537.000000	99.328468
536.000000	99.332921
535.000000	99.348337
534.000000	99.332447
533.000000	99.322549
532.000000	99.352966
531.000000	99.375703
530.000000	99.350984
529.000000	99.331777
528.000000	99.371001
527.000000	99.424053
526.000000	99.428303
525.000000	99.413855
524.000000	99.427987
523.000000	99.437956
522.000000	99.410068
521.000000	99.389985
520.000000	99.420628
519.000000	99.455972
518.000000	99.444171
517.000000	99.426595
516.000000	99.447232
515.000000	99.458553
514.000000	99.419240
513.000000	99.377723
512.000000	99.380288
511.000000	99.388442
510.000000	99.365265
509.000000	99.355123
508.000000	99.396665
507.000000	99.441994
506.000000	99.450295
505.000000	99.466388
504.000000	99.517420
503.000000	99.541724
502.000000	99.509835
501.000000	99.510328
500.000000	99.594923
499.000000	99.673940
498.000000	99.665079
497.000000	99.616527
496.000000	99.599901
495.000000	99.587635
494.000000	99.537115
493.000000	99.494312
492.000000	99.499405
491.000000	99.490150
490.000000	99.421062
489.000000	99.369973
488.000000	99.410366
487.000000	99.487996
486.000000	99.521931
485.000000	99.533100
484.000000	99.571891
483.000000	99.608920
482.000000	99.615355
481.000000	99.637476
480.000000	99.688293
479.000000	99.687883
478.000000	99.608541
477.000000	99.555174
476.000000	99.593218
475.000000	99.629807
474.000000	99.578309
473.000000	99.514422
472.000000	99.531718
471.000000	99.564533
470.000000	99.551384
469.000000	99.580923
468.000000	99.710586
467.000000	99.818080
466.000000	99.782701
465.000000	99.680997
464.000000	99.626458
463.000000	99.590790
462.000000	99.530036
461.000000	99.531159
460.000000	99.666545
459.000000	99.827724
458.000000	99.861543
457.000000	99.812231
456.000000	99.805528
455.000000	99.809732
454.000000	99.770777
453.000000	99.751733
452.000000	99.795692
451.000000	99.807495
450.000000	99.733131
