PE IR       SUBTECH     SPECTRUM    ASCII       PEDS        4.00        
   -1
AG1-C001_1.ASC
23/09/08
11:18:07.00
23/09/08
11:39:14.00
uco
Sample 017 By uco Date Friday, September 08 2023
450.000000
#HDR
-1
-1
#GR
cm-1
%T
1.0
0.0
4000.000000
-1.000000
3551
8
99.960718
96.491112
#DATA
4000.000000	99.880463
3999.000000	99.882665
3998.000000	99.883655
3997.000000	99.883661
3996.000000	99.882664
3995.000000	99.881000
3994.000000	99.879087
3993.000000	99.876982
3992.000000	99.874602
3991.000000	99.872410
3990.000000	99.871279
3989.000000	99.871412
3988.000000	99.871945
3987.000000	99.872095
3986.000000	99.872386
3985.000000	99.874071
3984.000000	99.877319
3983.000000	99.880479
3982.000000	99.881573
3981.000000	99.880199
3980.000000	99.877473
3979.000000	99.874382
3978.000000	99.870910
3977.000000	99.866879
3976.000000	99.862965
3975.000000	99.860372
3974.000000	99.859570
3973.000000	99.859877
3972.000000	99.860378
3971.000000	99.860881
3970.000000	99.861718
3969.000000	99.862745
3968.000000	99.862915
3967.000000	99.861008
3966.000000	99.856884
3965.000000	99.852069
3964.000000	99.849060
3963.000000	99.849716
3962.000000	99.853747
3961.000000	99.858713
3960.000000	99.861928
3959.000000	99.862684
3958.000000	99.862723
3957.000000	99.864370
3956.000000	99.868037
3955.000000	99.871605
3954.000000	99.872323
3953.000000	99.869394
3952.000000	99.864822
3951.000000	99.862030
3950.000000	99.863186
3949.000000	99.867366
3948.000000	99.871137
3947.000000	99.871228
3946.000000	99.867032
3945.000000	99.860636
3944.000000	99.855049
3943.000000	99.852300
3942.000000	99.852590
3941.000000	99.855500
3940.000000	99.861029
3939.000000	99.868567
3938.000000	99.875713
3937.000000	99.879016
3936.000000	99.876645
3935.000000	99.870144
3934.000000	99.863524
3933.000000	99.860675
3932.000000	99.862544
3931.000000	99.866671
3930.000000	99.869469
3929.000000	99.868892
3928.000000	99.865318
3927.000000	99.860698
3926.000000	99.857387
3925.000000	99.856753
3924.000000	99.858200
3923.000000	99.859995
3922.000000	99.861012
3921.000000	99.861194
3920.000000	99.860948
3919.000000	99.860546
3918.000000	99.860239
3917.000000	99.860547
3916.000000	99.861920
3915.000000	99.864016
3914.000000	99.865522
3913.000000	99.865061
3912.000000	99.862217
3911.000000	99.858097
3910.000000	99.854648
3909.000000	99.853157
3908.000000	99.853418
3907.000000	99.853731
3906.000000	99.851906
3905.000000	99.846937
3904.000000	99.840482
3903.000000	99.836610
3902.000000	99.838670
3901.000000	99.845793
3900.000000	99.853408
3899.000000	99.857020
3898.000000	99.855858
3897.000000	99.852566
3896.000000	99.849737
3895.000000	99.848251
3894.000000	99.847932
3893.000000	99.848418
3892.000000	99.849071
3891.000000	99.848950
3890.000000	99.848133
3889.000000	99.847630
3888.000000	99.847335
3887.000000	99.846450
3886.000000	99.845514
3885.000000	99.846140
3884.000000	99.849643
3883.000000	99.856121
3882.000000	99.864178
3881.000000	99.871196
3880.000000	99.873967
3879.000000	99.871242
3878.000000	99.865271
3877.000000	99.858986
3876.000000	99.854541
3875.000000	99.854003
3874.000000	99.857686
3873.000000	99.863061
3872.000000	99.867186
3871.000000	99.868960
3870.000000	99.868153
3869.000000	99.864496
3868.000000	99.859225
3867.000000	99.854663
3866.000000	99.852567
3865.000000	99.854098
3864.000000	99.858847
3863.000000	99.864020
3862.000000	99.866321
3861.000000	99.864296
3860.000000	99.859050
3859.000000	99.853109
3858.000000	99.848725
3857.000000	99.845984
3856.000000	99.843182
3855.000000	99.840087
3854.000000	99.840664
3853.000000	99.846791
3852.000000	99.854229
3851.000000	99.860160
3850.000000	99.863720
3849.000000	99.864652
3848.000000	99.864424
3847.000000	99.865130
3846.000000	99.867493
3845.000000	99.870009
3844.000000	99.870266
3843.000000	99.867202
3842.000000	99.861626
3841.000000	99.855244
3840.000000	99.849625
3839.000000	99.845970
3838.000000	99.844979
3837.000000	99.845934
3836.000000	99.847097
3835.000000	99.847405
3834.000000	99.847315
3833.000000	99.848338
3832.000000	99.851530
3831.000000	99.856065
3830.000000	99.860266
3829.000000	99.863062
3828.000000	99.864222
3827.000000	99.863792
3826.000000	99.861452
3825.000000	99.857000
3824.000000	99.851184
3823.000000	99.846368
3822.000000	99.846161
3821.000000	99.851002
3820.000000	99.856460
3819.000000	99.860063
3818.000000	99.862227
3817.000000	99.862107
3816.000000	99.858688
3815.000000	99.853213
3814.000000	99.849667
3813.000000	99.851095
3812.000000	99.856773
3811.000000	99.863937
3810.000000	99.869942
3809.000000	99.872665
3808.000000	99.870519
3807.000000	99.863315
3806.000000	99.853699
3805.000000	99.846334
3804.000000	99.843776
3803.000000	99.845337
3802.000000	99.848553
3801.000000	99.849918
3800.000000	99.848699
3799.000000	99.848562
3798.000000	99.851671
3797.000000	99.856366
3796.000000	99.859683
3795.000000	99.860137
3794.000000	99.858659
3793.000000	99.856595
3792.000000	99.854188
3791.000000	99.851354
3790.000000	99.848736
3789.000000	99.847571
3788.000000	99.848927
3787.000000	99.852773
3786.000000	99.857631
3785.000000	99.861310
3784.000000	99.862462
3783.000000	99.861644
3782.000000	99.860498
3781.000000	99.859987
3780.000000	99.859546
3779.000000	99.857972
3778.000000	99.855594
3777.000000	99.854658
3776.000000	99.856542
3775.000000	99.860036
3774.000000	99.862685
3773.000000	99.862979
3772.000000	99.861321
3771.000000	99.859280
3770.000000	99.857869
3769.000000	99.857011
3768.000000	99.857161
3767.000000	99.859305
3766.000000	99.863239
3765.000000	99.867029
3764.000000	99.868477
3763.000000	99.866797
3762.000000	99.862515
3761.000000	99.856879
3760.000000	99.851372
3759.000000	99.847276
3758.000000	99.845732
3757.000000	99.847624
3756.000000	99.852571
3755.000000	99.858439
3754.000000	99.862791
3753.000000	99.865390
3752.000000	99.868861
3751.000000	99.874492
3750.000000	99.878176
3749.000000	99.876657
3748.000000	99.872452
3747.000000	99.868544
3746.000000	99.865679
3745.000000	99.862784
3744.000000	99.857107
3743.000000	99.849703
3742.000000	99.846078
3741.000000	99.848237
3740.000000	99.854370
3739.000000	99.861829
3738.000000	99.868344
3737.000000	99.872374
3736.000000	99.873478
3735.000000	99.871595
3734.000000	99.866879
3733.000000	99.861183
3732.000000	99.857381
3731.000000	99.857181
3730.000000	99.860071
3729.000000	99.863676
3728.000000	99.865509
3727.000000	99.864163
3726.000000	99.859522
3725.000000	99.852909
3724.000000	99.847016
3723.000000	99.844683
3722.000000	99.846938
3721.000000	99.852858
3720.000000	99.860350
3719.000000	99.866759
3718.000000	99.869670
3717.000000	99.868250
3716.000000	99.864281
3715.000000	99.861369
3714.000000	99.862783
3713.000000	99.869100
3712.000000	99.876530
3711.000000	99.879231
3710.000000	99.876017
3709.000000	99.870898
3708.000000	99.867074
3707.000000	99.864404
3706.000000	99.861663
3705.000000	99.859262
3704.000000	99.859346
3703.000000	99.863708
3702.000000	99.870771
3701.000000	99.875909
3700.000000	99.876627
3699.000000	99.875094
3698.000000	99.874668
3697.000000	99.876513
3696.000000	99.879347
3695.000000	99.881408
3694.000000	99.882387
3693.000000	99.883379
3692.000000	99.885394
3691.000000	99.887660
3690.000000	99.887301
3689.000000	99.881338
3688.000000	99.871053
3687.000000	99.862442
3686.000000	99.859796
3685.000000	99.862025
3684.000000	99.864969
3683.000000	99.865140
3682.000000	99.862437
3681.000000	99.860058
3680.000000	99.861565
3679.000000	99.867691
3678.000000	99.876354
3677.000000	99.885447
3676.000000	99.892620
3675.000000	99.892377
3674.000000	99.883018
3673.000000	99.870790
3672.000000	99.860797
3671.000000	99.855255
3670.000000	99.854377
3669.000000	99.853178
3668.000000	99.847513
3667.000000	99.840036
3666.000000	99.835392
3665.000000	99.836398
3664.000000	99.842716
3663.000000	99.850222
3662.000000	99.853514
3661.000000	99.850097
3660.000000	99.842299
3659.000000	99.834962
3658.000000	99.831884
3657.000000	99.833791
3656.000000	99.837858
3655.000000	99.840755
3654.000000	99.841797
3653.000000	99.841690
3652.000000	99.841399
3651.000000	99.842911
3650.000000	99.848042
3649.000000	99.854882
3648.000000	99.858596
3647.000000	99.857175
3646.000000	99.852613
3645.000000	99.847159
3644.000000	99.841198
3643.000000	99.834232
3642.000000	99.826933
3641.000000	99.821815
3640.000000	99.821675
3639.000000	99.826735
3638.000000	99.833318
3637.000000	99.836474
3636.000000	99.834332
3635.000000	99.829551
3634.000000	99.826263
3633.000000	99.825562
3632.000000	99.824402
3631.000000	99.818771
3630.000000	99.807873
3629.000000	99.795741
3628.000000	99.787480
3627.000000	99.785957
3626.000000	99.790464
3625.000000	99.796304
3624.000000	99.798773
3623.000000	99.796164
3622.000000	99.789945
3621.000000	99.783974
3620.000000	99.782670
3619.000000	99.787318
3618.000000	99.794750
3617.000000	99.801289
3616.000000	99.805125
3615.000000	99.805334
3614.000000	99.801616
3613.000000	99.794501
3612.000000	99.785232
3611.000000	99.775453
3610.000000	99.766593
3609.000000	99.759700
3608.000000	99.755283
3607.000000	99.753195
3606.000000	99.753205
3605.000000	99.754805
3604.000000	99.756673
3603.000000	99.757254
3602.000000	99.756202
3601.000000	99.755048
3600.000000	99.755789
3599.000000	99.758867
3598.000000	99.763016
3597.000000	99.766145
3596.000000	99.766052
3595.000000	99.761411
3594.000000	99.753277
3593.000000	99.745290
3592.000000	99.740864
3591.000000	99.740364
3590.000000	99.741903
3589.000000	99.743954
3588.000000	99.745773
3587.000000	99.745419
3586.000000	99.740605
3585.000000	99.732319
3584.000000	99.723916
3583.000000	99.717829
3582.000000	99.714604
3581.000000	99.713792
3580.000000	99.715043
3579.000000	99.718447
3578.000000	99.723679
3577.000000	99.729078
3576.000000	99.731963
3575.000000	99.730329
3574.000000	99.724689
3573.000000	99.718023
3572.000000	99.713371
3571.000000	99.710973
3570.000000	99.708116
3569.000000	99.701898
3568.000000	99.692785
3567.000000	99.684904
3566.000000	99.681682
3565.000000	99.682875
3564.000000	99.686552
3563.000000	99.690671
3562.000000	99.693377
3561.000000	99.693606
3560.000000	99.691593
3559.000000	99.687927
3558.000000	99.682093
3557.000000	99.672859
3556.000000	99.660577
3555.000000	99.648424
3554.000000	99.640778
3553.000000	99.639788
3552.000000	99.643711
3551.000000	99.648813
3550.000000	99.652426
3549.000000	99.653592
3548.000000	99.652062
3547.000000	99.647930
3546.000000	99.642044
3545.000000	99.636075
3544.000000	99.631657
3543.000000	99.629445
3542.000000	99.628912
3541.000000	99.629095
3540.000000	99.629569
3539.000000	99.630478
3538.000000	99.631604
3537.000000	99.631681
3536.000000	99.629207
3535.000000	99.624127
3534.000000	99.618105
3533.000000	99.613110
3532.000000	99.610018
3531.000000	99.608434
3530.000000	99.607041
3529.000000	99.604074
3528.000000	99.598340
3527.000000	99.590667
3526.000000	99.584061
3525.000000	99.581558
3524.000000	99.583584
3523.000000	99.587488
3522.000000	99.589933
3521.000000	99.589359
3520.000000	99.585843
3519.000000	99.579568
3518.000000	99.570766
3517.000000	99.561039
3516.000000	99.553287
3515.000000	99.549525
3514.000000	99.548994
3513.000000	99.549052
3512.000000	99.547879
3511.000000	99.545898
3510.000000	99.544626
3509.000000	99.544682
3508.000000	99.545359
3507.000000	99.545725
3506.000000	99.545452
3505.000000	99.544559
3504.000000	99.542878
3503.000000	99.540036
3502.000000	99.536255
3501.000000	99.533005
3500.000000	99.532094
3499.000000	99.533525
3498.000000	99.534504
3497.000000	99.531240
3496.000000	99.522501
3495.000000	99.511214
3494.000000	99.502155
3493.000000	99.498206
3492.000000	99.499113
3491.000000	99.503045
3490.000000	99.508181
3489.000000	99.512748
3488.000000	99.514531
3487.000000	99.511561
3486.000000	99.503705
3485.000000	99.493184
3484.000000	99.483314
3483.000000	99.476851
3482.000000	99.475066
3481.000000	99.477707
3480.000000	99.483353
3479.000000	99.489773
3478.000000	99.494416
3477.000000	99.495174
3476.000000	99.491153
3475.000000	99.482996
3474.000000	99.472583
3473.000000	99.462310
3472.000000	99.454241
3471.000000	99.449451
3470.000000	99.447817
3469.000000	99.448359
3468.000000	99.449842
3467.000000	99.451379
3466.000000	99.452878
3465.000000	99.454922
3464.000000	99.457770
3463.000000	99.460298
3462.000000	99.460425
3461.000000	99.457029
3460.000000	99.451178
3459.000000	99.445102
3458.000000	99.440306
3457.000000	99.437134
3456.000000	99.435675
3455.000000	99.436181
3454.000000	99.438274
3453.000000	99.440517
3452.000000	99.441244
3451.000000	99.439843
3450.000000	99.436979
3449.000000	99.433724
3448.000000	99.430636
3447.000000	99.427540
3446.000000	99.424153
3445.000000	99.421035
3444.000000	99.419729
3443.000000	99.421689
3442.000000	99.426846
3441.000000	99.433040
3440.000000	99.437042
3439.000000	99.436478
3438.000000	99.431380
3437.000000	99.424380
3436.000000	99.419005
3435.000000	99.416933
3434.000000	99.416523
3433.000000	99.414469
3432.000000	99.409202
3431.000000	99.402622
3430.000000	99.398303
3429.000000	99.398071
3428.000000	99.400316
3427.000000	99.401454
3426.000000	99.398958
3425.000000	99.393447
3424.000000	99.388219
3423.000000	99.386701
3422.000000	99.390012
3421.000000	99.396485
3420.000000	99.402996
3419.000000	99.406488
3418.000000	99.404918
3417.000000	99.398232
3416.000000	99.389120
3415.000000	99.381825
3414.000000	99.378912
3413.000000	99.379130
3412.000000	99.379072
3411.000000	99.376642
3410.000000	99.372435
3409.000000	99.368375
3408.000000	99.366127
3407.000000	99.366705
3406.000000	99.370225
3405.000000	99.375269
3404.000000	99.379130
3403.000000	99.379606
3402.000000	99.376688
3401.000000	99.372229
3400.000000	99.367932
3399.000000	99.363794
3398.000000	99.358571
3397.000000	99.351746
3396.000000	99.344843
3395.000000	99.340418
3394.000000	99.339556
3393.000000	99.340672
3392.000000	99.341204
3391.000000	99.340315
3390.000000	99.339474
3389.000000	99.340556
3388.000000	99.343996
3387.000000	99.348594
3386.000000	99.352275
3385.000000	99.352872
3384.000000	99.348994
3383.000000	99.340972
3382.000000	99.330844
3381.000000	99.321134
3380.000000	99.313627
3379.000000	99.309144
3378.000000	99.307815
3377.000000	99.309087
3376.000000	99.311656
3375.000000	99.313872
3374.000000	99.314389
3373.000000	99.312549
3372.000000	99.308579
3371.000000	99.303673
3370.000000	99.299485
3369.000000	99.296908
3368.000000	99.295355
3367.000000	99.293587
3366.000000	99.291183
3365.000000	99.288753
3364.000000	99.286825
3363.000000	99.285161
3362.000000	99.283208
3361.000000	99.280646
3360.000000	99.277223
3359.000000	99.272667
3358.000000	99.267159
3357.000000	99.261385
3356.000000	99.255595
3355.000000	99.249036
3354.000000	99.241228
3353.000000	99.233604
3352.000000	99.228690
3351.000000	99.227026
3350.000000	99.225724
3349.000000	99.221261
3348.000000	99.213751
3347.000000	99.207591
3346.000000	99.207180
3345.000000	99.212168
3344.000000	99.217425
3343.000000	99.217934
3342.000000	99.213572
3341.000000	99.208833
3340.000000	99.208071
3339.000000	99.211356
3338.000000	99.214903
3337.000000	99.214971
3336.000000	99.210862
3335.000000	99.204402
3334.000000	99.197413
3333.000000	99.190331
3332.000000	99.182910
3331.000000	99.175251
3330.000000	99.167817
3329.000000	99.160926
3328.000000	99.154829
3327.000000	99.150344
3326.000000	99.148907
3325.000000	99.151382
3324.000000	99.156607
3323.000000	99.161450
3322.000000	99.162792
3321.000000	99.159738
3320.000000	99.153932
3319.000000	99.147879
3318.000000	99.143065
3317.000000	99.139472
3316.000000	99.136301
3315.000000	99.132872
3314.000000	99.129237
3313.000000	99.126430
3312.000000	99.125877
3311.000000	99.127997
3310.000000	99.131317
3309.000000	99.133435
3308.000000	99.133139
3307.000000	99.131267
3306.000000	99.129440
3305.000000	99.128410
3304.000000	99.127863
3303.000000	99.127369
3302.000000	99.126991
3301.000000	99.127038
3300.000000	99.127635
3299.000000	99.128623
3298.000000	99.129636
3297.000000	99.130304
3296.000000	99.130612
3295.000000	99.131034
3294.000000	99.131922
3293.000000	99.132532
3292.000000	99.131114
3291.000000	99.126501
3290.000000	99.119628
3289.000000	99.113099
3288.000000	99.109076
3287.000000	99.107755
3286.000000	99.107766
3285.000000	99.107539
3284.000000	99.106143
3283.000000	99.103632
3282.000000	99.101385
3281.000000	99.101748
3280.000000	99.106281
3279.000000	99.114016
3278.000000	99.122146
3277.000000	99.128686
3276.000000	99.133796
3275.000000	99.138138
3274.000000	99.141013
3273.000000	99.141181
3272.000000	99.138926
3271.000000	99.136124
3270.000000	99.134258
3269.000000	99.133539
3268.000000	99.134087
3267.000000	99.136690
3266.000000	99.141598
3265.000000	99.147098
3264.000000	99.150353
3263.000000	99.149942
3262.000000	99.147470
3261.000000	99.146634
3260.000000	99.150421
3259.000000	99.158485
3258.000000	99.167008
3257.000000	99.171635
3256.000000	99.171054
3255.000000	99.167731
3254.000000	99.165042
3253.000000	99.164258
3252.000000	99.164614
3251.000000	99.165419
3250.000000	99.166917
3249.000000	99.169022
3248.000000	99.170326
3247.000000	99.169253
3246.000000	99.166119
3245.000000	99.163565
3244.000000	99.164424
3243.000000	99.169117
3242.000000	99.175237
3241.000000	99.179562
3240.000000	99.180449
3239.000000	99.178574
3238.000000	99.176013
3237.000000	99.175021
3236.000000	99.177195
3235.000000	99.182905
3234.000000	99.191085
3233.000000	99.199809
3232.000000	99.207392
3231.000000	99.212982
3230.000000	99.216306
3229.000000	99.217356
3228.000000	99.216546
3227.000000	99.214756
3226.000000	99.212886
3225.000000	99.211440
3224.000000	99.210574
3223.000000	99.210188
3222.000000	99.209729
3221.000000	99.208418
3220.000000	99.206218
3219.000000	99.204495
3218.000000	99.205102
3217.000000	99.208558
3216.000000	99.213317
3215.000000	99.217099
3214.000000	99.219104
3213.000000	99.220630
3212.000000	99.223242
3211.000000	99.226424
3210.000000	99.227812
3209.000000	99.226214
3208.000000	99.223685
3207.000000	99.223662
3206.000000	99.227131
3205.000000	99.231786
3204.000000	99.235021
3203.000000	99.236780
3202.000000	99.238929
3201.000000	99.242811
3200.000000	99.248176
3199.000000	99.253700
3198.000000	99.257588
3197.000000	99.258195
3196.000000	99.255419
3195.000000	99.251515
3194.000000	99.249520
3193.000000	99.250679
3192.000000	99.253839
3191.000000	99.257365
3190.000000	99.260767
3189.000000	99.264220
3188.000000	99.267333
3187.000000	99.269207
3186.000000	99.269602
3185.000000	99.269542
3184.000000	99.270555
3183.000000	99.273357
3182.000000	99.277225
3181.000000	99.280574
3180.000000	99.282125
3179.000000	99.281610
3178.000000	99.279834
3177.000000	99.278444
3176.000000	99.279320
3175.000000	99.283014
3174.000000	99.287357
3173.000000	99.288745
3172.000000	99.285986
3171.000000	99.282468
3170.000000	99.283063
3169.000000	99.288996
3168.000000	99.296636
3167.000000	99.301491
3166.000000	99.302244
3165.000000	99.301040
3164.000000	99.301252
3163.000000	99.305455
3162.000000	99.313906
3161.000000	99.323712
3160.000000	99.330288
3159.000000	99.331023
3158.000000	99.327630
3157.000000	99.324348
3156.000000	99.324367
3155.000000	99.328265
3154.000000	99.334938
3153.000000	99.342468
3152.000000	99.348439
3151.000000	99.350837
3150.000000	99.349432
3149.000000	99.345868
3148.000000	99.342280
3147.000000	99.340260
3146.000000	99.340789
3145.000000	99.344211
3144.000000	99.349723
3143.000000	99.355401
3142.000000	99.359268
3141.000000	99.360587
3140.000000	99.360403
3139.000000	99.360967
3138.000000	99.364081
3137.000000	99.369270
3136.000000	99.373717
3135.000000	99.374756
3134.000000	99.372717
3133.000000	99.370870
3132.000000	99.372346
3131.000000	99.377401
3130.000000	99.383542
3129.000000	99.387698
3128.000000	99.388313
3127.000000	99.386314
3126.000000	99.384458
3125.000000	99.385134
3124.000000	99.388296
3123.000000	99.391781
3122.000000	99.393764
3121.000000	99.394453
3120.000000	99.395141
3119.000000	99.396303
3118.000000	99.397243
3117.000000	99.397238
3116.000000	99.396278
3115.000000	99.394781
3114.000000	99.393213
3113.000000	99.392076
3112.000000	99.391673
3111.000000	99.391553
3110.000000	99.390477
3109.000000	99.387415
3108.000000	99.382750
3107.000000	99.378407
3106.000000	99.376573
3105.000000	99.378102
3104.000000	99.382090
3103.000000	99.386814
3102.000000	99.390762
3101.000000	99.392675
3100.000000	99.391417
3099.000000	99.386730
3098.000000	99.380257
3097.000000	99.374961
3096.000000	99.372930
3095.000000	99.373742
3094.000000	99.375213
3093.000000	99.375402
3092.000000	99.373716
3091.000000	99.370626
3090.000000	99.367283
3089.000000	99.365348
3088.000000	99.366235
3087.000000	99.369676
3086.000000	99.373250
3085.000000	99.374041
3084.000000	99.371130
3083.000000	99.366252
3082.000000	99.361958
3081.000000	99.359593
3080.000000	99.359336
3079.000000	99.361411
3078.000000	99.365981
3077.000000	99.371734
3076.000000	99.375944
3075.000000	99.376970
3074.000000	99.376192
3073.000000	99.376484
3072.000000	99.378964
3071.000000	99.382143
3070.000000	99.384136
3069.000000	99.384601
3068.000000	99.384241
3067.000000	99.383583
3066.000000	99.383040
3065.000000	99.383432
3064.000000	99.385338
3063.000000	99.388064
3062.000000	99.390117
3061.000000	99.390796
3060.000000	99.390751
3059.000000	99.390943
3058.000000	99.391671
3057.000000	99.392876
3056.000000	99.394775
3055.000000	99.397606
3054.000000	99.400879
3053.000000	99.403494
3052.000000	99.404774
3051.000000	99.405018
3050.000000	99.404806
3049.000000	99.404161
3048.000000	99.403042
3047.000000	99.402563
3046.000000	99.404777
3045.000000	99.410518
3044.000000	99.417826
3043.000000	99.423264
3042.000000	99.424903
3041.000000	99.423666
3040.000000	99.421965
3039.000000	99.421747
3038.000000	99.423733
3037.000000	99.427389
3036.000000	99.430984
3035.000000	99.432457
3034.000000	99.431342
3033.000000	99.429717
3032.000000	99.430542
3031.000000	99.434771
3030.000000	99.440461
3029.000000	99.444682
3028.000000	99.445940
3027.000000	99.444974
3026.000000	99.443923
3025.000000	99.444919
3024.000000	99.448971
3023.000000	99.455630
3022.000000	99.463373
3021.000000	99.470123
3020.000000	99.473683
3019.000000	99.472565
3018.000000	99.467211
3017.000000	99.460390
3016.000000	99.455747
3015.000000	99.455426
3014.000000	99.458921
3013.000000	99.463997
3012.000000	99.468508
3011.000000	99.471579
3010.000000	99.473467
3009.000000	99.474605
3008.000000	99.474908
3007.000000	99.474341
3006.000000	99.474079
3005.000000	99.476295
3004.000000	99.481976
3003.000000	99.489097
3002.000000	99.493756
3001.000000	99.493359
3000.000000	99.488474
2999.000000	99.481903
2998.000000	99.476625
2997.000000	99.474491
2996.000000	99.475650
2995.000000	99.478474
2994.000000	99.480525
2993.000000	99.480458
2992.000000	99.478991
2991.000000	99.477665
2990.000000	99.476920
2989.000000	99.475866
2988.000000	99.473786
2987.000000	99.471140
2986.000000	99.468837
2985.000000	99.466977
2984.000000	99.464863
2983.000000	99.462094
2982.000000	99.459057
2981.000000	99.456041
2980.000000	99.452350
2979.000000	99.447014
2978.000000	99.440555
2977.000000	99.435246
2976.000000	99.433016
2975.000000	99.433383
2974.000000	99.434317
2973.000000	99.435107
2972.000000	99.437349
2971.000000	99.442358
2970.000000	99.448202
2969.000000	99.450454
2968.000000	99.446271
2967.000000	99.437262
2966.000000	99.427861
2965.000000	99.421194
2964.000000	99.416900
2963.000000	99.412854
2962.000000	99.408065
2961.000000	99.403368
2960.000000	99.399777
2959.000000	99.397137
2958.000000	99.394716
2957.000000	99.392419
2956.000000	99.390893
2955.000000	99.390758
2954.000000	99.392315
2953.000000	99.395730
2952.000000	99.400715
2951.000000	99.405826
2950.000000	99.408751
2949.000000	99.408063
2948.000000	99.404775
2947.000000	99.401803
2946.000000	99.401271
2945.000000	99.402105
2944.000000	99.400546
2943.000000	99.393739
2942.000000	99.383033
2941.000000	99.373353
2940.000000	99.368887
2939.000000	99.369585
2938.000000	99.371837
2937.000000	99.371981
2936.000000	99.368667
2935.000000	99.362771
2934.000000	99.356348
2933.000000	99.351757
2932.000000	99.350391
2931.000000	99.351367
2930.000000	99.351678
2929.000000	99.348372
2928.000000	99.340958
2927.000000	99.331994
2926.000000	99.325226
2925.000000	99.322541
2924.000000	99.322148
2923.000000	99.320046
2922.000000	99.313762
2921.000000	99.304339
2920.000000	99.294543
2919.000000	99.286304
2918.000000	99.280959
2917.000000	99.280784
2916.000000	99.287679
2915.000000	99.300074
2914.000000	99.313175
2913.000000	99.323330
2912.000000	99.330817
2911.000000	99.337578
2910.000000	99.344018
2909.000000	99.349490
2908.000000	99.354535
2907.000000	99.360295
2906.000000	99.366121
2905.000000	99.369975
2904.000000	99.371619
2903.000000	99.373708
2902.000000	99.378913
2901.000000	99.387206
2900.000000	99.396333
2899.000000	99.404290
2898.000000	99.410138
2897.000000	99.413375
2896.000000	99.413847
2895.000000	99.412417
2894.000000	99.410904
2893.000000	99.410830
2892.000000	99.412232
2891.000000	99.413802
2890.000000	99.414277
2889.000000	99.413705
2888.000000	99.413221
2887.000000	99.413569
2886.000000	99.414199
2885.000000	99.414163
2884.000000	99.413525
2883.000000	99.413204
2882.000000	99.413631
2881.000000	99.414419
2880.000000	99.415483
2879.000000	99.417505
2878.000000	99.420784
2877.000000	99.424405
2876.000000	99.427304
2875.000000	99.429657
2874.000000	99.432257
2873.000000	99.434725
2872.000000	99.435461
2871.000000	99.433762
2870.000000	99.431208
2869.000000	99.430162
2868.000000	99.431203
2867.000000	99.432654
2866.000000	99.432551
2865.000000	99.430546
2864.000000	99.427782
2863.000000	99.425551
2862.000000	99.424571
2861.000000	99.425129
2860.000000	99.427089
2859.000000	99.429380
2858.000000	99.429990
2857.000000	99.427140
2856.000000	99.420736
2855.000000	99.412694
2854.000000	99.405765
2853.000000	99.401774
2852.000000	99.400550
2851.000000	99.400482
2850.000000	99.400272
2849.000000	99.400206
2848.000000	99.401490
2847.000000	99.404581
2846.000000	99.408805
2845.000000	99.413709
2844.000000	99.420003
2843.000000	99.428596
2842.000000	99.439166
2841.000000	99.450238
2840.000000	99.460337
2839.000000	99.468471
2838.000000	99.474080
2837.000000	99.477682
2836.000000	99.481441
2835.000000	99.487693
2834.000000	99.496114
2833.000000	99.503336
2832.000000	99.506317
2831.000000	99.505687
2830.000000	99.504791
2829.000000	99.505725
2828.000000	99.507413
2827.000000	99.507674
2826.000000	99.506183
2825.000000	99.504588
2824.000000	99.504317
2823.000000	99.505272
2822.000000	99.506678
2821.000000	99.508264
2820.000000	99.509997
2819.000000	99.511197
2818.000000	99.510956
2817.000000	99.509610
2816.000000	99.508997
2815.000000	99.510629
2814.000000	99.513817
2813.000000	99.516170
2812.000000	99.515951
2811.000000	99.513676
2810.000000	99.511514
2809.000000	99.511524
2808.000000	99.514366
2807.000000	99.519097
2806.000000	99.523782
2805.000000	99.526614
2804.000000	99.526939
2803.000000	99.525417
2802.000000	99.523207
2801.000000	99.521113
2800.000000	99.519535
2799.000000	99.518931
2798.000000	99.519921
2797.000000	99.522765
2796.000000	99.526866
2795.000000	99.530993
2794.000000	99.534160
2793.000000	99.536300
2792.000000	99.538100
2791.000000	99.540200
2790.000000	99.542608
2789.000000	99.544750
2788.000000	99.545875
2787.000000	99.545501
2786.000000	99.543920
2785.000000	99.542300
2784.000000	99.541851
2783.000000	99.542638
2782.000000	99.543582
2781.000000	99.543830
2780.000000	99.543649
2779.000000	99.543598
2778.000000	99.543495
2777.000000	99.542947
2776.000000	99.542391
2775.000000	99.542554
2774.000000	99.542987
2773.000000	99.542296
2772.000000	99.540143
2771.000000	99.538077
2770.000000	99.537807
2769.000000	99.539354
2768.000000	99.541454
2767.000000	99.543171
2766.000000	99.544475
2765.000000	99.545609
2764.000000	99.546519
2763.000000	99.546782
2762.000000	99.545779
2761.000000	99.543378
2760.000000	99.540852
2759.000000	99.540505
2758.000000	99.543517
2757.000000	99.548337
2756.000000	99.551969
2755.000000	99.552978
2754.000000	99.552668
2753.000000	99.553400
2752.000000	99.556272
2751.000000	99.560407
2750.000000	99.563847
2749.000000	99.565024
2748.000000	99.564006
2747.000000	99.562490
2746.000000	99.562116
2745.000000	99.562680
2744.000000	99.562572
2743.000000	99.561093
2742.000000	99.559500
2741.000000	99.559308
2740.000000	99.560293
2739.000000	99.561019
2738.000000	99.560916
2737.000000	99.560812
2736.000000	99.561378
2735.000000	99.561999
2734.000000	99.561661
2733.000000	99.560385
2732.000000	99.559207
2731.000000	99.558991
2730.000000	99.559792
2729.000000	99.561323
2728.000000	99.563467
2727.000000	99.566047
2726.000000	99.568489
2725.000000	99.570227
2724.000000	99.571519
2723.000000	99.573398
2722.000000	99.576480
2721.000000	99.580015
2720.000000	99.582525
2719.000000	99.583389
2718.000000	99.583362
2717.000000	99.583339
2716.000000	99.583007
2715.000000	99.581175
2714.000000	99.577348
2713.000000	99.572606
2712.000000	99.568949
2711.000000	99.568092
2710.000000	99.570824
2709.000000	99.576811
2708.000000	99.584305
2707.000000	99.590194
2706.000000	99.591353
2705.000000	99.586902
2704.000000	99.579306
2703.000000	99.572741
2702.000000	99.570002
2701.000000	99.571031
2700.000000	99.574290
2699.000000	99.578800
2698.000000	99.584146
2697.000000	99.589037
2696.000000	99.591186
2695.000000	99.589154
2694.000000	99.583622
2693.000000	99.576495
2692.000000	99.569648
2691.000000	99.565180
2690.000000	99.565618
2689.000000	99.571933
2688.000000	99.581307
2687.000000	99.588575
2686.000000	99.590831
2685.000000	99.589768
2684.000000	99.588897
2683.000000	99.589408
2682.000000	99.589737
2681.000000	99.588445
2680.000000	99.586122
2679.000000	99.584415
2678.000000	99.584169
2677.000000	99.584889
2676.000000	99.585452
2675.000000	99.585160
2674.000000	99.584464
2673.000000	99.584742
2672.000000	99.586947
2671.000000	99.590408
2670.000000	99.593337
2669.000000	99.594541
2668.000000	99.594251
2667.000000	99.593263
2666.000000	99.591674
2665.000000	99.588709
2664.000000	99.583596
2663.000000	99.576577
2662.000000	99.569253
2661.000000	99.563798
2660.000000	99.561535
2659.000000	99.562232
2658.000000	99.564852
2657.000000	99.568498
2656.000000	99.572339
2655.000000	99.575315
2654.000000	99.576929
2653.000000	99.578026
2652.000000	99.579592
2651.000000	99.580968
2650.000000	99.580694
2649.000000	99.579432
2648.000000	99.580412
2647.000000	99.585790
2646.000000	99.593451
2645.000000	99.598632
2644.000000	99.598387
2643.000000	99.593768
2642.000000	99.588378
2641.000000	99.585746
2640.000000	99.587353
2639.000000	99.591657
2638.000000	99.595132
2637.000000	99.595582
2636.000000	99.594670
2635.000000	99.596116
2634.000000	99.601068
2633.000000	99.606294
2632.000000	99.607496
2631.000000	99.603880
2630.000000	99.598881
2629.000000	99.596674
2628.000000	99.598268
2627.000000	99.600887
2626.000000	99.601101
2625.000000	99.598662
2624.000000	99.596997
2623.000000	99.599645
2622.000000	99.606576
2621.000000	99.614436
2620.000000	99.619817
2619.000000	99.621335
2618.000000	99.619085
2617.000000	99.613870
2616.000000	99.607580
2615.000000	99.602890
2614.000000	99.601407
2613.000000	99.602537
2612.000000	99.604674
2611.000000	99.606772
2610.000000	99.607994
2609.000000	99.606940
2608.000000	99.603012
2607.000000	99.598606
2606.000000	99.598241
2605.000000	99.604453
2604.000000	99.615089
2603.000000	99.625359
2602.000000	99.632216
2601.000000	99.636033
2600.000000	99.638568
2599.000000	99.640604
2598.000000	99.641762
2597.000000	99.641374
2596.000000	99.638700
2595.000000	99.633149
2594.000000	99.625540
2593.000000	99.618793
2592.000000	99.616055
2591.000000	99.618046
2590.000000	99.623226
2589.000000	99.630266
2588.000000	99.638783
2587.000000	99.647351
2586.000000	99.652939
2585.000000	99.653820
2584.000000	99.651925
2583.000000	99.650712
2582.000000	99.651382
2581.000000	99.652793
2580.000000	99.654297
2579.000000	99.656554
2578.000000	99.659233
2577.000000	99.659920
2576.000000	99.656430
2575.000000	99.649405
2574.000000	99.641977
2573.000000	99.637503
2572.000000	99.637776
2571.000000	99.642205
2570.000000	99.647833
2569.000000	99.651016
2568.000000	99.650317
2567.000000	99.647853
2566.000000	99.647169
2565.000000	99.649937
2564.000000	99.655074
2563.000000	99.660716
2562.000000	99.665926
2561.000000	99.670120
2560.000000	99.671582
2559.000000	99.667798
2558.000000	99.657910
2557.000000	99.644531
2556.000000	99.632522
2555.000000	99.625645
2554.000000	99.624357
2553.000000	99.626465
2552.000000	99.629296
2551.000000	99.631342
2550.000000	99.632759
2549.000000	99.634880
2548.000000	99.638862
2547.000000	99.644501
2546.000000	99.650405
2545.000000	99.655171
2544.000000	99.657872
2543.000000	99.657832
2542.000000	99.655376
2541.000000	99.653082
2540.000000	99.654557
2539.000000	99.660462
2538.000000	99.666742
2537.000000	99.668040
2536.000000	99.662496
2535.000000	99.652388
2534.000000	99.641283
2533.000000	99.632292
2532.000000	99.628023
2531.000000	99.629562
2530.000000	99.635126
2529.000000	99.641654
2528.000000	99.648151
2527.000000	99.655685
2526.000000	99.663810
2525.000000	99.669423
2524.000000	99.670657
2523.000000	99.669782
2522.000000	99.669952
2521.000000	99.670126
2520.000000	99.665980
2519.000000	99.655900
2518.000000	99.643769
2517.000000	99.634973
2516.000000	99.631188
2515.000000	99.630397
2514.000000	99.630808
2513.000000	99.632862
2512.000000	99.637394
2511.000000	99.643259
2510.000000	99.647572
2509.000000	99.647878
2508.000000	99.643914
2507.000000	99.637770
2506.000000	99.632443
2505.000000	99.629710
2504.000000	99.629033
2503.000000	99.628977
2502.000000	99.629548
2501.000000	99.632022
2500.000000	99.636275
2499.000000	99.639900
2498.000000	99.641213
2497.000000	99.641722
2496.000000	99.643717
2495.000000	99.646454
2494.000000	99.647024
2493.000000	99.644834
2492.000000	99.642670
2491.000000	99.642980
2490.000000	99.645618
2489.000000	99.649827
2488.000000	99.655706
2487.000000	99.662202
2486.000000	99.666240
2485.000000	99.666155
2484.000000	99.664249
2483.000000	99.663397
2482.000000	99.662564
2481.000000	99.658562
2480.000000	99.651585
2479.000000	99.645879
2478.000000	99.644501
2477.000000	99.645958
2476.000000	99.647075
2475.000000	99.647523
2474.000000	99.650191
2473.000000	99.657743
2472.000000	99.669582
2471.000000	99.681921
2470.000000	99.690500
2469.000000	99.693441
2468.000000	99.691551
2467.000000	99.686452
2466.000000	99.679373
2465.000000	99.671682
2464.000000	99.664788
2463.000000	99.658642
2462.000000	99.652320
2461.000000	99.647421
2460.000000	99.648683
2459.000000	99.658432
2458.000000	99.671799
2457.000000	99.680497
2456.000000	99.681254
2455.000000	99.677867
2454.000000	99.675071
2453.000000	99.673726
2452.000000	99.672482
2451.000000	99.670927
2450.000000	99.669337
2449.000000	99.667595
2448.000000	99.666247
2447.000000	99.667098
2446.000000	99.670987
2445.000000	99.675865
2444.000000	99.678518
2443.000000	99.677540
2442.000000	99.673806
2441.000000	99.668842
2440.000000	99.663739
2439.000000	99.659206
2438.000000	99.655995
2437.000000	99.655267
2436.000000	99.658132
2435.000000	99.663867
2434.000000	99.669073
2433.000000	99.670248
2432.000000	99.667408
2431.000000	99.663834
2430.000000	99.662543
2429.000000	99.664789
2428.000000	99.671456
2427.000000	99.682431
2426.000000	99.693525
2425.000000	99.697365
2424.000000	99.690342
2423.000000	99.677145
2422.000000	99.666114
2421.000000	99.661332
2420.000000	99.661331
2419.000000	99.663869
2418.000000	99.668783
2417.000000	99.676226
2416.000000	99.684862
2415.000000	99.692768
2414.000000	99.698455
2413.000000	99.700603
2412.000000	99.698470
2411.000000	99.693496
2410.000000	99.689261
2409.000000	99.688647
2408.000000	99.691191
2407.000000	99.693785
2406.000000	99.693987
2405.000000	99.692487
2404.000000	99.692506
2403.000000	99.696688
2402.000000	99.704401
2401.000000	99.712193
2400.000000	99.716934
2399.000000	99.718045
2398.000000	99.716451
2397.000000	99.712352
2396.000000	99.705419
2395.000000	99.697056
2394.000000	99.691188
2393.000000	99.691835
2392.000000	99.699712
2391.000000	99.711153
2390.000000	99.720213
2389.000000	99.722569
2388.000000	99.718464
2387.000000	99.712516
2386.000000	99.710331
2385.000000	99.714921
2384.000000	99.725921
2383.000000	99.741539
2382.000000	99.760225
2381.000000	99.780033
2380.000000	99.797305
2379.000000	99.807631
2378.000000	99.809286
2377.000000	99.805644
2376.000000	99.803018
2375.000000	99.804924
2374.000000	99.808279
2373.000000	99.806284
2372.000000	99.795670
2371.000000	99.781127
2370.000000	99.771942
2369.000000	99.773920
2368.000000	99.784307
2367.000000	99.794015
2366.000000	99.795131
2365.000000	99.787235
2364.000000	99.776889
2363.000000	99.770836
2362.000000	99.770956
2361.000000	99.775122
2360.000000	99.779577
2359.000000	99.781412
2358.000000	99.779698
2357.000000	99.775784
2356.000000	99.773827
2355.000000	99.774977
2354.000000	99.776078
2353.000000	99.773883
2352.000000	99.770188
2351.000000	99.768387
2350.000000	99.767873
2349.000000	99.766533
2348.000000	99.764068
2347.000000	99.762747
2346.000000	99.764051
2345.000000	99.765877
2344.000000	99.765917
2343.000000	99.763870
2342.000000	99.761637
2341.000000	99.759385
2340.000000	99.757518
2339.000000	99.758424
2338.000000	99.762211
2337.000000	99.763977
2336.000000	99.758325
2335.000000	99.746650
2334.000000	99.734993
2333.000000	99.728387
2332.000000	99.726995
2331.000000	99.730417
2330.000000	99.737419
2329.000000	99.746511
2328.000000	99.751224
2327.000000	99.745523
2326.000000	99.728168
2325.000000	99.706062
2324.000000	99.689732
2323.000000	99.685663
2322.000000	99.692460
2321.000000	99.703957
2320.000000	99.714536
2319.000000	99.721686
2318.000000	99.723614
2317.000000	99.721602
2316.000000	99.720048
2315.000000	99.724850
2314.000000	99.735060
2313.000000	99.743941
2312.000000	99.745707
2311.000000	99.743010
2310.000000	99.740561
2309.000000	99.738003
2308.000000	99.730143
2307.000000	99.716455
2306.000000	99.702967
2305.000000	99.695712
2304.000000	99.694251
2303.000000	99.694839
2302.000000	99.695256
2301.000000	99.695461
2300.000000	99.694303
2299.000000	99.691349
2298.000000	99.688577
2297.000000	99.688898
2296.000000	99.690472
2295.000000	99.687892
2294.000000	99.677978
2293.000000	99.664291
2292.000000	99.653822
2291.000000	99.651814
2290.000000	99.659032
2289.000000	99.671467
2288.000000	99.681367
2287.000000	99.681457
2286.000000	99.671305
2285.000000	99.658114
2284.000000	99.649683
2283.000000	99.646946
2282.000000	99.645583
2281.000000	99.642572
2280.000000	99.638829
2279.000000	99.636506
2278.000000	99.637834
2277.000000	99.646018
2276.000000	99.662866
2275.000000	99.683948
2274.000000	99.699026
2273.000000	99.699824
2272.000000	99.686353
2271.000000	99.665633
2270.000000	99.646434
2269.000000	99.635743
2268.000000	99.636603
2267.000000	99.646762
2266.000000	99.660744
2265.000000	99.674769
2264.000000	99.688315
2263.000000	99.700597
2262.000000	99.708059
2261.000000	99.707184
2260.000000	99.698374
2259.000000	99.685894
2258.000000	99.676058
2257.000000	99.675639
2256.000000	99.688538
2255.000000	99.711682
2254.000000	99.736479
2253.000000	99.755900
2252.000000	99.767542
2251.000000	99.769236
2250.000000	99.757030
2249.000000	99.732374
2248.000000	99.707605
2247.000000	99.698152
2246.000000	99.708803
2245.000000	99.730054
2244.000000	99.746548
2243.000000	99.746681
2242.000000	99.727067
2241.000000	99.693098
2240.000000	99.655526
2239.000000	99.622966
2238.000000	99.598204
2237.000000	99.583661
2236.000000	99.586686
2235.000000	99.613767
2234.000000	99.659798
2233.000000	99.708025
2232.000000	99.742240
2231.000000	99.757098
2230.000000	99.757404
2229.000000	99.751684
2228.000000	99.746694
2227.000000	99.743058
2226.000000	99.735111
2225.000000	99.718088
2224.000000	99.696109
2223.000000	99.679397
2222.000000	99.673903
2221.000000	99.677255
2220.000000	99.684764
2219.000000	99.694268
2218.000000	99.703240
2217.000000	99.706274
2216.000000	99.699767
2215.000000	99.687148
2214.000000	99.676030
2213.000000	99.671235
2212.000000	99.672777
2211.000000	99.679753
2210.000000	99.692925
2209.000000	99.711742
2208.000000	99.730470
2207.000000	99.740239
2206.000000	99.736445
2205.000000	99.723163
2204.000000	99.708546
2203.000000	99.696943
2202.000000	99.688397
2201.000000	99.684505
2200.000000	99.689144
2199.000000	99.702141
2198.000000	99.716913
2197.000000	99.726441
2196.000000	99.728476
2195.000000	99.723953
2194.000000	99.715190
2193.000000	99.707324
2192.000000	99.705369
2191.000000	99.707116
2190.000000	99.706459
2189.000000	99.706932
2188.000000	99.721961
2187.000000	99.753376
2186.000000	99.778743
2185.000000	99.773063
2184.000000	99.740498
2183.000000	99.712641
2182.000000	99.715672
2181.000000	99.749582
2180.000000	99.798190
2179.000000	99.847073
2178.000000	99.887315
2177.000000	99.910665
2176.000000	99.909268
2175.000000	99.879775
2174.000000	99.828503
2173.000000	99.773904
2172.000000	99.736695
2171.000000	99.720234
2170.000000	99.706262
2169.000000	99.677930
2168.000000	99.643713
2167.000000	99.628452
2166.000000	99.643042
2165.000000	99.672528
2164.000000	99.692002
2163.000000	99.686100
2162.000000	99.654690
2161.000000	99.615127
2160.000000	99.601541
2159.000000	99.643312
2158.000000	99.733136
2157.000000	99.830125
2156.000000	99.898582
2155.000000	99.927901
2154.000000	99.920286
2153.000000	99.883698
2152.000000	99.837122
2151.000000	99.804582
2150.000000	99.798180
2149.000000	99.811765
2148.000000	99.831245
2147.000000	99.845388
2146.000000	99.846916
2145.000000	99.830516
2144.000000	99.794227
2143.000000	99.742626
2142.000000	99.690654
2141.000000	99.663147
2140.000000	99.679722
2139.000000	99.733564
2138.000000	99.792565
2137.000000	99.828246
2136.000000	99.838845
2135.000000	99.838083
2134.000000	99.830191
2133.000000	99.809975
2132.000000	99.780243
2131.000000	99.753199
2130.000000	99.736185
2129.000000	99.728413
2128.000000	99.730258
2127.000000	99.743994
2126.000000	99.764148
2125.000000	99.777511
2124.000000	99.777032
2123.000000	99.768350
2122.000000	99.760060
2121.000000	99.754399
2120.000000	99.749982
2119.000000	99.746408
2118.000000	99.742626
2117.000000	99.736707
2116.000000	99.730195
2115.000000	99.726813
2114.000000	99.724386
2113.000000	99.715209
2112.000000	99.698700
2111.000000	99.686959
2110.000000	99.691431
2109.000000	99.709099
2108.000000	99.727478
2107.000000	99.739836
2106.000000	99.749702
2105.000000	99.762969
2104.000000	99.780285
2103.000000	99.794415
2102.000000	99.792094
2101.000000	99.764031
2100.000000	99.718796
2099.000000	99.681695
2098.000000	99.673350
2097.000000	99.690470
2096.000000	99.712233
2095.000000	99.722894
2094.000000	99.722180
2093.000000	99.716743
2092.000000	99.710801
2091.000000	99.706849
2090.000000	99.708589
2089.000000	99.718843
2088.000000	99.735438
2087.000000	99.750411
2086.000000	99.753161
2085.000000	99.736630
2084.000000	99.703743
2083.000000	99.667946
2082.000000	99.645357
2081.000000	99.645502
2080.000000	99.667382
2079.000000	99.701433
2078.000000	99.734136
2077.000000	99.753678
2076.000000	99.755252
2075.000000	99.741412
2074.000000	99.718171
2073.000000	99.694125
2072.000000	99.682129
2071.000000	99.693969
2070.000000	99.727599
2069.000000	99.762489
2068.000000	99.774253
2067.000000	99.755379
2066.000000	99.719378
2065.000000	99.686468
2064.000000	99.666578
2063.000000	99.655499
2062.000000	99.646331
2061.000000	99.642199
2060.000000	99.655503
2059.000000	99.692636
2058.000000	99.741811
2057.000000	99.780862
2056.000000	99.796996
2055.000000	99.793668
2054.000000	99.777836
2053.000000	99.750132
2052.000000	99.712437
2051.000000	99.676416
2050.000000	99.655841
2049.000000	99.651837
2048.000000	99.652278
2047.000000	99.648264
2046.000000	99.644690
2045.000000	99.652378
2044.000000	99.676748
2043.000000	99.715599
2042.000000	99.759806
2041.000000	99.792467
2040.000000	99.795809
2039.000000	99.767167
2038.000000	99.725145
2037.000000	99.695163
2036.000000	99.687238
2035.000000	99.691210
2034.000000	99.696902
2033.000000	99.710778
2032.000000	99.742991
2031.000000	99.783209
2030.000000	99.804134
2029.000000	99.790475
2028.000000	99.754005
2027.000000	99.716841
2026.000000	99.692357
2025.000000	99.688040
2024.000000	99.709370
2023.000000	99.748361
2022.000000	99.780132
2021.000000	99.785754
2020.000000	99.772952
2019.000000	99.762316
2018.000000	99.762539
2017.000000	99.772155
2016.000000	99.793859
2015.000000	99.827592
2014.000000	99.856766
2013.000000	99.861899
2012.000000	99.845681
2011.000000	99.827192
2010.000000	99.814846
2009.000000	99.805193
2008.000000	99.804365
2007.000000	99.825008
2006.000000	99.859720
2005.000000	99.884050
2004.000000	99.891284
2003.000000	99.899418
2002.000000	99.917231
2001.000000	99.925961
2000.000000	99.904346
1999.000000	99.855999
1998.000000	99.803487
1997.000000	99.769951
1996.000000	99.771888
1995.000000	99.813579
1994.000000	99.876263
1993.000000	99.921059
1992.000000	99.920589
1991.000000	99.886557
1990.000000	99.849260
1989.000000	99.819833
1988.000000	99.788834
1987.000000	99.751175
1986.000000	99.717030
1985.000000	99.700430
1984.000000	99.705257
1983.000000	99.720837
1982.000000	99.727993
1981.000000	99.715611
1980.000000	99.697305
1979.000000	99.704288
1978.000000	99.752142
1977.000000	99.817843
1976.000000	99.860603
1975.000000	99.860577
1974.000000	99.826327
1973.000000	99.779128
1972.000000	99.741550
1971.000000	99.726835
1970.000000	99.728610
1969.000000	99.728492
1968.000000	99.721284
1967.000000	99.725052
1966.000000	99.756455
1965.000000	99.805009
1964.000000	99.842988
1963.000000	99.851943
1962.000000	99.832406
1961.000000	99.798720
1960.000000	99.770122
1959.000000	99.757721
1958.000000	99.755592
1957.000000	99.750794
1956.000000	99.744192
1955.000000	99.751786
1954.000000	99.780608
1953.000000	99.813352
1952.000000	99.826105
1951.000000	99.816018
1950.000000	99.801819
1949.000000	99.800639
1948.000000	99.812171
1947.000000	99.823772
1946.000000	99.823819
1945.000000	99.810327
1944.000000	99.792923
1943.000000	99.788483
1942.000000	99.808210
1941.000000	99.844993
1940.000000	99.879126
1939.000000	99.895268
1938.000000	99.890927
1937.000000	99.875402
1936.000000	99.861854
1935.000000	99.856830
1934.000000	99.858417
1933.000000	99.863840
1932.000000	99.873023
1931.000000	99.882351
1930.000000	99.881505
1929.000000	99.865109
1928.000000	99.844617
1927.000000	99.838185
1926.000000	99.848875
1925.000000	99.860423
1924.000000	99.856277
1923.000000	99.837214
1922.000000	99.817285
1921.000000	99.806662
1920.000000	99.805582
1919.000000	99.809662
1918.000000	99.812646
1917.000000	99.809338
1916.000000	99.802865
1915.000000	99.802947
1914.000000	99.814588
1913.000000	99.832406
1912.000000	99.846685
1911.000000	99.852252
1910.000000	99.848587
1909.000000	99.836330
1908.000000	99.819218
1907.000000	99.805154
1906.000000	99.799641
1905.000000	99.799540
1904.000000	99.798213
1903.000000	99.795339
1902.000000	99.796638
1901.000000	99.804496
1900.000000	99.813905
1899.000000	99.818704
1898.000000	99.817739
1897.000000	99.813568
1896.000000	99.808936
1895.000000	99.806053
1894.000000	99.806932
1893.000000	99.811831
1892.000000	99.817930
1891.000000	99.820835
1890.000000	99.818168
1889.000000	99.812775
1888.000000	99.810384
1887.000000	99.813090
1886.000000	99.817940
1885.000000	99.821695
1884.000000	99.824274
1883.000000	99.826098
1882.000000	99.824191
1881.000000	99.815466
1880.000000	99.803222
1879.000000	99.795070
1878.000000	99.794205
1877.000000	99.797015
1876.000000	99.800150
1875.000000	99.805446
1874.000000	99.815038
1873.000000	99.825789
1872.000000	99.832177
1871.000000	99.832002
1870.000000	99.826596
1869.000000	99.818370
1868.000000	99.810606
1867.000000	99.807501
1866.000000	99.811281
1865.000000	99.820027
1864.000000	99.829850
1863.000000	99.837807
1862.000000	99.842319
1861.000000	99.843120
1860.000000	99.842465
1859.000000	99.844301
1858.000000	99.850105
1857.000000	99.856407
1856.000000	99.858198
1855.000000	99.854287
1854.000000	99.847567
1853.000000	99.841914
1852.000000	99.839879
1851.000000	99.841122
1850.000000	99.843674
1849.000000	99.846839
1848.000000	99.852536
1847.000000	99.861839
1846.000000	99.871036
1845.000000	99.873852
1844.000000	99.869396
1843.000000	99.864413
1842.000000	99.862996
1841.000000	99.861582
1840.000000	99.856252
1839.000000	99.848106
1838.000000	99.840915
1837.000000	99.835735
1836.000000	99.830937
1835.000000	99.826271
1834.000000	99.823641
1833.000000	99.824487
1832.000000	99.828368
1831.000000	99.833392
1830.000000	99.838047
1829.000000	99.842664
1828.000000	99.848637
1827.000000	99.854841
1826.000000	99.856836
1825.000000	99.851311
1824.000000	99.840909
1823.000000	99.831866
1822.000000	99.827569
1821.000000	99.828820
1820.000000	99.836443
1819.000000	99.849579
1818.000000	99.863259
1817.000000	99.870822
1816.000000	99.870291
1815.000000	99.865596
1814.000000	99.861010
1813.000000	99.857981
1812.000000	99.856437
1811.000000	99.855856
1810.000000	99.854072
1809.000000	99.848263
1808.000000	99.838500
1807.000000	99.828382
1806.000000	99.821694
1805.000000	99.819698
1804.000000	99.821534
1803.000000	99.824639
1802.000000	99.824337
1801.000000	99.817085
1800.000000	99.805200
1799.000000	99.795409
1798.000000	99.790886
1797.000000	99.788945
1796.000000	99.786245
1795.000000	99.782799
1794.000000	99.780310
1793.000000	99.779876
1792.000000	99.781056
1791.000000	99.783140
1790.000000	99.786806
1789.000000	99.792558
1788.000000	99.799758
1787.000000	99.807879
1786.000000	99.816858
1785.000000	99.826395
1784.000000	99.836069
1783.000000	99.845166
1782.000000	99.851537
1781.000000	99.853566
1780.000000	99.852244
1779.000000	99.850722
1778.000000	99.850596
1777.000000	99.851879
1776.000000	99.855839
1775.000000	99.863594
1774.000000	99.872609
1773.000000	99.877185
1772.000000	99.873890
1771.000000	99.865396
1770.000000	99.856287
1769.000000	99.847985
1768.000000	99.842603
1767.000000	99.844038
1766.000000	99.852374
1765.000000	99.862953
1764.000000	99.871019
1763.000000	99.875122
1762.000000	99.876695
1761.000000	99.878232
1760.000000	99.881217
1759.000000	99.884649
1758.000000	99.884747
1757.000000	99.880058
1756.000000	99.876022
1755.000000	99.878829
1754.000000	99.886401
1753.000000	99.890739
1752.000000	99.887041
1751.000000	99.879540
1750.000000	99.876024
1749.000000	99.876915
1748.000000	99.878934
1747.000000	99.880884
1746.000000	99.881307
1745.000000	99.877685
1744.000000	99.870321
1743.000000	99.863991
1742.000000	99.861722
1741.000000	99.860818
1740.000000	99.859084
1739.000000	99.860531
1738.000000	99.868541
1737.000000	99.879440
1736.000000	99.885292
1735.000000	99.880809
1734.000000	99.870131
1733.000000	99.861691
1732.000000	99.858128
1731.000000	99.856801
1730.000000	99.854473
1729.000000	99.849796
1728.000000	99.845896
1727.000000	99.846855
1726.000000	99.852111
1725.000000	99.857045
1724.000000	99.858839
1723.000000	99.861028
1722.000000	99.867386
1721.000000	99.875167
1720.000000	99.877503
1719.000000	99.869726
1718.000000	99.854448
1717.000000	99.841354
1716.000000	99.834593
1715.000000	99.831713
1714.000000	99.831451
1713.000000	99.831973
1712.000000	99.831089
1711.000000	99.828725
1710.000000	99.825597
1709.000000	99.821807
1708.000000	99.817305
1707.000000	99.811978
1706.000000	99.805396
1705.000000	99.797319
1704.000000	99.789388
1703.000000	99.781081
1702.000000	99.764036
1701.000000	99.730271
1700.000000	99.693496
1699.000000	99.677491
1698.000000	99.676800
1697.000000	99.665308
1696.000000	99.629424
1695.000000	99.585379
1694.000000	99.555889
1693.000000	99.540469
1692.000000	99.528553
1691.000000	99.514790
1690.000000	99.499098
1689.000000	99.483974
1688.000000	99.472799
1687.000000	99.465587
1686.000000	99.455729
1685.000000	99.431377
1684.000000	99.390881
1683.000000	99.350387
1682.000000	99.318768
1681.000000	99.288825
1680.000000	99.257668
1679.000000	99.230070
1678.000000	99.207635
1677.000000	99.182344
1676.000000	99.145995
1675.000000	99.103693
1674.000000	99.067588
1673.000000	99.037748
1672.000000	99.004270
1671.000000	98.961857
1670.000000	98.914650
1669.000000	98.871723
1668.000000	98.838005
1667.000000	98.813041
1666.000000	98.792113
1665.000000	98.768068
1664.000000	98.735797
1663.000000	98.697673
1662.000000	98.660570
1661.000000	98.627548
1660.000000	98.598376
1659.000000	98.575028
1658.000000	98.560049
1657.000000	98.553055
1656.000000	98.549678
1655.000000	98.544670
1654.000000	98.533386
1653.000000	98.513716
1652.000000	98.484771
1651.000000	98.461576
1650.000000	98.446233
1649.000000	98.434105
1648.000000	98.420622
1647.000000	98.408661
1646.000000	98.402810
1645.000000	98.398909
1644.000000	98.393736
1643.000000	98.388111
1642.000000	98.382121
1641.000000	98.374874
1640.000000	98.367197
1639.000000	98.361985
1638.000000	98.360493
1637.000000	98.360457
1636.000000	98.360587
1635.000000	98.361272
1634.000000	98.361274
1633.000000	98.360034
1632.000000	98.358110
1631.000000	98.358115
1630.000000	98.362662
1629.000000	98.372366
1628.000000	98.387068
1627.000000	98.407479
1626.000000	98.432335
1625.000000	98.457820
1624.000000	98.481856
1623.000000	98.507693
1622.000000	98.538319
1621.000000	98.571955
1620.000000	98.606310
1619.000000	98.641009
1618.000000	98.677310
1617.000000	98.716785
1616.000000	98.756636
1615.000000	98.791484
1614.000000	98.821385
1613.000000	98.848413
1612.000000	98.874022
1611.000000	98.899244
1610.000000	98.924262
1609.000000	98.948424
1608.000000	98.971456
1607.000000	98.993674
1606.000000	99.014742
1605.000000	99.034603
1604.000000	99.054027
1603.000000	99.073641
1602.000000	99.093258
1601.000000	99.112332
1600.000000	99.130320
1599.000000	99.146143
1598.000000	99.158631
1597.000000	99.168293
1596.000000	99.177000
1595.000000	99.185542
1594.000000	99.193044
1593.000000	99.199014
1592.000000	99.203912
1591.000000	99.207146
1590.000000	99.206942
1589.000000	99.203662
1588.000000	99.200711
1587.000000	99.200227
1586.000000	99.199714
1585.000000	99.195093
1584.000000	99.185825
1583.000000	99.173355
1582.000000	99.158648
1581.000000	99.143770
1580.000000	99.132745
1579.000000	99.126452
1578.000000	99.118668
1577.000000	99.099919
1576.000000	99.071989
1575.000000	99.050408
1574.000000	99.042009
1573.000000	99.040672
1572.000000	99.038506
1571.000000	99.028506
1570.000000	99.006313
1569.000000	98.976531
1568.000000	98.951086
1567.000000	98.934027
1566.000000	98.919753
1565.000000	98.903542
1564.000000	98.888436
1563.000000	98.880564
1562.000000	98.880143
1561.000000	98.878861
1560.000000	98.863784
1559.000000	98.823607
1558.000000	98.775129
1557.000000	98.738294
1556.000000	98.710915
1555.000000	98.686732
1554.000000	98.663710
1553.000000	98.643421
1552.000000	98.627690
1551.000000	98.617940
1550.000000	98.614867
1549.000000	98.614948
1548.000000	98.613524
1547.000000	98.608043
1546.000000	98.597081
1545.000000	98.580375
1544.000000	98.562149
1543.000000	98.549392
1542.000000	98.544313
1541.000000	98.541608
1540.000000	98.537722
1539.000000	98.533902
1538.000000	98.530888
1537.000000	98.528411
1536.000000	98.525507
1535.000000	98.522983
1534.000000	98.524113
1533.000000	98.530835
1532.000000	98.539233
1531.000000	98.547511
1530.000000	98.556031
1529.000000	98.562268
1528.000000	98.562746
1527.000000	98.559293
1526.000000	98.559510
1525.000000	98.568192
1524.000000	98.581285
1523.000000	98.590829
1522.000000	98.591301
1521.000000	98.584432
1520.000000	98.576735
1519.000000	98.572163
1518.000000	98.569102
1517.000000	98.565559
1516.000000	98.562350
1515.000000	98.560346
1514.000000	98.557467
1513.000000	98.551820
1512.000000	98.545726
1511.000000	98.544426
1510.000000	98.548362
1509.000000	98.549838
1508.000000	98.539103
1507.000000	98.519173
1506.000000	98.503456
1505.000000	98.491005
1504.000000	98.480069
1503.000000	98.469345
1502.000000	98.457979
1501.000000	98.445351
1500.000000	98.431844
1499.000000	98.416656
1498.000000	98.396134
1497.000000	98.369574
1496.000000	98.345946
1495.000000	98.333729
1494.000000	98.329232
1493.000000	98.323794
1492.000000	98.312671
1491.000000	98.296247
1490.000000	98.275391
1489.000000	98.249006
1488.000000	98.218090
1487.000000	98.187420
1486.000000	98.160413
1485.000000	98.136576
1484.000000	98.114845
1483.000000	98.093488
1482.000000	98.068906
1481.000000	98.038216
1480.000000	98.004023
1479.000000	97.971262
1478.000000	97.940865
1477.000000	97.910321
1476.000000	97.878511
1475.000000	97.846305
1474.000000	97.812601
1473.000000	97.777806
1472.000000	97.748421
1471.000000	97.727177
1470.000000	97.708871
1469.000000	97.688391
1468.000000	97.664545
1467.000000	97.637415
1466.000000	97.604620
1465.000000	97.565064
1464.000000	97.525744
1463.000000	97.494580
1462.000000	97.470404
1461.000000	97.447601
1460.000000	97.423690
1459.000000	97.398474
1458.000000	97.368794
1457.000000	97.330352
1456.000000	97.288277
1455.000000	97.252204
1454.000000	97.220849
1453.000000	97.189584
1452.000000	97.158625
1451.000000	97.131678
1450.000000	97.109607
1449.000000	97.089702
1448.000000	97.070127
1447.000000	97.051126
1446.000000	97.032055
1445.000000	97.013245
1444.000000	96.996187
1443.000000	96.981456
1442.000000	96.967640
1441.000000	96.953463
1440.000000	96.939483
1439.000000	96.925619
1438.000000	96.909990
1437.000000	96.891912
1436.000000	96.874291
1435.000000	96.858189
1434.000000	96.841124
1433.000000	96.821862
1432.000000	96.802748
1431.000000	96.786242
1430.000000	96.770573
1429.000000	96.752341
1428.000000	96.732354
1427.000000	96.712969
1426.000000	96.692929
1425.000000	96.671171
1424.000000	96.650814
1423.000000	96.634204
1422.000000	96.617314
1421.000000	96.595231
1420.000000	96.570001
1419.000000	96.549353
1418.000000	96.534552
1417.000000	96.522005
1416.000000	96.513738
1415.000000	96.511855
1414.000000	96.512505
1413.000000	96.510172
1412.000000	96.504245
1411.000000	96.498024
1410.000000	96.493485
1409.000000	96.491112
1408.000000	96.492816
1407.000000	96.500429
1406.000000	96.512665
1405.000000	96.527557
1404.000000	96.544380
1403.000000	96.560404
1402.000000	96.571542
1401.000000	96.577865
1400.000000	96.584729
1399.000000	96.595549
1398.000000	96.606009
1397.000000	96.613105
1396.000000	96.622508
1395.000000	96.639640
1394.000000	96.658943
1393.000000	96.673283
1392.000000	96.685610
1391.000000	96.701332
1390.000000	96.721126
1389.000000	96.745281
1388.000000	96.778359
1387.000000	96.821843
1386.000000	96.865576
1385.000000	96.899768
1384.000000	96.926716
1383.000000	96.953545
1382.000000	96.983328
1381.000000	97.015020
1380.000000	97.047632
1379.000000	97.080012
1378.000000	97.109548
1377.000000	97.135781
1376.000000	97.163162
1375.000000	97.196175
1374.000000	97.232525
1373.000000	97.266002
1372.000000	97.295565
1371.000000	97.324890
1370.000000	97.356554
1369.000000	97.391532
1368.000000	97.429631
1367.000000	97.467662
1366.000000	97.501260
1365.000000	97.530639
1364.000000	97.561920
1363.000000	97.600775
1362.000000	97.644609
1361.000000	97.685531
1360.000000	97.720119
1359.000000	97.749165
1358.000000	97.773434
1357.000000	97.794568
1356.000000	97.816170
1355.000000	97.840343
1354.000000	97.865016
1353.000000	97.886951
1352.000000	97.905390
1351.000000	97.921215
1350.000000	97.934756
1349.000000	97.946588
1348.000000	97.958356
1347.000000	97.971026
1346.000000	97.983605
1345.000000	97.994750
1344.000000	98.004132
1343.000000	98.011548
1342.000000	98.016704
1341.000000	98.020806
1340.000000	98.026571
1339.000000	98.035051
1338.000000	98.044435
1337.000000	98.054145
1336.000000	98.066180
1335.000000	98.081246
1334.000000	98.097610
1333.000000	98.114777
1332.000000	98.134931
1331.000000	98.158854
1330.000000	98.183024
1329.000000	98.203252
1328.000000	98.219536
1327.000000	98.234862
1326.000000	98.250533
1325.000000	98.265075
1324.000000	98.277175
1323.000000	98.287428
1322.000000	98.297161
1321.000000	98.306823
1320.000000	98.315762
1319.000000	98.323301
1318.000000	98.330264
1317.000000	98.339063
1316.000000	98.351369
1315.000000	98.366178
1314.000000	98.381327
1313.000000	98.396599
1312.000000	98.413403
1311.000000	98.431304
1310.000000	98.447359
1309.000000	98.459857
1308.000000	98.470793
1307.000000	98.483484
1306.000000	98.498712
1305.000000	98.514344
1304.000000	98.528400
1303.000000	98.541274
1302.000000	98.554935
1301.000000	98.570172
1300.000000	98.584781
1299.000000	98.595436
1298.000000	98.601889
1297.000000	98.608022
1296.000000	98.617326
1295.000000	98.628249
1294.000000	98.636163
1293.000000	98.639227
1292.000000	98.640051
1291.000000	98.641916
1290.000000	98.645407
1289.000000	98.649192
1288.000000	98.652043
1287.000000	98.653402
1286.000000	98.653431
1285.000000	98.653034
1284.000000	98.652741
1283.000000	98.651528
1282.000000	98.648288
1281.000000	98.644767
1280.000000	98.645164
1279.000000	98.651694
1278.000000	98.661651
1277.000000	98.669996
1276.000000	98.674203
1275.000000	98.675797
1274.000000	98.677832
1273.000000	98.681995
1272.000000	98.688119
1271.000000	98.695574
1270.000000	98.704217
1269.000000	98.713566
1268.000000	98.721729
1267.000000	98.726556
1266.000000	98.728407
1265.000000	98.730462
1264.000000	98.735101
1263.000000	98.740863
1262.000000	98.744128
1261.000000	98.743264
1260.000000	98.739682
1259.000000	98.735483
1258.000000	98.731494
1257.000000	98.727395
1256.000000	98.722531
1255.000000	98.716468
1254.000000	98.709361
1253.000000	98.701470
1252.000000	98.692116
1251.000000	98.680592
1250.000000	98.668788
1249.000000	98.660992
1248.000000	98.659125
1247.000000	98.659249
1246.000000	98.655165
1245.000000	98.644905
1244.000000	98.631617
1243.000000	98.618781
1242.000000	98.607456
1241.000000	98.598228
1240.000000	98.592434
1239.000000	98.589934
1238.000000	98.587994
1237.000000	98.584547
1236.000000	98.581280
1235.000000	98.581966
1234.000000	98.588594
1233.000000	98.599894
1232.000000	98.612888
1231.000000	98.624840
1230.000000	98.634855
1229.000000	98.644896
1228.000000	98.658440
1227.000000	98.677668
1226.000000	98.702294
1225.000000	98.730763
1224.000000	98.760918
1223.000000	98.789208
1222.000000	98.811677
1221.000000	98.827227
1220.000000	98.838769
1219.000000	98.850133
1218.000000	98.862837
1217.000000	98.876370
1216.000000	98.890062
1215.000000	98.903456
1214.000000	98.915616
1213.000000	98.925367
1212.000000	98.931565
1211.000000	98.932738
1210.000000	98.927909
1209.000000	98.918668
1208.000000	98.909429
1207.000000	98.904184
1206.000000	98.903223
1205.000000	98.903923
1204.000000	98.904131
1203.000000	98.903652
1202.000000	98.903097
1201.000000	98.903204
1200.000000	98.905433
1199.000000	98.911837
1198.000000	98.923123
1197.000000	98.937516
1196.000000	98.952451
1195.000000	98.967088
1194.000000	98.982499
1193.000000	98.999147
1192.000000	99.014970
1191.000000	99.026948
1190.000000	99.034690
1189.000000	99.041352
1188.000000	99.050255
1187.000000	99.061337
1186.000000	99.071899
1185.000000	99.080450
1184.000000	99.088267
1183.000000	99.097067
1182.000000	99.106535
1181.000000	99.114594
1180.000000	99.119307
1179.000000	99.120168
1178.000000	99.118733
1177.000000	99.118698
1176.000000	99.123821
1175.000000	99.133915
1174.000000	99.143180
1173.000000	99.144731
1172.000000	99.137654
1171.000000	99.128019
1170.000000	99.122159
1169.000000	99.120315
1168.000000	99.118211
1167.000000	99.113536
1166.000000	99.108327
1165.000000	99.105283
1164.000000	99.104450
1163.000000	99.104693
1162.000000	99.106324
1161.000000	99.110662
1160.000000	99.117869
1159.000000	99.126546
1158.000000	99.134928
1157.000000	99.141678
1156.000000	99.146529
1155.000000	99.151041
1154.000000	99.157662
1153.000000	99.166748
1152.000000	99.175608
1151.000000	99.181827
1150.000000	99.186322
1149.000000	99.191268
1148.000000	99.196261
1147.000000	99.199270
1146.000000	99.200826
1145.000000	99.204118
1144.000000	99.210321
1143.000000	99.216357
1142.000000	99.218759
1141.000000	99.218495
1140.000000	99.220712
1139.000000	99.229969
1138.000000	99.245683
1137.000000	99.261600
1136.000000	99.270122
1135.000000	99.268459
1134.000000	99.260731
1133.000000	99.253477
1132.000000	99.249980
1131.000000	99.249667
1130.000000	99.250827
1129.000000	99.251787
1128.000000	99.251011
1127.000000	99.249118
1126.000000	99.249778
1125.000000	99.255246
1124.000000	99.261762
1123.000000	99.263184
1122.000000	99.259273
1121.000000	99.256346
1120.000000	99.258743
1119.000000	99.263462
1118.000000	99.264484
1117.000000	99.259092
1116.000000	99.248421
1115.000000	99.235242
1114.000000	99.223346
1113.000000	99.216379
1112.000000	99.214890
1111.000000	99.216169
1110.000000	99.218196
1109.000000	99.221567
1108.000000	99.226552
1107.000000	99.230871
1106.000000	99.232139
1105.000000	99.230186
1104.000000	99.225612
1103.000000	99.219139
1102.000000	99.213971
1101.000000	99.214996
1100.000000	99.223054
1099.000000	99.232261
1098.000000	99.236606
1097.000000	99.236355
1096.000000	99.234950
1095.000000	99.232346
1094.000000	99.225792
1093.000000	99.215940
1092.000000	99.207404
1091.000000	99.202783
1090.000000	99.199035
1089.000000	99.190952
1088.000000	99.176646
1087.000000	99.159216
1086.000000	99.143911
1085.000000	99.133491
1084.000000	99.125949
1083.000000	99.117584
1082.000000	99.108659
1081.000000	99.104229
1080.000000	99.108544
1079.000000	99.120141
1078.000000	99.133643
1077.000000	99.144468
1076.000000	99.150461
1075.000000	99.151797
1074.000000	99.151648
1073.000000	99.154717
1072.000000	99.162416
1071.000000	99.170823
1070.000000	99.175269
1069.000000	99.175303
1068.000000	99.172962
1067.000000	99.168588
1066.000000	99.161566
1065.000000	99.153305
1064.000000	99.145850
1063.000000	99.138729
1062.000000	99.130665
1061.000000	99.123881
1060.000000	99.123237
1059.000000	99.130661
1058.000000	99.142894
1057.000000	99.154945
1056.000000	99.163702
1055.000000	99.168272
1054.000000	99.169253
1053.000000	99.168250
1052.000000	99.166868
1051.000000	99.166098
1050.000000	99.167175
1049.000000	99.171275
1048.000000	99.176966
1047.000000	99.180050
1046.000000	99.178529
1045.000000	99.175965
1044.000000	99.177023
1043.000000	99.181049
1042.000000	99.182829
1041.000000	99.179372
1040.000000	99.173127
1039.000000	99.168338
1038.000000	99.166440
1037.000000	99.165036
1036.000000	99.159958
1035.000000	99.148705
1034.000000	99.133266
1033.000000	99.119079
1032.000000	99.110234
1031.000000	99.107029
1030.000000	99.109134
1029.000000	99.118288
1028.000000	99.134966
1027.000000	99.154547
1026.000000	99.170784
1025.000000	99.181928
1024.000000	99.190290
1023.000000	99.197323
1022.000000	99.203466
1021.000000	99.211358
1020.000000	99.223776
1019.000000	99.238022
1018.000000	99.247329
1017.000000	99.249291
1016.000000	99.248551
1015.000000	99.249852
1014.000000	99.252473
1013.000000	99.253690
1012.000000	99.254485
1011.000000	99.258904
1010.000000	99.269417
1009.000000	99.284417
1008.000000	99.299085
1007.000000	99.308387
1006.000000	99.311514
1005.000000	99.313932
1004.000000	99.322507
1003.000000	99.337248
1002.000000	99.350301
1001.000000	99.354301
1000.000000	99.349934
999.000000	99.344614
998.000000	99.345782
997.000000	99.356312
996.000000	99.373968
995.000000	99.393438
994.000000	99.410462
993.000000	99.425059
992.000000	99.438917
991.000000	99.449708
990.000000	99.451789
989.000000	99.444822
988.000000	99.438297
987.000000	99.443569
986.000000	99.462144
985.000000	99.484302
984.000000	99.498941
983.000000	99.502461
982.000000	99.498854
981.000000	99.494309
980.000000	99.492322
979.000000	99.492377
978.000000	99.491781
977.000000	99.488730
976.000000	99.483633
975.000000	99.478025
974.000000	99.473577
973.000000	99.472856
972.000000	99.479019
971.000000	99.492739
970.000000	99.510094
969.000000	99.525683
968.000000	99.537469
967.000000	99.546899
966.000000	99.555355
965.000000	99.563177
964.000000	99.571961
963.000000	99.583911
962.000000	99.597379
961.000000	99.606058
960.000000	99.606001
959.000000	99.601605
958.000000	99.601132
957.000000	99.606928
956.000000	99.613577
955.000000	99.616273
954.000000	99.616943
953.000000	99.620580
952.000000	99.628866
951.000000	99.640109
950.000000	99.652625
949.000000	99.664463
948.000000	99.671692
947.000000	99.671662
946.000000	99.668107
945.000000	99.668611
944.000000	99.675943
943.000000	99.684778
942.000000	99.688321
941.000000	99.685598
940.000000	99.680588
939.000000	99.676797
938.000000	99.674562
937.000000	99.672254
936.000000	99.668725
935.000000	99.665460
934.000000	99.666527
933.000000	99.674577
932.000000	99.686604
931.000000	99.696393
930.000000	99.701788
929.000000	99.706541
928.000000	99.713793
927.000000	99.721189
926.000000	99.725196
925.000000	99.727117
924.000000	99.731387
923.000000	99.739294
922.000000	99.747601
921.000000	99.752800
920.000000	99.754164
919.000000	99.753446
918.000000	99.753456
917.000000	99.755983
916.000000	99.759639
915.000000	99.761176
914.000000	99.760426
913.000000	99.761774
912.000000	99.768458
911.000000	99.778075
910.000000	99.786539
909.000000	99.793943
908.000000	99.802345
907.000000	99.809855
906.000000	99.812254
905.000000	99.810273
904.000000	99.810605
903.000000	99.818556
902.000000	99.832954
901.000000	99.848528
900.000000	99.860046
899.000000	99.864165
898.000000	99.861393
897.000000	99.857569
896.000000	99.860207
895.000000	99.871457
894.000000	99.886226
893.000000	99.898070
892.000000	99.904818
891.000000	99.908332
890.000000	99.910526
889.000000	99.909158
888.000000	99.895673
887.000000	99.857991
886.000000	99.789966
885.000000	99.698187
884.000000	99.595267
883.000000	99.485914
882.000000	99.362019
881.000000	99.212935
880.000000	99.036760
879.000000	98.839146
878.000000	98.624912
877.000000	98.394943
876.000000	98.152429
875.000000	97.911286
874.000000	97.702148
873.000000	97.570570
872.000000	97.563712
871.000000	97.702224
870.000000	97.957571
869.000000	98.262731
868.000000	98.550118
867.000000	98.784415
866.000000	98.965153
865.000000	99.106273
864.000000	99.217409
863.000000	99.301802
862.000000	99.363630
861.000000	99.410562
860.000000	99.448382
859.000000	99.477580
858.000000	99.498750
857.000000	99.517715
856.000000	99.541561
855.000000	99.571031
854.000000	99.600540
853.000000	99.624840
852.000000	99.641562
851.000000	99.648514
850.000000	99.644850
849.000000	99.636442
848.000000	99.634571
847.000000	99.645635
846.000000	99.665202
845.000000	99.684894
844.000000	99.702014
843.000000	99.719821
842.000000	99.741413
841.000000	99.766541
840.000000	99.792065
839.000000	99.812631
838.000000	99.823319
837.000000	99.824770
836.000000	99.823599
835.000000	99.824947
834.000000	99.826922
833.000000	99.825672
832.000000	99.823495
831.000000	99.826805
830.000000	99.836470
829.000000	99.844991
828.000000	99.845207
827.000000	99.838960
826.000000	99.835248
825.000000	99.840965
824.000000	99.854176
823.000000	99.866219
822.000000	99.870773
821.000000	99.870888
820.000000	99.875359
819.000000	99.887247
818.000000	99.898518
817.000000	99.898612
816.000000	99.886508
815.000000	99.871696
814.000000	99.864458
813.000000	99.867772
812.000000	99.877456
811.000000	99.886067
810.000000	99.887093
809.000000	99.879837
808.000000	99.871416
807.000000	99.870738
806.000000	99.878677
805.000000	99.886298
804.000000	99.884215
803.000000	99.872106
802.000000	99.858066
801.000000	99.850630
800.000000	99.852525
799.000000	99.860307
798.000000	99.868291
797.000000	99.873454
796.000000	99.877066
795.000000	99.880979
794.000000	99.883420
793.000000	99.880933
792.000000	99.874290
791.000000	99.869445
790.000000	99.871147
789.000000	99.877826
788.000000	99.884261
787.000000	99.887243
786.000000	99.887002
785.000000	99.885000
784.000000	99.882504
783.000000	99.880523
782.000000	99.879120
781.000000	99.876822
780.000000	99.872226
779.000000	99.866423
778.000000	99.863286
777.000000	99.866852
776.000000	99.877647
775.000000	99.890631
774.000000	99.897487
773.000000	99.893378
772.000000	99.882157
771.000000	99.872632
770.000000	99.868588
769.000000	99.865093
768.000000	99.856785
767.000000	99.846969
766.000000	99.843935
765.000000	99.848953
764.000000	99.853254
763.000000	99.849164
762.000000	99.840376
761.000000	99.837254
760.000000	99.843709
759.000000	99.853037
758.000000	99.856849
757.000000	99.854275
756.000000	99.850760
755.000000	99.851152
754.000000	99.857095
753.000000	99.868839
752.000000	99.884455
751.000000	99.896747
750.000000	99.895767
749.000000	99.878886
748.000000	99.857540
747.000000	99.849981
746.000000	99.865094
745.000000	99.892945
744.000000	99.912332
743.000000	99.909027
742.000000	99.887602
741.000000	99.865429
740.000000	99.855001
739.000000	99.853445
738.000000	99.850221
737.000000	99.841851
736.000000	99.834608
735.000000	99.833488
734.000000	99.835180
733.000000	99.834779
732.000000	99.833680
731.000000	99.835992
730.000000	99.840649
729.000000	99.843196
728.000000	99.843173
727.000000	99.843169
726.000000	99.841401
725.000000	99.832694
724.000000	99.818999
723.000000	99.811905
722.000000	99.819951
721.000000	99.836160
720.000000	99.842041
719.000000	99.822583
718.000000	99.772931
717.000000	99.691523
716.000000	99.574824
715.000000	99.425933
714.000000	99.269232
713.000000	99.150646
712.000000	99.113112
711.000000	99.163571
710.000000	99.264812
709.000000	99.364050
708.000000	99.431057
707.000000	99.470072
706.000000	99.499770
705.000000	99.529870
704.000000	99.556973
703.000000	99.574211
702.000000	99.579863
701.000000	99.579920
700.000000	99.584989
699.000000	99.601255
698.000000	99.622246
697.000000	99.633195
696.000000	99.626311
695.000000	99.608365
694.000000	99.592195
693.000000	99.585889
692.000000	99.591756
691.000000	99.608758
690.000000	99.630260
689.000000	99.643719
688.000000	99.640120
687.000000	99.623635
686.000000	99.607416
685.000000	99.602279
684.000000	99.612000
683.000000	99.633597
682.000000	99.656229
681.000000	99.664061
680.000000	99.648664
679.000000	99.618912
678.000000	99.592810
677.000000	99.580205
676.000000	99.577798
675.000000	99.576589
674.000000	99.572091
673.000000	99.567812
672.000000	99.571575
671.000000	99.589680
670.000000	99.623750
669.000000	99.661633
668.000000	99.666287
667.000000	99.628250
666.000000	99.587144
665.000000	99.558635
664.000000	99.538605
663.000000	99.527891
662.000000	99.529511
661.000000	99.537361
660.000000	99.539366
659.000000	99.532200
658.000000	99.525974
657.000000	99.531742
656.000000	99.550138
655.000000	99.573411
654.000000	99.596373
653.000000	99.619754
652.000000	99.641528
651.000000	99.651185
650.000000	99.638405
649.000000	99.607047
648.000000	99.574714
647.000000	99.557251
646.000000	99.554944
645.000000	99.555118
644.000000	99.547178
643.000000	99.531790
642.000000	99.516992
641.000000	99.509320
640.000000	99.510082
639.000000	99.516484
638.000000	99.523350
637.000000	99.526447
636.000000	99.527258
635.000000	99.532689
634.000000	99.546592
633.000000	99.563478
632.000000	99.573617
631.000000	99.572321
630.000000	99.562072
629.000000	99.548417
628.000000	99.538213
627.000000	99.539717
626.000000	99.556960
625.000000	99.581225
624.000000	99.594335
623.000000	99.585083
622.000000	99.560787
621.000000	99.539898
620.000000	99.533396
619.000000	99.535702
618.000000	99.533638
617.000000	99.523538
616.000000	99.517435
615.000000	99.528461
614.000000	99.552767
613.000000	99.572602
612.000000	99.577561
611.000000	99.576062
610.000000	99.580730
609.000000	99.588038
608.000000	99.582462
607.000000	99.560175
606.000000	99.537886
605.000000	99.533005
604.000000	99.543524
603.000000	99.553902
602.000000	99.554923
601.000000	99.549680
600.000000	99.542641
599.000000	99.532509
598.000000	99.517362
597.000000	99.500851
596.000000	99.489025
595.000000	99.483349
594.000000	99.479495
593.000000	99.473553
592.000000	99.469447
591.000000	99.477080
590.000000	99.500593
589.000000	99.531029
588.000000	99.553238
587.000000	99.558253
586.000000	99.549411
585.000000	99.538875
584.000000	99.538846
583.000000	99.554518
582.000000	99.579743
581.000000	99.598226
580.000000	99.594506
579.000000	99.567753
578.000000	99.531781
577.000000	99.501525
576.000000	99.484634
575.000000	99.484430
574.000000	99.503662
573.000000	99.540270
572.000000	99.582629
571.000000	99.613662
570.000000	99.621814
569.000000	99.607659
568.000000	99.580005
567.000000	99.549313
566.000000	99.523280
565.000000	99.503111
564.000000	99.484366
563.000000	99.465203
562.000000	99.452541
561.000000	99.454845
560.000000	99.468699
559.000000	99.480612
558.000000	99.485697
557.000000	99.496155
556.000000	99.523631
555.000000	99.558816
554.000000	99.580730
553.000000	99.585571
552.000000	99.591854
551.000000	99.613267
550.000000	99.637315
549.000000	99.640043
548.000000	99.615540
547.000000	99.580676
546.000000	99.555649
545.000000	99.546178
544.000000	99.543456
543.000000	99.535271
542.000000	99.517039
541.000000	99.497338
540.000000	99.490493
539.000000	99.499798
538.000000	99.511711
537.000000	99.512497
536.000000	99.505887
535.000000	99.504148
534.000000	99.507239
533.000000	99.504213
532.000000	99.491071
531.000000	99.473430
530.000000	99.453672
529.000000	99.433012
528.000000	99.427774
527.000000	99.464906
526.000000	99.544785
525.000000	99.622448
524.000000	99.654548
523.000000	99.645681
522.000000	99.629747
521.000000	99.627321
520.000000	99.633967
519.000000	99.639136
518.000000	99.640816
517.000000	99.640318
516.000000	99.634122
515.000000	99.616875
514.000000	99.586944
513.000000	99.548850
512.000000	99.515331
511.000000	99.502266
510.000000	99.513670
509.000000	99.536963
508.000000	99.559297
507.000000	99.583128
506.000000	99.616105
505.000000	99.652031
504.000000	99.675507
503.000000	99.680764
502.000000	99.678069
501.000000	99.680546
500.000000	99.691512
499.000000	99.706624
498.000000	99.715918
497.000000	99.704711
496.000000	99.667018
495.000000	99.621534
494.000000	99.600496
493.000000	99.614633
492.000000	99.637814
491.000000	99.637946
490.000000	99.614736
489.000000	99.593769
488.000000	99.589613
487.000000	99.591985
486.000000	99.585907
485.000000	99.575247
484.000000	99.582407
483.000000	99.624390
482.000000	99.692729
481.000000	99.760937
480.000000	99.807633
479.000000	99.827824
478.000000	99.826308
477.000000	99.807424
476.000000	99.772763
475.000000	99.721758
474.000000	99.648165
473.000000	99.546597
472.000000	99.436405
471.000000	99.365042
470.000000	99.365992
469.000000	99.433349
468.000000	99.540663
467.000000	99.658484
466.000000	99.758522
465.000000	99.817928
464.000000	99.824278
463.000000	99.789044
462.000000	99.749453
461.000000	99.733867
460.000000	99.735140
459.000000	99.732079
458.000000	99.728770
457.000000	99.757487
456.000000	99.826586
455.000000	99.905164
454.000000	99.946513
453.000000	99.960718
452.000000	99.934472
451.000000	99.886578
450.000000	99.844763
