PE IR       SUBTECH     SPECTRUM    ASCII       PEDS        4.00        
   -1
AG1-F002_1.ASC
23/09/08
11:32:25.00
23/09/08
11:39:14.00
uco
Sample 002 By uco Date Friday, September 08 2023
450.000000
#HDR
-1
-1
#GR
cm-1
%T
1.0
0.0
4000.000000
-1.000000
3551
8
99.770416
93.287910
#DATA
4000.000000	99.669581
3999.000000	99.672155
3998.000000	99.673282
3997.000000	99.672147
3996.000000	99.669328
3995.000000	99.676957
3994.000000	99.675595
3993.000000	99.674213
3992.000000	99.671724
3991.000000	99.667324
3990.000000	99.661683
3989.000000	99.656708
3988.000000	99.654294
3987.000000	99.655235
3986.000000	99.658949
3985.000000	99.663936
3984.000000	99.668472
3983.000000	99.671243
3982.000000	99.671617
3981.000000	99.669557
3980.000000	99.665426
3979.000000	99.659991
3978.000000	99.654623
3977.000000	99.651141
3976.000000	99.650861
3975.000000	99.653394
3974.000000	99.656501
3973.000000	99.657577
3972.000000	99.655511
3971.000000	99.651238
3970.000000	99.646654
3969.000000	99.643268
3968.000000	99.641694
3967.000000	99.641705
3966.000000	99.642546
3965.000000	99.643440
3964.000000	99.644242
3963.000000	99.645463
3962.000000	99.647407
3961.000000	99.649495
3960.000000	99.650609
3959.000000	99.650251
3958.000000	99.649151
3957.000000	99.648665
3956.000000	99.649859
3955.000000	99.652844
3954.000000	99.656742
3953.000000	99.660274
3952.000000	99.662616
3951.000000	99.663899
3950.000000	99.664644
3949.000000	99.664873
3948.000000	99.663956
3947.000000	99.661417
3946.000000	99.657938
3945.000000	99.655172
3944.000000	99.654605
3943.000000	99.656482
3942.000000	99.659358
3941.000000	99.661367
3940.000000	99.661607
3939.000000	99.660084
3938.000000	99.656982
3937.000000	99.652271
3936.000000	99.646436
3935.000000	99.641185
3934.000000	99.639196
3933.000000	99.642721
3932.000000	99.650880
3931.000000	99.658765
3930.000000	99.660555
3929.000000	99.654556
3928.000000	99.644835
3927.000000	99.637389
3926.000000	99.635294
3925.000000	99.637089
3924.000000	99.639401
3923.000000	99.640401
3922.000000	99.640267
3921.000000	99.639512
3920.000000	99.638480
3919.000000	99.637569
3918.000000	99.637131
3917.000000	99.637232
3916.000000	99.638109
3915.000000	99.640634
3914.000000	99.645305
3913.000000	99.651239
3912.000000	99.656424
3911.000000	99.659067
3910.000000	99.658434
3909.000000	99.654716
3908.000000	99.648818
3907.000000	99.641453
3906.000000	99.632275
3905.000000	99.620209
3904.000000	99.606300
3903.000000	99.595902
3902.000000	99.595016
3901.000000	99.604232
3900.000000	99.618750
3899.000000	99.632776
3898.000000	99.643389
3897.000000	99.650549
3896.000000	99.654448
3895.000000	99.654738
3894.000000	99.651329
3893.000000	99.644669
3892.000000	99.635682
3891.000000	99.625960
3890.000000	99.617682
3889.000000	99.612649
3888.000000	99.611727
3887.000000	99.614774
3886.000000	99.619976
3885.000000	99.624573
3884.000000	99.628027
3883.000000	99.631939
3882.000000	99.637111
3881.000000	99.642141
3880.000000	99.645017
3879.000000	99.645666
3878.000000	99.645573
3877.000000	99.645238
3876.000000	99.644381
3875.000000	99.642869
3874.000000	99.640906
3873.000000	99.639585
3872.000000	99.640120
3871.000000	99.641843
3870.000000	99.641463
3869.000000	99.636852
3868.000000	99.630494
3867.000000	99.625956
3866.000000	99.624131
3865.000000	99.623964
3864.000000	99.624647
3863.000000	99.626198
3862.000000	99.628056
3861.000000	99.628785
3860.000000	99.628003
3859.000000	99.625823
3858.000000	99.621987
3857.000000	99.616222
3856.000000	99.610700
3855.000000	99.610957
3854.000000	99.619140
3853.000000	99.631330
3852.000000	99.644393
3851.000000	99.656300
3850.000000	99.663302
3849.000000	99.663462
3848.000000	99.658463
3847.000000	99.652648
3846.000000	99.649390
3845.000000	99.648523
3844.000000	99.646929
3843.000000	99.641897
3842.000000	99.633362
3841.000000	99.623263
3840.000000	99.613779
3839.000000	99.606871
3838.000000	99.604724
3837.000000	99.608377
3836.000000	99.616508
3835.000000	99.626251
3834.000000	99.634596
3833.000000	99.639732
3832.000000	99.642046
3831.000000	99.643285
3830.000000	99.644785
3829.000000	99.646162
3828.000000	99.645900
3827.000000	99.642225
3826.000000	99.634313
3825.000000	99.623879
3824.000000	99.615305
3823.000000	99.613909
3822.000000	99.620300
3821.000000	99.627168
3820.000000	99.628487
3819.000000	99.627268
3818.000000	99.628951
3817.000000	99.634520
3816.000000	99.641183
3815.000000	99.646194
3814.000000	99.649967
3813.000000	99.653435
3812.000000	99.655542
3811.000000	99.654934
3810.000000	99.651391
3809.000000	99.645801
3808.000000	99.638957
3807.000000	99.631435
3806.000000	99.624689
3805.000000	99.620863
3804.000000	99.620808
3803.000000	99.623553
3802.000000	99.625884
3801.000000	99.625404
3800.000000	99.624724
3799.000000	99.628342
3798.000000	99.635870
3797.000000	99.643143
3796.000000	99.647174
3795.000000	99.649061
3794.000000	99.651127
3793.000000	99.653108
3792.000000	99.653015
3791.000000	99.650421
3790.000000	99.647244
3789.000000	99.646214
3788.000000	99.649290
3787.000000	99.656220
3786.000000	99.664137
3785.000000	99.669612
3784.000000	99.672117
3783.000000	99.674175
3782.000000	99.677495
3781.000000	99.679947
3780.000000	99.677639
3779.000000	99.670117
3778.000000	99.662090
3777.000000	99.658474
3776.000000	99.659820
3775.000000	99.662777
3774.000000	99.662903
3773.000000	99.657980
3772.000000	99.649978
3771.000000	99.643787
3770.000000	99.642943
3769.000000	99.646010
3768.000000	99.649134
3767.000000	99.650094
3766.000000	99.649268
3765.000000	99.648528
3764.000000	99.649657
3763.000000	99.652979
3762.000000	99.656796
3761.000000	99.658215
3760.000000	99.655653
3759.000000	99.650751
3758.000000	99.646775
3757.000000	99.645382
3756.000000	99.646416
3755.000000	99.648659
3754.000000	99.648703
3753.000000	99.641423
3752.000000	99.625325
3751.000000	99.608149
3750.000000	99.599967
3749.000000	99.600153
3748.000000	99.602383
3747.000000	99.604872
3746.000000	99.609551
3745.000000	99.615480
3744.000000	99.618520
3743.000000	99.620346
3742.000000	99.625478
3741.000000	99.632628
3740.000000	99.638869
3739.000000	99.643602
3738.000000	99.647966
3737.000000	99.651976
3736.000000	99.654915
3735.000000	99.657604
3734.000000	99.659763
3733.000000	99.659425
3732.000000	99.657069
3731.000000	99.655720
3730.000000	99.656731
3729.000000	99.658149
3728.000000	99.657921
3727.000000	99.656395
3726.000000	99.655571
3725.000000	99.656675
3724.000000	99.659288
3723.000000	99.662265
3722.000000	99.663781
3721.000000	99.662545
3720.000000	99.659342
3719.000000	99.656611
3718.000000	99.655920
3717.000000	99.656767
3716.000000	99.658234
3715.000000	99.660450
3714.000000	99.663439
3713.000000	99.665806
3712.000000	99.666157
3711.000000	99.666184
3710.000000	99.668676
3709.000000	99.672294
3708.000000	99.674027
3707.000000	99.672764
3706.000000	99.669269
3705.000000	99.665627
3704.000000	99.664535
3703.000000	99.667272
3702.000000	99.671730
3701.000000	99.673843
3700.000000	99.672692
3699.000000	99.671106
3698.000000	99.671232
3697.000000	99.672441
3696.000000	99.673051
3695.000000	99.672545
3694.000000	99.671103
3693.000000	99.668949
3692.000000	99.666843
3691.000000	99.666449
3690.000000	99.667927
3689.000000	99.668553
3688.000000	99.666635
3687.000000	99.664630
3686.000000	99.665030
3685.000000	99.666639
3684.000000	99.666797
3683.000000	99.664902
3682.000000	99.662846
3681.000000	99.661941
3680.000000	99.661042
3679.000000	99.658379
3678.000000	99.654043
3677.000000	99.650361
3676.000000	99.649102
3675.000000	99.649366
3674.000000	99.649137
3673.000000	99.648959
3672.000000	99.650592
3671.000000	99.656098
3670.000000	99.664106
3669.000000	99.668646
3668.000000	99.666903
3667.000000	99.662099
3666.000000	99.657531
3665.000000	99.654636
3664.000000	99.653921
3663.000000	99.655294
3662.000000	99.657542
3661.000000	99.659015
3660.000000	99.659492
3659.000000	99.659805
3658.000000	99.659046
3657.000000	99.653869
3656.000000	99.643060
3655.000000	99.631179
3654.000000	99.623044
3653.000000	99.619069
3652.000000	99.617595
3651.000000	99.617068
3650.000000	99.616214
3649.000000	99.616594
3648.000000	99.621594
3647.000000	99.630741
3646.000000	99.640040
3645.000000	99.645617
3644.000000	99.645583
3643.000000	99.640670
3642.000000	99.633942
3641.000000	99.629404
3640.000000	99.630289
3639.000000	99.636853
3638.000000	99.644795
3637.000000	99.648172
3636.000000	99.644546
3635.000000	99.636303
3634.000000	99.626789
3633.000000	99.616892
3632.000000	99.606381
3631.000000	99.596776
3630.000000	99.589856
3629.000000	99.584635
3628.000000	99.580688
3627.000000	99.580615
3626.000000	99.584817
3625.000000	99.589244
3624.000000	99.590319
3623.000000	99.587436
3622.000000	99.582020
3621.000000	99.575804
3620.000000	99.570371
3619.000000	99.566781
3618.000000	99.564803
3617.000000	99.563245
3616.000000	99.561892
3615.000000	99.561632
3614.000000	99.561765
3613.000000	99.558946
3612.000000	99.550563
3611.000000	99.538016
3610.000000	99.524454
3609.000000	99.512663
3608.000000	99.506022
3607.000000	99.507810
3606.000000	99.517468
3605.000000	99.529838
3604.000000	99.539815
3603.000000	99.545644
3602.000000	99.548555
3601.000000	99.550396
3600.000000	99.552202
3599.000000	99.554297
3598.000000	99.556203
3597.000000	99.556311
3596.000000	99.552400
3595.000000	99.543622
3594.000000	99.531199
3593.000000	99.517979
3592.000000	99.506713
3591.000000	99.499378
3590.000000	99.497244
3589.000000	99.500890
3588.000000	99.508957
3587.000000	99.517368
3586.000000	99.520680
3585.000000	99.516993
3584.000000	99.509564
3583.000000	99.503011
3582.000000	99.499528
3581.000000	99.498390
3580.000000	99.497900
3579.000000	99.497532
3578.000000	99.497477
3577.000000	99.497674
3576.000000	99.497648
3575.000000	99.496538
3574.000000	99.493057
3573.000000	99.486701
3572.000000	99.479400
3571.000000	99.474149
3570.000000	99.471682
3569.000000	99.469211
3568.000000	99.464044
3567.000000	99.458465
3566.000000	99.456877
3565.000000	99.458699
3564.000000	99.460641
3563.000000	99.460840
3562.000000	99.458681
3561.000000	99.454366
3560.000000	99.449596
3559.000000	99.446186
3558.000000	99.443420
3557.000000	99.438515
3556.000000	99.430921
3555.000000	99.424190
3554.000000	99.422404
3553.000000	99.425142
3552.000000	99.427715
3551.000000	99.426074
3550.000000	99.420063
3549.000000	99.412271
3548.000000	99.405521
3547.000000	99.401018
3546.000000	99.397609
3545.000000	99.393479
3544.000000	99.389072
3543.000000	99.386735
3542.000000	99.387140
3541.000000	99.388250
3540.000000	99.388148
3539.000000	99.386821
3538.000000	99.384916
3537.000000	99.382506
3536.000000	99.380118
3535.000000	99.378920
3534.000000	99.378436
3533.000000	99.376293
3532.000000	99.371366
3531.000000	99.365541
3530.000000	99.360811
3529.000000	99.355961
3528.000000	99.348294
3527.000000	99.337896
3526.000000	99.327928
3525.000000	99.321460
3524.000000	99.319700
3523.000000	99.322070
3522.000000	99.326476
3521.000000	99.330168
3520.000000	99.331257
3519.000000	99.329147
3518.000000	99.323942
3517.000000	99.316936
3516.000000	99.311258
3515.000000	99.309961
3514.000000	99.312309
3513.000000	99.313977
3512.000000	99.311920
3511.000000	99.307636
3510.000000	99.304565
3509.000000	99.303801
3508.000000	99.304067
3507.000000	99.304246
3506.000000	99.303641
3505.000000	99.300700
3504.000000	99.294031
3503.000000	99.284624
3502.000000	99.275485
3501.000000	99.269294
3500.000000	99.267167
3499.000000	99.268426
3498.000000	99.270365
3497.000000	99.269811
3496.000000	99.266317
3495.000000	99.262853
3494.000000	99.262327
3493.000000	99.264599
3492.000000	99.267828
3491.000000	99.270871
3490.000000	99.272984
3489.000000	99.272580
3488.000000	99.268082
3487.000000	99.259627
3486.000000	99.248850
3485.000000	99.237373
3484.000000	99.226451
3483.000000	99.217714
3482.000000	99.213277
3481.000000	99.214823
3480.000000	99.222256
3479.000000	99.232601
3478.000000	99.240930
3477.000000	99.243743
3476.000000	99.241558
3475.000000	99.237104
3474.000000	99.231165
3473.000000	99.222347
3472.000000	99.210909
3471.000000	99.199934
3470.000000	99.191579
3469.000000	99.184726
3468.000000	99.177813
3467.000000	99.172173
3466.000000	99.170885
3465.000000	99.175236
3464.000000	99.183396
3463.000000	99.191579
3462.000000	99.195852
3461.000000	99.194352
3460.000000	99.188811
3459.000000	99.182911
3458.000000	99.178601
3457.000000	99.174980
3456.000000	99.170764
3455.000000	99.166258
3454.000000	99.162223
3453.000000	99.158668
3452.000000	99.155360
3451.000000	99.152327
3450.000000	99.149100
3449.000000	99.145029
3448.000000	99.141036
3447.000000	99.139370
3446.000000	99.140406
3445.000000	99.141699
3444.000000	99.141300
3443.000000	99.140172
3442.000000	99.140506
3441.000000	99.143021
3440.000000	99.146660
3439.000000	99.149368
3438.000000	99.148631
3437.000000	99.143225
3436.000000	99.135505
3435.000000	99.130144
3434.000000	99.129323
3433.000000	99.130648
3432.000000	99.130614
3431.000000	99.128579
3430.000000	99.126068
3429.000000	99.123919
3428.000000	99.121645
3427.000000	99.118355
3426.000000	99.113289
3425.000000	99.106694
3424.000000	99.100965
3423.000000	99.099182
3422.000000	99.101333
3421.000000	99.103700
3420.000000	99.103154
3419.000000	99.100260
3418.000000	99.096822
3417.000000	99.092871
3416.000000	99.087910
3415.000000	99.083077
3414.000000	99.079916
3413.000000	99.078254
3412.000000	99.077164
3411.000000	99.076766
3410.000000	99.077367
3409.000000	99.077969
3408.000000	99.077587
3407.000000	99.077240
3406.000000	99.079010
3405.000000	99.083458
3404.000000	99.088869
3403.000000	99.092370
3402.000000	99.091238
3401.000000	99.084553
3400.000000	99.074281
3399.000000	99.063663
3398.000000	99.054051
3397.000000	99.044820
3396.000000	99.036656
3395.000000	99.032418
3394.000000	99.033339
3393.000000	99.036516
3392.000000	99.038105
3391.000000	99.037591
3390.000000	99.037224
3389.000000	99.038609
3388.000000	99.041501
3387.000000	99.044654
3386.000000	99.046164
3385.000000	99.043954
3384.000000	99.037575
3383.000000	99.029068
3382.000000	99.021089
3381.000000	99.015066
3380.000000	99.011501
3379.000000	99.010440
3378.000000	99.010727
3377.000000	99.010469
3376.000000	99.009416
3375.000000	99.009555
3374.000000	99.012224
3373.000000	99.015829
3372.000000	99.017528
3371.000000	99.016181
3370.000000	99.012850
3369.000000	99.009558
3368.000000	99.008155
3367.000000	99.008801
3366.000000	99.008786
3365.000000	99.004504
3364.000000	98.995557
3363.000000	98.985467
3362.000000	98.977703
3361.000000	98.972775
3360.000000	98.969876
3359.000000	98.969100
3358.000000	98.970609
3357.000000	98.973178
3356.000000	98.975024
3355.000000	98.974947
3354.000000	98.971924
3353.000000	98.965480
3352.000000	98.957557
3351.000000	98.951870
3350.000000	98.949799
3349.000000	98.948773
3348.000000	98.946178
3347.000000	98.943009
3346.000000	98.941808
3345.000000	98.942648
3344.000000	98.943408
3343.000000	98.943118
3342.000000	98.942903
3341.000000	98.944151
3340.000000	98.947235
3339.000000	98.951371
3338.000000	98.954479
3337.000000	98.953983
3336.000000	98.948965
3335.000000	98.941009
3334.000000	98.932222
3333.000000	98.923311
3332.000000	98.914346
3331.000000	98.905878
3330.000000	98.898389
3329.000000	98.892060
3328.000000	98.887973
3327.000000	98.887872
3326.000000	98.891376
3325.000000	98.894809
3324.000000	98.894325
3323.000000	98.889449
3322.000000	98.882573
3321.000000	98.876491
3320.000000	98.873345
3319.000000	98.874049
3318.000000	98.876953
3317.000000	98.878150
3316.000000	98.874709
3315.000000	98.867091
3314.000000	98.857692
3313.000000	98.848426
3312.000000	98.840732
3311.000000	98.836185
3310.000000	98.835411
3309.000000	98.837274
3308.000000	98.840320
3307.000000	98.843836
3306.000000	98.846711
3305.000000	98.847159
3304.000000	98.845114
3303.000000	98.843280
3302.000000	98.843952
3301.000000	98.845923
3300.000000	98.846334
3299.000000	98.844508
3298.000000	98.842028
3297.000000	98.840244
3296.000000	98.839339
3295.000000	98.839037
3294.000000	98.838466
3293.000000	98.836005
3292.000000	98.831088
3291.000000	98.825600
3290.000000	98.821944
3289.000000	98.820236
3288.000000	98.818685
3287.000000	98.816055
3286.000000	98.812262
3285.000000	98.807361
3284.000000	98.801751
3283.000000	98.797117
3282.000000	98.795649
3281.000000	98.797888
3280.000000	98.802227
3279.000000	98.806500
3278.000000	98.809819
3277.000000	98.813329
3276.000000	98.819317
3275.000000	98.828710
3274.000000	98.839085
3273.000000	98.846242
3272.000000	98.848072
3271.000000	98.845809
3270.000000	98.841330
3269.000000	98.835481
3268.000000	98.829913
3267.000000	98.828118
3266.000000	98.832379
3265.000000	98.840482
3264.000000	98.847446
3263.000000	98.850192
3262.000000	98.849592
3261.000000	98.848818
3260.000000	98.850900
3259.000000	98.856960
3258.000000	98.865306
3257.000000	98.872409
3256.000000	98.875845
3255.000000	98.876331
3254.000000	98.876604
3253.000000	98.878844
3252.000000	98.883354
3251.000000	98.888669
3250.000000	98.892210
3249.000000	98.891966
3248.000000	98.888414
3247.000000	98.884195
3246.000000	98.881693
3245.000000	98.881733
3244.000000	98.884478
3243.000000	98.889721
3242.000000	98.895714
3241.000000	98.899568
3240.000000	98.900102
3239.000000	98.898976
3238.000000	98.898245
3237.000000	98.898316
3236.000000	98.899203
3235.000000	98.902072
3234.000000	98.907852
3233.000000	98.915499
3232.000000	98.922956
3231.000000	98.929053
3230.000000	98.933360
3229.000000	98.935319
3228.000000	98.934858
3227.000000	98.933067
3226.000000	98.931207
3225.000000	98.929819
3224.000000	98.929334
3223.000000	98.930245
3222.000000	98.931701
3221.000000	98.931500
3220.000000	98.928998
3219.000000	98.926982
3218.000000	98.928929
3217.000000	98.935080
3216.000000	98.942417
3215.000000	98.947888
3214.000000	98.950741
3213.000000	98.952167
3212.000000	98.953734
3211.000000	98.955843
3210.000000	98.957318
3209.000000	98.957026
3208.000000	98.955972
3207.000000	98.956586
3206.000000	98.959626
3205.000000	98.963360
3204.000000	98.966352
3203.000000	98.969290
3202.000000	98.972892
3201.000000	98.975774
3200.000000	98.976182
3199.000000	98.974795
3198.000000	98.973986
3197.000000	98.974906
3196.000000	98.976731
3195.000000	98.978327
3194.000000	98.979239
3193.000000	98.979408
3192.000000	98.979270
3191.000000	98.979961
3190.000000	98.982345
3189.000000	98.985843
3188.000000	98.988827
3187.000000	98.990030
3186.000000	98.989279
3185.000000	98.987398
3184.000000	98.985954
3183.000000	98.986513
3182.000000	98.989602
3181.000000	98.994612
3180.000000	99.000668
3179.000000	99.006830
3178.000000	99.011594
3177.000000	99.013634
3176.000000	99.013509
3175.000000	99.013212
3174.000000	99.013449
3173.000000	99.012954
3172.000000	99.011465
3171.000000	99.011865
3170.000000	99.017498
3169.000000	99.027968
3168.000000	99.038811
3167.000000	99.045256
3166.000000	99.045544
3165.000000	99.041550
3164.000000	99.037408
3163.000000	99.037098
3162.000000	99.041732
3161.000000	99.048641
3160.000000	99.053685
3159.000000	99.054728
3158.000000	99.053058
3157.000000	99.051757
3156.000000	99.053126
3155.000000	99.057188
3154.000000	99.062209
3153.000000	99.066430
3152.000000	99.069151
3151.000000	99.070043
3150.000000	99.068592
3149.000000	99.065473
3148.000000	99.063750
3147.000000	99.066615
3146.000000	99.073490
3145.000000	99.080175
3144.000000	99.083384
3143.000000	99.083775
3142.000000	99.083923
3141.000000	99.085266
3140.000000	99.088040
3139.000000	99.092433
3138.000000	99.097845
3137.000000	99.102033
3136.000000	99.102649
3135.000000	99.099777
3134.000000	99.096197
3133.000000	99.095508
3132.000000	99.099998
3131.000000	99.109180
3130.000000	99.119447
3129.000000	99.126167
3128.000000	99.127298
3127.000000	99.124972
3126.000000	99.123007
3125.000000	99.123391
3124.000000	99.125622
3123.000000	99.128312
3122.000000	99.130388
3121.000000	99.131487
3120.000000	99.132362
3119.000000	99.134521
3118.000000	99.138483
3117.000000	99.142603
3116.000000	99.144273
3115.000000	99.142130
3114.000000	99.136763
3113.000000	99.129945
3112.000000	99.123768
3111.000000	99.120096
3110.000000	99.119795
3109.000000	99.122227
3108.000000	99.125459
3107.000000	99.127211
3106.000000	99.126315
3105.000000	99.124122
3104.000000	99.123972
3103.000000	99.127824
3102.000000	99.133271
3101.000000	99.135354
3100.000000	99.131937
3099.000000	99.125917
3098.000000	99.121827
3097.000000	99.121867
3096.000000	99.125741
3095.000000	99.131967
3094.000000	99.137845
3093.000000	99.139742
3092.000000	99.135791
3091.000000	99.128087
3090.000000	99.121049
3089.000000	99.117858
3088.000000	99.119098
3087.000000	99.123813
3086.000000	99.130317
3085.000000	99.136345
3084.000000	99.139905
3083.000000	99.140290
3082.000000	99.138009
3081.000000	99.134316
3080.000000	99.131387
3079.000000	99.131798
3078.000000	99.136315
3077.000000	99.142459
3076.000000	99.146389
3075.000000	99.146181
3074.000000	99.142814
3073.000000	99.138512
3072.000000	99.135116
3071.000000	99.133676
3070.000000	99.134238
3069.000000	99.135493
3068.000000	99.135332
3067.000000	99.132458
3066.000000	99.127711
3065.000000	99.123805
3064.000000	99.123334
3063.000000	99.126533
3062.000000	99.130972
3061.000000	99.133879
3060.000000	99.134728
3059.000000	99.135057
3058.000000	99.136254
3057.000000	99.138580
3056.000000	99.142073
3055.000000	99.146775
3054.000000	99.151540
3053.000000	99.154289
3052.000000	99.154379
3051.000000	99.153526
3050.000000	99.153367
3049.000000	99.153225
3048.000000	99.151645
3047.000000	99.149272
3046.000000	99.148537
3045.000000	99.150596
3044.000000	99.153967
3043.000000	99.156423
3042.000000	99.157451
3041.000000	99.158456
3040.000000	99.160963
3039.000000	99.164832
3038.000000	99.168211
3037.000000	99.169189
3036.000000	99.167366
3035.000000	99.163731
3034.000000	99.159629
3033.000000	99.156567
3032.000000	99.156357
3031.000000	99.159786
3030.000000	99.164940
3029.000000	99.168436
3028.000000	99.168903
3027.000000	99.168303
3026.000000	99.169327
3025.000000	99.172669
3024.000000	99.177544
3023.000000	99.183642
3022.000000	99.191128
3021.000000	99.199122
3020.000000	99.205595
3019.000000	99.208938
3018.000000	99.209097
3017.000000	99.207224
3016.000000	99.204738
3015.000000	99.202536
3014.000000	99.200673
3013.000000	99.198817
3012.000000	99.197043
3011.000000	99.195791
3010.000000	99.194980
3009.000000	99.193740
3008.000000	99.191297
3007.000000	99.187965
3006.000000	99.185349
3005.000000	99.185688
3004.000000	99.190306
3003.000000	99.197697
3002.000000	99.203665
3001.000000	99.204664
3000.000000	99.201104
2999.000000	99.196491
2998.000000	99.193524
2997.000000	99.192433
2996.000000	99.192780
2995.000000	99.194654
2994.000000	99.197201
2993.000000	99.197972
2992.000000	99.195339
2991.000000	99.190483
2990.000000	99.185835
2989.000000	99.182414
2988.000000	99.179757
2987.000000	99.177298
2986.000000	99.174321
2985.000000	99.169339
2984.000000	99.161078
2983.000000	99.150160
2982.000000	99.138641
2981.000000	99.127999
2980.000000	99.118295
2979.000000	99.109144
2978.000000	99.100538
2977.000000	99.092662
2976.000000	99.085568
2975.000000	99.079069
2974.000000	99.072558
2973.000000	99.065063
2972.000000	99.055901
2971.000000	99.045082
2970.000000	99.032751
2969.000000	99.018545
2968.000000	99.002030
2967.000000	98.983612
2966.000000	98.964505
2965.000000	98.945800
2964.000000	98.927732
2963.000000	98.909942
2962.000000	98.892426
2961.000000	98.876312
2960.000000	98.863450
2959.000000	98.854803
2958.000000	98.849457
2957.000000	98.845531
2956.000000	98.841906
2955.000000	98.838486
2954.000000	98.835384
2953.000000	98.832942
2952.000000	98.832255
2951.000000	98.834233
2950.000000	98.837755
2949.000000	98.840018
2948.000000	98.839278
2947.000000	98.836044
2946.000000	98.830769
2945.000000	98.821627
2944.000000	98.806232
2943.000000	98.785187
2942.000000	98.762525
2941.000000	98.742054
2940.000000	98.723875
2939.000000	98.704727
2938.000000	98.681287
2937.000000	98.652802
2936.000000	98.620698
2935.000000	98.586421
2934.000000	98.550478
2933.000000	98.513427
2932.000000	98.476572
2931.000000	98.440633
2930.000000	98.404342
2929.000000	98.365824
2928.000000	98.325547
2927.000000	98.286870
2926.000000	98.253175
2925.000000	98.225282
2924.000000	98.201968
2923.000000	98.182055
2922.000000	98.165252
2921.000000	98.151716
2920.000000	98.142240
2919.000000	98.139116
2918.000000	98.146080
2917.000000	98.166275
2916.000000	98.199600
2915.000000	98.242283
2914.000000	98.289535
2913.000000	98.338961
2912.000000	98.390664
2911.000000	98.444016
2910.000000	98.495275
2909.000000	98.539615
2908.000000	98.574979
2907.000000	98.602767
2906.000000	98.625006
2905.000000	98.642371
2904.000000	98.655390
2903.000000	98.666296
2902.000000	98.678571
2901.000000	98.694964
2900.000000	98.715288
2899.000000	98.736687
2898.000000	98.755409
2897.000000	98.769572
2896.000000	98.780466
2895.000000	98.790937
2894.000000	98.802520
2893.000000	98.814580
2892.000000	98.825769
2891.000000	98.835368
2890.000000	98.843330
2889.000000	98.850133
2888.000000	98.856854
2887.000000	98.864533
2886.000000	98.873170
2885.000000	98.881909
2884.000000	98.890090
2883.000000	98.897228
2882.000000	98.902166
2881.000000	98.903650
2880.000000	98.902182
2879.000000	98.899972
2878.000000	98.898391
2877.000000	98.896556
2876.000000	98.893188
2875.000000	98.888789
2874.000000	98.884800
2873.000000	98.881316
2872.000000	98.877060
2871.000000	98.871547
2870.000000	98.866155
2869.000000	98.862526
2868.000000	98.860444
2867.000000	98.857690
2866.000000	98.851899
2865.000000	98.842414
2864.000000	98.830149
2863.000000	98.815940
2862.000000	98.799508
2861.000000	98.780124
2860.000000	98.757513
2859.000000	98.731372
2858.000000	98.700774
2857.000000	98.665234
2856.000000	98.626235
2855.000000	98.586723
2854.000000	98.549561
2853.000000	98.517533
2852.000000	98.494469
2851.000000	98.484663
2850.000000	98.490442
2849.000000	98.511396
2848.000000	98.545863
2847.000000	98.591692
2846.000000	98.645152
2845.000000	98.700927
2844.000000	98.754474
2843.000000	98.803905
2842.000000	98.848904
2841.000000	98.888843
2840.000000	98.923111
2839.000000	98.952147
2838.000000	98.976811
2837.000000	98.997286
2836.000000	99.013777
2835.000000	99.027775
2834.000000	99.041145
2833.000000	99.054067
2832.000000	99.065217
2831.000000	99.074165
2830.000000	99.082351
2829.000000	99.091182
2828.000000	99.100104
2827.000000	99.107365
2826.000000	99.112311
2825.000000	99.116018
2824.000000	99.119622
2823.000000	99.122897
2822.000000	99.125074
2821.000000	99.126573
2820.000000	99.128853
2819.000000	99.132441
2818.000000	99.136270
2817.000000	99.139714
2816.000000	99.144271
2815.000000	99.151876
2814.000000	99.161740
2813.000000	99.170259
2812.000000	99.174298
2811.000000	99.173774
2810.000000	99.171057
2809.000000	99.168987
2808.000000	99.169630
2807.000000	99.173638
2806.000000	99.179848
2805.000000	99.186016
2804.000000	99.190431
2803.000000	99.192546
2802.000000	99.192284
2801.000000	99.189925
2800.000000	99.186879
2799.000000	99.185317
2798.000000	99.186269
2797.000000	99.188948
2796.000000	99.192411
2795.000000	99.196807
2794.000000	99.202186
2793.000000	99.207196
2792.000000	99.210266
2791.000000	99.211571
2790.000000	99.212820
2789.000000	99.215285
2788.000000	99.218809
2787.000000	99.222395
2786.000000	99.225046
2785.000000	99.226254
2784.000000	99.226362
2783.000000	99.226315
2782.000000	99.226657
2781.000000	99.227091
2780.000000	99.227380
2779.000000	99.228101
2778.000000	99.229798
2777.000000	99.231756
2776.000000	99.232443
2775.000000	99.231131
2774.000000	99.228593
2773.000000	99.226352
2772.000000	99.225623
2771.000000	99.226692
2770.000000	99.228874
2769.000000	99.231170
2768.000000	99.233229
2767.000000	99.235443
2766.000000	99.238011
2765.000000	99.240362
2764.000000	99.241698
2763.000000	99.241545
2762.000000	99.239633
2761.000000	99.236060
2760.000000	99.232067
2759.000000	99.229822
2758.000000	99.230612
2757.000000	99.233717
2756.000000	99.237588
2755.000000	99.241554
2754.000000	99.245682
2753.000000	99.249705
2752.000000	99.253065
2751.000000	99.255587
2750.000000	99.257170
2749.000000	99.257286
2748.000000	99.255847
2747.000000	99.254212
2746.000000	99.254053
2745.000000	99.255215
2744.000000	99.255775
2743.000000	99.254452
2742.000000	99.252021
2741.000000	99.250163
2740.000000	99.249757
2739.000000	99.250629
2738.000000	99.252174
2737.000000	99.253711
2736.000000	99.254714
2735.000000	99.255030
2734.000000	99.254629
2733.000000	99.253170
2732.000000	99.250539
2731.000000	99.247939
2730.000000	99.247616
2729.000000	99.250848
2728.000000	99.256507
2727.000000	99.262082
2726.000000	99.265841
2725.000000	99.267779
2724.000000	99.268926
2723.000000	99.270285
2722.000000	99.272250
2721.000000	99.274503
2720.000000	99.276275
2719.000000	99.276895
2718.000000	99.276271
2717.000000	99.274873
2716.000000	99.273239
2715.000000	99.271504
2714.000000	99.269480
2713.000000	99.267398
2712.000000	99.266538
2711.000000	99.268598
2710.000000	99.273846
2709.000000	99.280036
2708.000000	99.283739
2707.000000	99.283053
2706.000000	99.278915
2705.000000	99.274013
2704.000000	99.270868
2703.000000	99.270788
2702.000000	99.273632
2701.000000	99.277882
2700.000000	99.281311
2699.000000	99.282375
2698.000000	99.281225
2697.000000	99.279376
2696.000000	99.278473
2695.000000	99.279257
2694.000000	99.281163
2693.000000	99.282596
2692.000000	99.282067
2691.000000	99.279771
2690.000000	99.277830
2689.000000	99.278371
2688.000000	99.281435
2687.000000	99.285390
2686.000000	99.289199
2685.000000	99.293130
2684.000000	99.296872
2683.000000	99.298350
2682.000000	99.295838
2681.000000	99.290783
2680.000000	99.287050
2679.000000	99.287020
2678.000000	99.289437
2677.000000	99.291485
2676.000000	99.291942
2675.000000	99.291594
2674.000000	99.291329
2673.000000	99.290974
2672.000000	99.289958
2671.000000	99.288381
2670.000000	99.287293
2669.000000	99.288171
2668.000000	99.291792
2667.000000	99.297052
2666.000000	99.301002
2665.000000	99.300710
2664.000000	99.295378
2663.000000	99.286661
2662.000000	99.277339
2661.000000	99.270026
2660.000000	99.266587
2659.000000	99.267554
2658.000000	99.271545
2657.000000	99.275760
2656.000000	99.277757
2655.000000	99.277168
2654.000000	99.275834
2653.000000	99.276201
2652.000000	99.279101
2651.000000	99.282849
2650.000000	99.284906
2649.000000	99.284735
2648.000000	99.284611
2647.000000	99.287174
2646.000000	99.292580
2645.000000	99.298497
2644.000000	99.302324
2643.000000	99.302888
2642.000000	99.300864
2641.000000	99.298713
2640.000000	99.299587
2639.000000	99.304655
2638.000000	99.311435
2637.000000	99.316045
2636.000000	99.317298
2635.000000	99.317444
2634.000000	99.318932
2633.000000	99.321935
2632.000000	99.325286
2631.000000	99.328174
2630.000000	99.330002
2629.000000	99.329881
2628.000000	99.327322
2627.000000	99.322857
2626.000000	99.317638
2625.000000	99.313310
2624.000000	99.312374
2623.000000	99.316925
2622.000000	99.325989
2621.000000	99.335273
2620.000000	99.340670
2619.000000	99.341208
2618.000000	99.338175
2617.000000	99.333033
2616.000000	99.327423
2615.000000	99.323472
2614.000000	99.322208
2613.000000	99.322551
2612.000000	99.323341
2611.000000	99.325102
2610.000000	99.327908
2609.000000	99.329102
2608.000000	99.326077
2607.000000	99.320987
2606.000000	99.319586
2605.000000	99.324789
2604.000000	99.333711
2603.000000	99.341731
2602.000000	99.347360
2601.000000	99.351987
2600.000000	99.356898
2599.000000	99.362025
2598.000000	99.366223
2597.000000	99.367297
2596.000000	99.362806
2595.000000	99.352461
2594.000000	99.339643
2593.000000	99.329815
2592.000000	99.327408
2591.000000	99.333830
2590.000000	99.346870
2589.000000	99.361215
2588.000000	99.371074
2587.000000	99.374151
2586.000000	99.372918
2585.000000	99.371348
2584.000000	99.370794
2583.000000	99.369707
2582.000000	99.366655
2581.000000	99.362548
2580.000000	99.360228
2579.000000	99.362487
2578.000000	99.369988
2577.000000	99.380243
2576.000000	99.388906
2575.000000	99.392849
2574.000000	99.391984
2573.000000	99.388095
2572.000000	99.382964
2571.000000	99.378209
2570.000000	99.375639
2569.000000	99.376147
2568.000000	99.378610
2567.000000	99.381250
2566.000000	99.383841
2565.000000	99.387184
2564.000000	99.390577
2563.000000	99.391652
2562.000000	99.389370
2561.000000	99.385681
2560.000000	99.383052
2559.000000	99.381174
2558.000000	99.377592
2557.000000	99.371178
2556.000000	99.363703
2555.000000	99.357717
2554.000000	99.354166
2553.000000	99.352896
2552.000000	99.354498
2551.000000	99.359954
2550.000000	99.368095
2549.000000	99.374750
2548.000000	99.375791
2547.000000	99.371127
2546.000000	99.364984
2545.000000	99.362089
2544.000000	99.363984
2543.000000	99.368825
2542.000000	99.373765
2541.000000	99.377079
2540.000000	99.378752
2539.000000	99.379964
2538.000000	99.382080
2537.000000	99.385443
2536.000000	99.388676
2535.000000	99.389250
2534.000000	99.385303
2533.000000	99.377586
2532.000000	99.369662
2531.000000	99.365422
2530.000000	99.365749
2529.000000	99.367900
2528.000000	99.368575
2527.000000	99.367084
2526.000000	99.364946
2525.000000	99.363237
2524.000000	99.361811
2523.000000	99.360628
2522.000000	99.359962
2521.000000	99.358755
2520.000000	99.354562
2519.000000	99.346398
2518.000000	99.336708
2517.000000	99.329470
2516.000000	99.326640
2515.000000	99.327047
2514.000000	99.328079
2513.000000	99.327827
2512.000000	99.326454
2511.000000	99.326342
2510.000000	99.330227
2509.000000	99.338385
2508.000000	99.348016
2507.000000	99.355618
2506.000000	99.358868
2505.000000	99.356055
2504.000000	99.346310
2503.000000	99.332457
2502.000000	99.321743
2501.000000	99.320347
2500.000000	99.327370
2499.000000	99.336584
2498.000000	99.344095
2497.000000	99.351365
2496.000000	99.360555
2495.000000	99.370307
2494.000000	99.377648
2493.000000	99.381493
2492.000000	99.382160
2491.000000	99.379480
2490.000000	99.374068
2489.000000	99.369290
2488.000000	99.369190
2487.000000	99.374395
2486.000000	99.381988
2485.000000	99.389335
2484.000000	99.396211
2483.000000	99.402622
2482.000000	99.406429
2481.000000	99.404854
2480.000000	99.398251
2479.000000	99.391170
2478.000000	99.388585
2477.000000	99.390825
2476.000000	99.393078
2475.000000	99.391091
2474.000000	99.386838
2473.000000	99.386690
2472.000000	99.393642
2471.000000	99.403343
2470.000000	99.409016
2469.000000	99.408592
2468.000000	99.405118
2467.000000	99.401770
2466.000000	99.399211
2465.000000	99.397398
2464.000000	99.397076
2463.000000	99.398406
2462.000000	99.400184
2461.000000	99.401635
2460.000000	99.403749
2459.000000	99.407496
2458.000000	99.411601
2457.000000	99.413527
2456.000000	99.412753
2455.000000	99.412116
2454.000000	99.415208
2453.000000	99.422366
2452.000000	99.429464
2451.000000	99.431247
2450.000000	99.426442
2449.000000	99.419226
2448.000000	99.415198
2447.000000	99.416283
2446.000000	99.419986
2445.000000	99.422859
2444.000000	99.423509
2443.000000	99.422733
2442.000000	99.422376
2441.000000	99.424237
2440.000000	99.428532
2439.000000	99.432900
2438.000000	99.434033
2437.000000	99.430866
2436.000000	99.425294
2435.000000	99.419701
2434.000000	99.415262
2433.000000	99.412728
2432.000000	99.412684
2431.000000	99.413955
2430.000000	99.414137
2429.000000	99.413593
2428.000000	99.416952
2427.000000	99.427542
2426.000000	99.441340
2425.000000	99.449988
2424.000000	99.450146
2423.000000	99.446669
2422.000000	99.445371
2421.000000	99.445859
2420.000000	99.443921
2419.000000	99.438852
2418.000000	99.435306
2417.000000	99.438181
2416.000000	99.447822
2415.000000	99.460140
2414.000000	99.469511
2413.000000	99.471644
2412.000000	99.466048
2411.000000	99.456897
2410.000000	99.450427
2409.000000	99.450204
2408.000000	99.454727
2407.000000	99.459481
2406.000000	99.460808
2405.000000	99.458063
2404.000000	99.453547
2403.000000	99.450956
2402.000000	99.453050
2401.000000	99.459734
2400.000000	99.468341
2399.000000	99.475721
2398.000000	99.479690
2397.000000	99.478884
2396.000000	99.473057
2395.000000	99.464691
2394.000000	99.459137
2393.000000	99.461032
2392.000000	99.469561
2391.000000	99.478062
2390.000000	99.479191
2389.000000	99.471186
2388.000000	99.459236
2387.000000	99.450850
2386.000000	99.449800
2385.000000	99.454235
2384.000000	99.460038
2383.000000	99.465286
2382.000000	99.471136
2381.000000	99.479113
2380.000000	99.488493
2379.000000	99.496526
2378.000000	99.500704
2377.000000	99.500646
2376.000000	99.498369
2375.000000	99.496819
2374.000000	99.497429
2373.000000	99.498947
2372.000000	99.499365
2371.000000	99.499050
2370.000000	99.500265
2369.000000	99.502528
2368.000000	99.500489
2367.000000	99.489282
2366.000000	99.471609
2365.000000	99.457030
2364.000000	99.453891
2363.000000	99.462867
2362.000000	99.477689
2361.000000	99.490482
2360.000000	99.496331
2359.000000	99.494948
2358.000000	99.490472
2357.000000	99.487101
2356.000000	99.485885
2355.000000	99.485951
2354.000000	99.485741
2353.000000	99.484230
2352.000000	99.480920
2351.000000	99.477604
2350.000000	99.476281
2349.000000	99.476907
2348.000000	99.478320
2347.000000	99.478700
2346.000000	99.476836
2345.000000	99.472528
2344.000000	99.467298
2343.000000	99.464376
2342.000000	99.467075
2341.000000	99.475800
2340.000000	99.485410
2339.000000	99.490950
2338.000000	99.491766
2337.000000	99.489343
2336.000000	99.483576
2335.000000	99.474208
2334.000000	99.463200
2333.000000	99.453053
2332.000000	99.444291
2331.000000	99.437569
2330.000000	99.436191
2329.000000	99.441312
2328.000000	99.447092
2327.000000	99.442351
2326.000000	99.423098
2325.000000	99.396571
2324.000000	99.376114
2323.000000	99.369947
2322.000000	99.376575
2321.000000	99.389209
2320.000000	99.401726
2319.000000	99.411712
2318.000000	99.419717
2317.000000	99.427526
2316.000000	99.436302
2315.000000	99.444143
2314.000000	99.447187
2313.000000	99.442605
2312.000000	99.433250
2311.000000	99.426093
2310.000000	99.426697
2309.000000	99.433072
2308.000000	99.438380
2307.000000	99.437975
2306.000000	99.433840
2305.000000	99.429987
2304.000000	99.427122
2303.000000	99.423186
2302.000000	99.418051
2301.000000	99.414528
2300.000000	99.415278
2299.000000	99.420601
2298.000000	99.429241
2297.000000	99.438222
2296.000000	99.443014
2295.000000	99.439948
2294.000000	99.430285
2293.000000	99.418835
2292.000000	99.409367
2291.000000	99.402546
2290.000000	99.398809
2289.000000	99.398939
2288.000000	99.401098
2287.000000	99.400529
2286.000000	99.394803
2285.000000	99.387081
2284.000000	99.382132
2283.000000	99.381354
2282.000000	99.383564
2281.000000	99.388456
2280.000000	99.396033
2279.000000	99.404575
2278.000000	99.412209
2277.000000	99.420118
2276.000000	99.431306
2275.000000	99.445964
2274.000000	99.459456
2273.000000	99.465030
2272.000000	99.458834
2271.000000	99.443356
2270.000000	99.426256
2269.000000	99.413995
2268.000000	99.406689
2267.000000	99.401684
2266.000000	99.401770
2265.000000	99.414620
2264.000000	99.441850
2263.000000	99.473054
2262.000000	99.494602
2261.000000	99.501400
2260.000000	99.497510
2259.000000	99.488707
2258.000000	99.479209
2257.000000	99.474114
2256.000000	99.478993
2255.000000	99.494673
2254.000000	99.513989
2253.000000	99.525249
2252.000000	99.520340
2251.000000	99.501174
2250.000000	99.478620
2249.000000	99.463395
2248.000000	99.457624
2247.000000	99.457000
2246.000000	99.459323
2245.000000	99.465748
2244.000000	99.473606
2243.000000	99.475371
2242.000000	99.468389
2241.000000	99.459636
2240.000000	99.455900
2239.000000	99.453691
2238.000000	99.444930
2237.000000	99.430158
2236.000000	99.420721
2235.000000	99.428909
2234.000000	99.458465
2233.000000	99.501209
2232.000000	99.538926
2231.000000	99.553554
2230.000000	99.542429
2229.000000	99.522254
2228.000000	99.512501
2227.000000	99.515598
2226.000000	99.518333
2225.000000	99.510331
2224.000000	99.494278
2223.000000	99.477965
2222.000000	99.464455
2221.000000	99.453200
2220.000000	99.446004
2219.000000	99.446735
2218.000000	99.455676
2217.000000	99.467166
2216.000000	99.474985
2215.000000	99.480654
2214.000000	99.493506
2213.000000	99.519159
2212.000000	99.549162
2211.000000	99.567474
2210.000000	99.567904
2209.000000	99.559529
2208.000000	99.553347
2207.000000	99.549031
2206.000000	99.538174
2205.000000	99.515223
2204.000000	99.481633
2203.000000	99.444711
2202.000000	99.417412
2201.000000	99.413688
2200.000000	99.437000
2199.000000	99.476089
2198.000000	99.515734
2197.000000	99.547126
2196.000000	99.565536
2195.000000	99.566323
2194.000000	99.550301
2193.000000	99.527440
2192.000000	99.507387
2191.000000	99.490753
2190.000000	99.477910
2189.000000	99.479202
2188.000000	99.503701
2187.000000	99.539988
2186.000000	99.561505
2185.000000	99.553758
2184.000000	99.529237
2183.000000	99.513483
2182.000000	99.522968
2181.000000	99.556778
2180.000000	99.601632
2179.000000	99.641861
2178.000000	99.667818
2177.000000	99.677037
2176.000000	99.669733
2175.000000	99.647679
2174.000000	99.619223
2173.000000	99.598333
2172.000000	99.590220
2171.000000	99.582012
2170.000000	99.556345
2169.000000	99.514426
2168.000000	99.479927
2167.000000	99.477196
2166.000000	99.507152
2165.000000	99.541984
2164.000000	99.542496
2163.000000	99.490299
2162.000000	99.410873
2161.000000	99.363058
2160.000000	99.393905
2159.000000	99.494576
2158.000000	99.607689
2157.000000	99.681503
2156.000000	99.706856
2155.000000	99.704022
2154.000000	99.693086
2153.000000	99.681356
2152.000000	99.669067
2151.000000	99.659587
2150.000000	99.659826
2149.000000	99.668345
2148.000000	99.670638
2147.000000	99.655431
2146.000000	99.631573
2145.000000	99.617331
2144.000000	99.613917
2143.000000	99.603993
2142.000000	99.579120
2141.000000	99.554650
2140.000000	99.550251
2139.000000	99.566276
2138.000000	99.589473
2137.000000	99.613291
2136.000000	99.640116
2135.000000	99.666431
2134.000000	99.678247
2133.000000	99.665546
2132.000000	99.634609
2131.000000	99.602389
2130.000000	99.582026
2129.000000	99.575715
2128.000000	99.577898
2127.000000	99.582347
2126.000000	99.585601
2125.000000	99.584823
2124.000000	99.575508
2123.000000	99.554975
2122.000000	99.528471
2121.000000	99.508521
2120.000000	99.504642
2119.000000	99.513783
2118.000000	99.522744
2117.000000	99.520043
2116.000000	99.505671
2115.000000	99.489736
2114.000000	99.482221
2113.000000	99.484244
2112.000000	99.489634
2111.000000	99.494535
2110.000000	99.502014
2109.000000	99.514718
2108.000000	99.526705
2107.000000	99.528226
2106.000000	99.518728
2105.000000	99.509784
2104.000000	99.512695
2103.000000	99.525876
2102.000000	99.536386
2101.000000	99.533195
2100.000000	99.518938
2099.000000	99.509282
2098.000000	99.518878
2097.000000	99.544777
2096.000000	99.565901
2095.000000	99.563687
2094.000000	99.541204
2093.000000	99.516986
2092.000000	99.503390
2091.000000	99.499067
2090.000000	99.499954
2089.000000	99.506193
2088.000000	99.515102
2087.000000	99.516907
2086.000000	99.504525
2085.000000	99.483629
2084.000000	99.468214
2083.000000	99.468366
2082.000000	99.484643
2081.000000	99.509658
2080.000000	99.531279
2079.000000	99.539183
2078.000000	99.533184
2077.000000	99.522310
2076.000000	99.512730
2075.000000	99.500671
2074.000000	99.481187
2073.000000	99.459650
2072.000000	99.448554
2071.000000	99.455231
2070.000000	99.476338
2069.000000	99.500798
2068.000000	99.515269
2067.000000	99.511991
2066.000000	99.495983
2065.000000	99.481668
2064.000000	99.478100
2063.000000	99.481322
2062.000000	99.485148
2061.000000	99.491941
2060.000000	99.507092
2059.000000	99.528299
2058.000000	99.547164
2057.000000	99.557558
2056.000000	99.556391
2055.000000	99.540031
2054.000000	99.507800
2053.000000	99.468568
2052.000000	99.438042
2051.000000	99.429584
2050.000000	99.449211
2049.000000	99.492843
2048.000000	99.543367
2047.000000	99.578387
2046.000000	99.587839
2045.000000	99.579999
2044.000000	99.568488
2043.000000	99.559646
2042.000000	99.553503
2041.000000	99.546476
2040.000000	99.528832
2039.000000	99.492824
2038.000000	99.451720
2037.000000	99.438761
2036.000000	99.474094
2035.000000	99.540311
2034.000000	99.603653
2033.000000	99.647561
2032.000000	99.672442
2031.000000	99.674508
2030.000000	99.644140
2029.000000	99.583310
2028.000000	99.511357
2027.000000	99.454138
2026.000000	99.434284
2025.000000	99.460786
2024.000000	99.514379
2023.000000	99.555613
2022.000000	99.560275
2021.000000	99.539300
2020.000000	99.517605
2019.000000	99.507246
2018.000000	99.513548
2017.000000	99.548689
2016.000000	99.614984
2015.000000	99.686827
2014.000000	99.731030
2013.000000	99.736719
2012.000000	99.712945
2011.000000	99.665974
2010.000000	99.599220
2009.000000	99.532907
2008.000000	99.498213
2007.000000	99.503243
2006.000000	99.525027
2005.000000	99.542567
2004.000000	99.560569
2003.000000	99.592840
2002.000000	99.635735
2001.000000	99.668422
2000.000000	99.674471
1999.000000	99.655303
1998.000000	99.624784
1997.000000	99.599772
1996.000000	99.595166
1995.000000	99.617686
1994.000000	99.657003
1993.000000	99.684751
1992.000000	99.675416
1991.000000	99.636423
1990.000000	99.604558
1989.000000	99.605402
1988.000000	99.625802
1987.000000	99.631295
1986.000000	99.604038
1985.000000	99.555400
1984.000000	99.505752
1983.000000	99.464740
1982.000000	99.434962
1981.000000	99.424065
1980.000000	99.444098
1979.000000	99.499680
1978.000000	99.577560
1977.000000	99.646136
1976.000000	99.675515
1975.000000	99.666896
1974.000000	99.652759
1973.000000	99.660020
1972.000000	99.678939
1971.000000	99.678931
1970.000000	99.649385
1969.000000	99.611682
1968.000000	99.593833
1967.000000	99.604356
1966.000000	99.631994
1965.000000	99.657480
1964.000000	99.660887
1963.000000	99.632069
1962.000000	99.584090
1961.000000	99.549240
1960.000000	99.551040
1959.000000	99.583055
1958.000000	99.619987
1957.000000	99.641509
1956.000000	99.642825
1955.000000	99.630765
1954.000000	99.615931
1953.000000	99.606319
1952.000000	99.604326
1951.000000	99.609876
1950.000000	99.624288
1949.000000	99.646427
1948.000000	99.666902
1947.000000	99.673577
1946.000000	99.664290
1945.000000	99.649685
1944.000000	99.643173
1943.000000	99.651124
1942.000000	99.669808
1941.000000	99.687602
1940.000000	99.693505
1939.000000	99.686731
1938.000000	99.676633
1937.000000	99.670980
1936.000000	99.664911
1935.000000	99.648264
1934.000000	99.623675
1933.000000	99.608271
1932.000000	99.613348
1931.000000	99.630268
1930.000000	99.641028
1929.000000	99.636672
1928.000000	99.622803
1927.000000	99.611882
1926.000000	99.613310
1925.000000	99.626609
1924.000000	99.640879
1923.000000	99.643376
1922.000000	99.631895
1921.000000	99.614820
1920.000000	99.599557
1919.000000	99.588936
1918.000000	99.586144
1917.000000	99.592746
1916.000000	99.602804
1915.000000	99.609046
1914.000000	99.612330
1913.000000	99.619337
1912.000000	99.632089
1911.000000	99.644168
1910.000000	99.648546
1909.000000	99.644480
1908.000000	99.635280
1907.000000	99.624216
1906.000000	99.614777
1905.000000	99.609614
1904.000000	99.608464
1903.000000	99.611038
1902.000000	99.620410
1901.000000	99.637024
1900.000000	99.651235
1899.000000	99.650131
1898.000000	99.631823
1897.000000	99.606702
1896.000000	99.585221
1895.000000	99.570810
1894.000000	99.565186
1893.000000	99.570264
1892.000000	99.581815
1891.000000	99.589883
1890.000000	99.589420
1889.000000	99.586853
1888.000000	99.590713
1887.000000	99.601887
1886.000000	99.616996
1885.000000	99.632032
1884.000000	99.640306
1883.000000	99.634764
1882.000000	99.616238
1881.000000	99.595058
1880.000000	99.581734
1879.000000	99.578636
1878.000000	99.582018
1877.000000	99.587143
1876.000000	99.589496
1875.000000	99.586988
1874.000000	99.583791
1873.000000	99.587498
1872.000000	99.600039
1871.000000	99.614911
1870.000000	99.623884
1869.000000	99.624241
1868.000000	99.619254
1867.000000	99.614110
1866.000000	99.614378
1865.000000	99.621756
1864.000000	99.630780
1863.000000	99.634691
1862.000000	99.634334
1861.000000	99.636998
1860.000000	99.645529
1859.000000	99.654768
1858.000000	99.660514
1857.000000	99.664511
1856.000000	99.668291
1855.000000	99.670158
1854.000000	99.670355
1853.000000	99.672598
1852.000000	99.677670
1851.000000	99.680199
1850.000000	99.676226
1849.000000	99.669006
1848.000000	99.664101
1847.000000	99.661901
1846.000000	99.659512
1845.000000	99.656824
1844.000000	99.656136
1843.000000	99.657738
1842.000000	99.661268
1841.000000	99.665538
1840.000000	99.666520
1839.000000	99.661186
1838.000000	99.653217
1837.000000	99.650128
1836.000000	99.652909
1835.000000	99.654685
1834.000000	99.651935
1833.000000	99.649855
1832.000000	99.654623
1831.000000	99.664737
1830.000000	99.673116
1829.000000	99.676251
1828.000000	99.675943
1827.000000	99.672844
1826.000000	99.666456
1825.000000	99.660292
1824.000000	99.658313
1823.000000	99.657437
1822.000000	99.652467
1821.000000	99.644902
1820.000000	99.642029
1819.000000	99.647998
1818.000000	99.659787
1817.000000	99.671137
1816.000000	99.676908
1815.000000	99.675215
1814.000000	99.668850
1813.000000	99.664417
1812.000000	99.666721
1811.000000	99.672434
1810.000000	99.673424
1809.000000	99.667150
1808.000000	99.657203
1807.000000	99.646557
1806.000000	99.635193
1805.000000	99.621759
1804.000000	99.605171
1803.000000	99.586143
1802.000000	99.568170
1801.000000	99.555606
1800.000000	99.546572
1799.000000	99.533262
1798.000000	99.513526
1797.000000	99.494042
1796.000000	99.480788
1795.000000	99.473787
1794.000000	99.472751
1793.000000	99.483215
1792.000000	99.507312
1791.000000	99.532055
1790.000000	99.546286
1789.000000	99.553374
1788.000000	99.558802
1787.000000	99.563484
1786.000000	99.567737
1785.000000	99.574468
1784.000000	99.585705
1783.000000	99.599414
1782.000000	99.612124
1781.000000	99.623602
1780.000000	99.635060
1779.000000	99.645740
1778.000000	99.654101
1777.000000	99.659898
1776.000000	99.664091
1775.000000	99.668022
1774.000000	99.673244
1773.000000	99.680858
1772.000000	99.687684
1771.000000	99.685223
1770.000000	99.671928
1769.000000	99.656234
1768.000000	99.646995
1767.000000	99.647341
1766.000000	99.653725
1765.000000	99.660718
1764.000000	99.664437
1763.000000	99.663853
1762.000000	99.659902
1761.000000	99.654024
1760.000000	99.647301
1759.000000	99.639831
1758.000000	99.631188
1757.000000	99.621882
1756.000000	99.612776
1755.000000	99.603447
1754.000000	99.591764
1753.000000	99.575212
1752.000000	99.554263
1751.000000	99.534645
1750.000000	99.522922
1749.000000	99.518326
1748.000000	99.514494
1747.000000	99.505484
1746.000000	99.489318
1745.000000	99.468902
1744.000000	99.450323
1743.000000	99.438944
1742.000000	99.434799
1741.000000	99.433342
1740.000000	99.430662
1739.000000	99.426599
1738.000000	99.422817
1737.000000	99.420312
1736.000000	99.418684
1735.000000	99.421182
1734.000000	99.435482
1733.000000	99.455708
1732.000000	99.469344
1731.000000	99.475838
1730.000000	99.480306
1729.000000	99.487412
1728.000000	99.498486
1727.000000	99.511409
1726.000000	99.522416
1725.000000	99.529163
1724.000000	99.531499
1723.000000	99.531212
1722.000000	99.530200
1721.000000	99.529282
1720.000000	99.528660
1719.000000	99.529112
1718.000000	99.533478
1717.000000	99.545877
1716.000000	99.558680
1715.000000	99.559984
1714.000000	99.551584
1713.000000	99.540768
1712.000000	99.530939
1711.000000	99.522338
1710.000000	99.515575
1709.000000	99.511991
1708.000000	99.510916
1707.000000	99.508166
1706.000000	99.501406
1705.000000	99.493834
1704.000000	99.487074
1703.000000	99.476204
1702.000000	99.454261
1701.000000	99.423742
1700.000000	99.402309
1699.000000	99.397720
1698.000000	99.399415
1697.000000	99.395327
1696.000000	99.376874
1695.000000	99.342397
1694.000000	99.305735
1693.000000	99.278618
1692.000000	99.256939
1691.000000	99.233195
1690.000000	99.206092
1689.000000	99.182083
1688.000000	99.167036
1687.000000	99.157636
1686.000000	99.145409
1685.000000	99.125470
1684.000000	99.098240
1683.000000	99.058681
1682.000000	99.011119
1681.000000	98.968885
1680.000000	98.937157
1679.000000	98.915341
1678.000000	98.897801
1677.000000	98.877930
1676.000000	98.853032
1675.000000	98.825894
1674.000000	98.800316
1673.000000	98.777377
1672.000000	98.754966
1671.000000	98.731432
1670.000000	98.708697
1669.000000	98.687600
1668.000000	98.664866
1667.000000	98.641112
1666.000000	98.618602
1665.000000	98.597032
1664.000000	98.573718
1663.000000	98.545058
1662.000000	98.509894
1661.000000	98.472648
1660.000000	98.438200
1659.000000	98.407588
1658.000000	98.380667
1657.000000	98.358767
1656.000000	98.342939
1655.000000	98.331208
1654.000000	98.321231
1653.000000	98.308754
1652.000000	98.281913
1651.000000	98.254953
1650.000000	98.239224
1649.000000	98.230094
1648.000000	98.224128
1647.000000	98.221887
1646.000000	98.224818
1645.000000	98.229669
1644.000000	98.237415
1643.000000	98.246931
1642.000000	98.254703
1641.000000	98.260393
1640.000000	98.266648
1639.000000	98.276234
1638.000000	98.292274
1637.000000	98.320033
1636.000000	98.361242
1635.000000	98.395365
1634.000000	98.403978
1633.000000	98.401024
1632.000000	98.400088
1631.000000	98.405088
1630.000000	98.418078
1629.000000	98.439811
1628.000000	98.466091
1627.000000	98.490074
1626.000000	98.509644
1625.000000	98.528562
1624.000000	98.550312
1623.000000	98.573379
1622.000000	98.592923
1621.000000	98.608486
1620.000000	98.624485
1619.000000	98.644422
1618.000000	98.670974
1617.000000	98.704758
1616.000000	98.734467
1615.000000	98.747787
1614.000000	98.751570
1613.000000	98.757380
1612.000000	98.768859
1611.000000	98.782868
1610.000000	98.795070
1609.000000	98.803664
1608.000000	98.808319
1607.000000	98.809660
1606.000000	98.810434
1605.000000	98.814469
1604.000000	98.822460
1603.000000	98.830912
1602.000000	98.836942
1601.000000	98.841555
1600.000000	98.846088
1599.000000	98.848832
1598.000000	98.847603
1597.000000	98.843633
1596.000000	98.839647
1595.000000	98.836221
1594.000000	98.833294
1593.000000	98.831967
1592.000000	98.831711
1591.000000	98.828698
1590.000000	98.820079
1589.000000	98.808230
1588.000000	98.797783
1587.000000	98.789802
1586.000000	98.781479
1585.000000	98.770134
1584.000000	98.756042
1583.000000	98.740267
1582.000000	98.723181
1581.000000	98.705347
1580.000000	98.688094
1579.000000	98.672508
1578.000000	98.659356
1577.000000	98.651330
1576.000000	98.651827
1575.000000	98.656867
1574.000000	98.661316
1573.000000	98.667146
1572.000000	98.676324
1571.000000	98.687103
1570.000000	98.696674
1569.000000	98.702636
1568.000000	98.705397
1567.000000	98.707960
1566.000000	98.711070
1565.000000	98.712978
1564.000000	98.712763
1563.000000	98.710701
1562.000000	98.707844
1561.000000	98.705416
1560.000000	98.702401
1559.000000	98.691257
1558.000000	98.664700
1557.000000	98.620803
1556.000000	98.579686
1555.000000	98.541873
1554.000000	98.503284
1553.000000	98.466005
1552.000000	98.433328
1551.000000	98.403756
1550.000000	98.376006
1549.000000	98.349841
1548.000000	98.322571
1547.000000	98.287146
1546.000000	98.237727
1545.000000	98.177767
1544.000000	98.119601
1543.000000	98.069620
1542.000000	98.022242
1541.000000	97.979311
1540.000000	97.960928
1539.000000	97.958221
1538.000000	97.943224
1537.000000	97.923116
1536.000000	97.906942
1535.000000	97.896850
1534.000000	97.894071
1533.000000	97.897120
1532.000000	97.897413
1531.000000	97.890193
1530.000000	97.878907
1529.000000	97.866497
1528.000000	97.851794
1527.000000	97.830977
1526.000000	97.805337
1525.000000	97.784552
1524.000000	97.773038
1523.000000	97.761588
1522.000000	97.740059
1521.000000	97.713614
1520.000000	97.691160
1519.000000	97.669644
1518.000000	97.641700
1517.000000	97.607692
1516.000000	97.575705
1515.000000	97.547117
1514.000000	97.516622
1513.000000	97.482961
1512.000000	97.450810
1511.000000	97.423984
1510.000000	97.399718
1509.000000	97.374880
1508.000000	97.355259
1507.000000	97.355362
1506.000000	97.354394
1505.000000	97.322521
1504.000000	97.281776
1503.000000	97.242741
1502.000000	97.203703
1501.000000	97.165043
1500.000000	97.129336
1499.000000	97.094890
1498.000000	97.055382
1497.000000	97.013062
1496.000000	96.978310
1495.000000	96.949506
1494.000000	96.915308
1493.000000	96.870782
1492.000000	96.818995
1491.000000	96.767281
1490.000000	96.722434
1489.000000	96.687155
1488.000000	96.655699
1487.000000	96.618695
1486.000000	96.574009
1485.000000	96.526166
1484.000000	96.479871
1483.000000	96.434683
1482.000000	96.386060
1481.000000	96.331365
1480.000000	96.272187
1479.000000	96.209561
1478.000000	96.143379
1477.000000	96.076913
1476.000000	96.015160
1475.000000	95.955672
1474.000000	95.890887
1473.000000	95.824625
1472.000000	95.770230
1471.000000	95.723918
1470.000000	95.674910
1469.000000	95.622931
1468.000000	95.571034
1467.000000	95.518224
1466.000000	95.461003
1465.000000	95.403303
1464.000000	95.354177
1463.000000	95.311540
1462.000000	95.266568
1461.000000	95.216414
1460.000000	95.163550
1459.000000	95.108253
1458.000000	95.049930
1457.000000	94.999656
1456.000000	94.965014
1455.000000	94.931904
1454.000000	94.889128
1453.000000	94.836975
1452.000000	94.782392
1451.000000	94.729272
1450.000000	94.677302
1449.000000	94.630733
1448.000000	94.597468
1447.000000	94.573324
1446.000000	94.542558
1445.000000	94.500807
1444.000000	94.455744
1443.000000	94.413235
1442.000000	94.373140
1441.000000	94.334277
1440.000000	94.295586
1439.000000	94.252802
1438.000000	94.202389
1437.000000	94.151926
1436.000000	94.113934
1435.000000	94.083102
1434.000000	94.046106
1433.000000	94.003461
1432.000000	93.964591
1431.000000	93.933165
1430.000000	93.902100
1429.000000	93.865585
1428.000000	93.826019
1427.000000	93.784613
1426.000000	93.739347
1425.000000	93.694604
1424.000000	93.659461
1423.000000	93.630097
1422.000000	93.590028
1421.000000	93.533782
1420.000000	93.475973
1419.000000	93.436395
1418.000000	93.412059
1417.000000	93.390319
1416.000000	93.372698
1415.000000	93.359815
1414.000000	93.344725
1413.000000	93.325079
1412.000000	93.308064
1411.000000	93.299174
1410.000000	93.294304
1409.000000	93.289500
1408.000000	93.287910
1407.000000	93.292781
1406.000000	93.304430
1405.000000	93.325354
1404.000000	93.354401
1403.000000	93.376998
1402.000000	93.379728
1401.000000	93.368415
1400.000000	93.361598
1399.000000	93.366286
1398.000000	93.368974
1397.000000	93.364804
1396.000000	93.372034
1395.000000	93.405028
1394.000000	93.448601
1393.000000	93.480277
1392.000000	93.499221
1391.000000	93.512590
1390.000000	93.523387
1389.000000	93.538904
1388.000000	93.573258
1387.000000	93.629058
1386.000000	93.687552
1385.000000	93.734545
1384.000000	93.774340
1383.000000	93.812844
1382.000000	93.849146
1381.000000	93.883722
1380.000000	93.921485
1379.000000	93.961785
1378.000000	93.996533
1377.000000	94.023372
1376.000000	94.052004
1375.000000	94.093120
1374.000000	94.144937
1373.000000	94.195085
1372.000000	94.235201
1371.000000	94.265920
1370.000000	94.293187
1369.000000	94.324722
1368.000000	94.361849
1367.000000	94.394559
1366.000000	94.414149
1365.000000	94.427287
1364.000000	94.450678
1363.000000	94.494013
1362.000000	94.551139
1361.000000	94.610110
1360.000000	94.663904
1359.000000	94.707656
1358.000000	94.739643
1357.000000	94.767046
1356.000000	94.800361
1355.000000	94.840873
1354.000000	94.881491
1353.000000	94.918793
1352.000000	94.955065
1351.000000	94.991005
1350.000000	95.026212
1349.000000	95.063512
1348.000000	95.104994
1347.000000	95.146487
1346.000000	95.183081
1345.000000	95.215645
1344.000000	95.245486
1343.000000	95.268491
1342.000000	95.283412
1341.000000	95.300980
1340.000000	95.334445
1339.000000	95.381385
1338.000000	95.427606
1337.000000	95.468788
1336.000000	95.510432
1335.000000	95.552895
1334.000000	95.591771
1333.000000	95.627797
1332.000000	95.664969
1331.000000	95.701777
1330.000000	95.733808
1329.000000	95.762492
1328.000000	95.792763
1327.000000	95.825016
1326.000000	95.856975
1325.000000	95.889037
1324.000000	95.921120
1323.000000	95.948296
1322.000000	95.967392
1321.000000	95.983762
1320.000000	96.004840
1319.000000	96.031062
1318.000000	96.059311
1317.000000	96.089771
1316.000000	96.122065
1315.000000	96.151753
1314.000000	96.178366
1313.000000	96.209662
1312.000000	96.249309
1311.000000	96.288345
1310.000000	96.317717
1309.000000	96.341185
1308.000000	96.367025
1307.000000	96.395334
1306.000000	96.422306
1305.000000	96.449018
1304.000000	96.477093
1303.000000	96.502995
1302.000000	96.525802
1301.000000	96.552744
1300.000000	96.587899
1299.000000	96.623317
1298.000000	96.650928
1297.000000	96.674671
1296.000000	96.701184
1295.000000	96.727328
1294.000000	96.748048
1293.000000	96.767900
1292.000000	96.793368
1291.000000	96.821370
1290.000000	96.846178
1289.000000	96.870506
1288.000000	96.898776
1287.000000	96.927030
1286.000000	96.950249
1285.000000	96.971961
1284.000000	96.995709
1283.000000	97.015691
1282.000000	97.026857
1281.000000	97.036525
1280.000000	97.054069
1279.000000	97.076514
1278.000000	97.095406
1277.000000	97.110864
1276.000000	97.127877
1275.000000	97.145304
1274.000000	97.159579
1273.000000	97.173008
1272.000000	97.188636
1271.000000	97.202991
1270.000000	97.213330
1269.000000	97.224925
1268.000000	97.242051
1267.000000	97.259478
1266.000000	97.271862
1265.000000	97.283465
1264.000000	97.299229
1263.000000	97.314864
1262.000000	97.325481
1261.000000	97.335606
1260.000000	97.350385
1259.000000	97.365851
1258.000000	97.377357
1257.000000	97.388357
1256.000000	97.401592
1255.000000	97.411776
1254.000000	97.415567
1253.000000	97.418768
1252.000000	97.425049
1251.000000	97.428493
1250.000000	97.426330
1249.000000	97.427864
1248.000000	97.440602
1247.000000	97.457657
1246.000000	97.469144
1245.000000	97.475914
1244.000000	97.482252
1243.000000	97.485625
1242.000000	97.484860
1241.000000	97.487928
1240.000000	97.500064
1239.000000	97.513596
1238.000000	97.520438
1237.000000	97.525324
1236.000000	97.535721
1235.000000	97.548654
1234.000000	97.558654
1233.000000	97.569135
1232.000000	97.584144
1231.000000	97.598165
1230.000000	97.605750
1229.000000	97.612659
1228.000000	97.625959
1227.000000	97.641955
1226.000000	97.655134
1225.000000	97.670100
1224.000000	97.692745
1223.000000	97.717528
1222.000000	97.735280
1221.000000	97.746409
1220.000000	97.756437
1219.000000	97.766549
1218.000000	97.777951
1217.000000	97.796567
1216.000000	97.823199
1215.000000	97.847736
1214.000000	97.862919
1213.000000	97.874865
1212.000000	97.890457
1211.000000	97.904587
1210.000000	97.910578
1209.000000	97.913261
1208.000000	97.920437
1207.000000	97.930663
1206.000000	97.939699
1205.000000	97.949726
1204.000000	97.961824
1203.000000	97.969215
1202.000000	97.968479
1201.000000	97.968216
1200.000000	97.976558
1199.000000	97.989486
1198.000000	98.000433
1197.000000	98.010915
1196.000000	98.022442
1195.000000	98.029480
1194.000000	98.030679
1193.000000	98.035333
1192.000000	98.048170
1191.000000	98.059334
1190.000000	98.060499
1189.000000	98.058855
1188.000000	98.063464
1187.000000	98.069644
1186.000000	98.069231
1185.000000	98.065376
1184.000000	98.064333
1183.000000	98.063319
1182.000000	98.058981
1181.000000	98.057557
1180.000000	98.063828
1179.000000	98.070022
1178.000000	98.068605
1177.000000	98.065417
1176.000000	98.067634
1175.000000	98.069818
1174.000000	98.064292
1173.000000	98.055479
1172.000000	98.051802
1171.000000	98.052581
1170.000000	98.053764
1169.000000	98.056878
1168.000000	98.061943
1167.000000	98.062122
1166.000000	98.055902
1165.000000	98.053546
1164.000000	98.061075
1163.000000	98.069619
1162.000000	98.071175
1161.000000	98.072030
1160.000000	98.079063
1159.000000	98.086008
1158.000000	98.086175
1157.000000	98.086187
1156.000000	98.094296
1155.000000	98.106685
1154.000000	98.117443
1153.000000	98.129792
1152.000000	98.145465
1151.000000	98.155772
1150.000000	98.155980
1149.000000	98.155860
1148.000000	98.163487
1147.000000	98.172045
1146.000000	98.174720
1145.000000	98.178116
1144.000000	98.187522
1143.000000	98.193775
1142.000000	98.189309
1141.000000	98.184075
1140.000000	98.190854
1139.000000	98.207041
1138.000000	98.223973
1137.000000	98.241353
1136.000000	98.259367
1135.000000	98.269630
1134.000000	98.267699
1133.000000	98.262255
1132.000000	98.260060
1131.000000	98.255029
1130.000000	98.243503
1129.000000	98.235325
1128.000000	98.237457
1127.000000	98.241677
1126.000000	98.240811
1125.000000	98.241238
1124.000000	98.246603
1123.000000	98.246205
1122.000000	98.233898
1121.000000	98.222165
1120.000000	98.222270
1119.000000	98.226511
1118.000000	98.224483
1117.000000	98.220994
1116.000000	98.222661
1115.000000	98.223353
1114.000000	98.218196
1113.000000	98.216245
1112.000000	98.223862
1111.000000	98.231548
1110.000000	98.232005
1109.000000	98.234201
1108.000000	98.244915
1107.000000	98.253889
1106.000000	98.253527
1105.000000	98.254719
1104.000000	98.266222
1103.000000	98.276364
1102.000000	98.273320
1101.000000	98.265801
1100.000000	98.266341
1099.000000	98.270043
1098.000000	98.269132
1097.000000	98.270225
1096.000000	98.278762
1095.000000	98.283152
1094.000000	98.273489
1093.000000	98.260814
1092.000000	98.258891
1091.000000	98.262212
1090.000000	98.258831
1089.000000	98.250087
1088.000000	98.240835
1087.000000	98.226456
1086.000000	98.206151
1085.000000	98.192607
1084.000000	98.191715
1083.000000	98.189140
1082.000000	98.173859
1081.000000	98.157903
1080.000000	98.156308
1079.000000	98.164361
1078.000000	98.172029
1077.000000	98.182197
1076.000000	98.196997
1075.000000	98.204770
1074.000000	98.199744
1073.000000	98.196920
1072.000000	98.209195
1071.000000	98.226938
1070.000000	98.237037
1069.000000	98.244351
1068.000000	98.256062
1067.000000	98.263910
1066.000000	98.260657
1065.000000	98.256951
1064.000000	98.262695
1063.000000	98.269348
1062.000000	98.268209
1061.000000	98.268468
1060.000000	98.278696
1059.000000	98.288713
1058.000000	98.288616
1057.000000	98.287430
1056.000000	98.294371
1055.000000	98.299480
1054.000000	98.292836
1053.000000	98.285152
1052.000000	98.289446
1051.000000	98.298396
1050.000000	98.300694
1049.000000	98.302250
1048.000000	98.310443
1047.000000	98.315883
1046.000000	98.310347
1045.000000	98.304809
1044.000000	98.310501
1043.000000	98.319693
1042.000000	98.321829
1041.000000	98.322427
1040.000000	98.328876
1039.000000	98.335046
1038.000000	98.335914
1037.000000	98.340039
1036.000000	98.351092
1035.000000	98.355966
1034.000000	98.347753
1033.000000	98.341345
1032.000000	98.349087
1031.000000	98.359955
1030.000000	98.360861
1029.000000	98.358849
1028.000000	98.364882
1027.000000	98.374351
1026.000000	98.381682
1025.000000	98.394148
1024.000000	98.413690
1023.000000	98.425106
1022.000000	98.421350
1021.000000	98.420318
1020.000000	98.437012
1019.000000	98.459036
1018.000000	98.468537
1017.000000	98.469504
1016.000000	98.473037
1015.000000	98.475712
1014.000000	98.472065
1013.000000	98.470756
1012.000000	98.478899
1011.000000	98.487776
1010.000000	98.490691
1009.000000	98.496973
1008.000000	98.512267
1007.000000	98.524698
1006.000000	98.527357
1005.000000	98.533735
1004.000000	98.554325
1003.000000	98.577549
1002.000000	98.591596
1001.000000	98.603791
1000.000000	98.621199
999.000000	98.632987
998.000000	98.631977
997.000000	98.633020
996.000000	98.649994
995.000000	98.673500
994.000000	98.690130
993.000000	98.704629
992.000000	98.722810
991.000000	98.732889
990.000000	98.725038
989.000000	98.713194
988.000000	98.716137
987.000000	98.732677
986.000000	98.752434
985.000000	98.774506
984.000000	98.797734
983.000000	98.810284
982.000000	98.807528
981.000000	98.803922
980.000000	98.810467
979.000000	98.817536
978.000000	98.816229
977.000000	98.816714
976.000000	98.828684
975.000000	98.842596
974.000000	98.849057
973.000000	98.857361
972.000000	98.876279
971.000000	98.894646
970.000000	98.899987
969.000000	98.899514
968.000000	98.904814
967.000000	98.913365
966.000000	98.921130
965.000000	98.935587
964.000000	98.959117
963.000000	98.978337
962.000000	98.985706
961.000000	98.993851
960.000000	99.012590
959.000000	99.032147
958.000000	99.044102
957.000000	99.057532
956.000000	99.077978
955.000000	99.092677
954.000000	99.094671
953.000000	99.099038
952.000000	99.117415
951.000000	99.137577
950.000000	99.147530
949.000000	99.157010
948.000000	99.176308
947.000000	99.195229
946.000000	99.203340
945.000000	99.209654
944.000000	99.222343
943.000000	99.230178
942.000000	99.224141
941.000000	99.217719
940.000000	99.225046
939.000000	99.238928
938.000000	99.248128
937.000000	99.257087
936.000000	99.269792
935.000000	99.275527
934.000000	99.268963
933.000000	99.264171
932.000000	99.270576
931.000000	99.276753
930.000000	99.275597
929.000000	99.281717
928.000000	99.305118
927.000000	99.330233
926.000000	99.341947
925.000000	99.349433
924.000000	99.364859
923.000000	99.380237
922.000000	99.386359
921.000000	99.392187
920.000000	99.404831
919.000000	99.412187
918.000000	99.405922
917.000000	99.400231
916.000000	99.407441
915.000000	99.417708
914.000000	99.421623
913.000000	99.430234
912.000000	99.451250
911.000000	99.470042
910.000000	99.475783
909.000000	99.483760
908.000000	99.508268
907.000000	99.535883
906.000000	99.548421
905.000000	99.550823
904.000000	99.555208
903.000000	99.559069
902.000000	99.560915
901.000000	99.573554
900.000000	99.600484
899.000000	99.621394
898.000000	99.623615
897.000000	99.623932
896.000000	99.639028
895.000000	99.658545
894.000000	99.669288
893.000000	99.680806
892.000000	99.703086
891.000000	99.723492
890.000000	99.727819
889.000000	99.720070
888.000000	99.698326
887.000000	99.636950
886.000000	99.517775
885.000000	99.354895
884.000000	99.163372
883.000000	98.929569
882.000000	98.634346
881.000000	98.282778
880.000000	97.887113
879.000000	97.446647
878.000000	96.970038
877.000000	96.490776
876.000000	96.036585
875.000000	95.604435
874.000000	95.191279
873.000000	94.828022
872.000000	94.570684
871.000000	94.477430
870.000000	94.600017
869.000000	94.958370
868.000000	95.495053
867.000000	96.087069
866.000000	96.630594
865.000000	97.097233
864.000000	97.494673
863.000000	97.815320
862.000000	98.053029
861.000000	98.231020
860.000000	98.374515
859.000000	98.482286
858.000000	98.556858
857.000000	98.629991
856.000000	98.724643
855.000000	98.820421
854.000000	98.888457
853.000000	98.932403
852.000000	98.963322
851.000000	98.965975
850.000000	98.929687
849.000000	98.886079
848.000000	98.878479
847.000000	98.911895
846.000000	98.963833
845.000000	99.021736
844.000000	99.079479
843.000000	99.121744
842.000000	99.144332
841.000000	99.168957
840.000000	99.209345
839.000000	99.245715
838.000000	99.258501
837.000000	99.261995
836.000000	99.276113
835.000000	99.292672
834.000000	99.298183
833.000000	99.303456
832.000000	99.319966
831.000000	99.333132
830.000000	99.329844
829.000000	99.326688
828.000000	99.339976
827.000000	99.354033
826.000000	99.352142
825.000000	99.350277
824.000000	99.365972
823.000000	99.383036
822.000000	99.383373
821.000000	99.382456
820.000000	99.398869
819.000000	99.419587
818.000000	99.427170
817.000000	99.431577
816.000000	99.444934
815.000000	99.453732
814.000000	99.445164
813.000000	99.433844
812.000000	99.433772
811.000000	99.432369
810.000000	99.419717
809.000000	99.414126
808.000000	99.429664
807.000000	99.448214
806.000000	99.452319
805.000000	99.455387
804.000000	99.470380
803.000000	99.480533
802.000000	99.472059
801.000000	99.463975
800.000000	99.474043
799.000000	99.486079
798.000000	99.482440
797.000000	99.477342
796.000000	99.486348
795.000000	99.494394
794.000000	99.486194
793.000000	99.477535
792.000000	99.485177
791.000000	99.495745
790.000000	99.494081
789.000000	99.492336
788.000000	99.501682
787.000000	99.505871
786.000000	99.492624
785.000000	99.481580
784.000000	99.491169
783.000000	99.506100
782.000000	99.505926
781.000000	99.497551
780.000000	99.492523
779.000000	99.481686
778.000000	99.460254
777.000000	99.448740
776.000000	99.460569
775.000000	99.476820
774.000000	99.479355
773.000000	99.480344
772.000000	99.493052
771.000000	99.503916
770.000000	99.500386
769.000000	99.496325
768.000000	99.502771
767.000000	99.504332
766.000000	99.491401
765.000000	99.483917
764.000000	99.495948
763.000000	99.508301
762.000000	99.504391
761.000000	99.500453
760.000000	99.512127
759.000000	99.524058
758.000000	99.522558
757.000000	99.524996
756.000000	99.545934
755.000000	99.566231
754.000000	99.566969
753.000000	99.563235
752.000000	99.572979
751.000000	99.583588
750.000000	99.579640
749.000000	99.573883
748.000000	99.580048
747.000000	99.585641
746.000000	99.580132
745.000000	99.579003
744.000000	99.591289
743.000000	99.596696
742.000000	99.583814
741.000000	99.575815
740.000000	99.588354
739.000000	99.597577
738.000000	99.582851
737.000000	99.564612
736.000000	99.566363
735.000000	99.573073
734.000000	99.563970
733.000000	99.553426
732.000000	99.562802
731.000000	99.581214
730.000000	99.588768
729.000000	99.589930
728.000000	99.591341
727.000000	99.577884
726.000000	99.542462
725.000000	99.509283
724.000000	99.495430
723.000000	99.481873
722.000000	99.451631
721.000000	99.422354
720.000000	99.406277
719.000000	99.370713
718.000000	99.273365
717.000000	99.103844
716.000000	98.865319
715.000000	98.562708
714.000000	98.247796
713.000000	98.030461
712.000000	97.992920
711.000000	98.112378
710.000000	98.303107
709.000000	98.501679
708.000000	98.679302
707.000000	98.813401
706.000000	98.897816
705.000000	98.958790
704.000000	99.019972
703.000000	99.072061
702.000000	99.104764
701.000000	99.138049
700.000000	99.188140
699.000000	99.235171
698.000000	99.256930
697.000000	99.265335
696.000000	99.276942
695.000000	99.281559
694.000000	99.272662
693.000000	99.273238
692.000000	99.296928
691.000000	99.318977
690.000000	99.320501
689.000000	99.323678
688.000000	99.347905
687.000000	99.369370
686.000000	99.366858
685.000000	99.362447
684.000000	99.376441
683.000000	99.384599
682.000000	99.362772
681.000000	99.332531
680.000000	99.321597
679.000000	99.317939
678.000000	99.303867
677.000000	99.296719
676.000000	99.313118
675.000000	99.331709
674.000000	99.330829
673.000000	99.326910
672.000000	99.337722
671.000000	99.349364
670.000000	99.349986
669.000000	99.364326
668.000000	99.401595
667.000000	99.406738
666.000000	99.363254
665.000000	99.320799
664.000000	99.310387
663.000000	99.317253
662.000000	99.319429
661.000000	99.324782
660.000000	99.340611
659.000000	99.344249
658.000000	99.325975
657.000000	99.319004
656.000000	99.345585
655.000000	99.376084
654.000000	99.381777
653.000000	99.383765
652.000000	99.404500
651.000000	99.419509
650.000000	99.402027
649.000000	99.373055
648.000000	99.358762
647.000000	99.345386
646.000000	99.319905
645.000000	99.309498
644.000000	99.333186
643.000000	99.359857
642.000000	99.358892
641.000000	99.349856
640.000000	99.358280
639.000000	99.365914
638.000000	99.352304
637.000000	99.340575
636.000000	99.356281
635.000000	99.380539
634.000000	99.389941
633.000000	99.399979
632.000000	99.424439
631.000000	99.436104
630.000000	99.413877
629.000000	99.386102
628.000000	99.383561
627.000000	99.392860
626.000000	99.394432
625.000000	99.401641
624.000000	99.418312
623.000000	99.411010
622.000000	99.368960
621.000000	99.340340
620.000000	99.359892
619.000000	99.392283
618.000000	99.393869
617.000000	99.383036
616.000000	99.395115
615.000000	99.415299
614.000000	99.416006
613.000000	99.410789
612.000000	99.418054
611.000000	99.416268
610.000000	99.387465
609.000000	99.358671
608.000000	99.353912
607.000000	99.352272
606.000000	99.339878
605.000000	99.348902
604.000000	99.395861
603.000000	99.438335
602.000000	99.444227
601.000000	99.445092
600.000000	99.467093
599.000000	99.474926
598.000000	99.439275
597.000000	99.397734
596.000000	99.388278
595.000000	99.386186
594.000000	99.360716
593.000000	99.337744
592.000000	99.347044
591.000000	99.362877
590.000000	99.358999
589.000000	99.361779
588.000000	99.389867
587.000000	99.405954
586.000000	99.385125
585.000000	99.368973
584.000000	99.393861
583.000000	99.425961
582.000000	99.428790
581.000000	99.427876
580.000000	99.448548
579.000000	99.457815
578.000000	99.432683
577.000000	99.415889
576.000000	99.439824
575.000000	99.464344
574.000000	99.457881
573.000000	99.463911
572.000000	99.513109
571.000000	99.552847
570.000000	99.531272
569.000000	99.486706
568.000000	99.473453
567.000000	99.470718
566.000000	99.444783
565.000000	99.425161
564.000000	99.439535
563.000000	99.447612
562.000000	99.417125
561.000000	99.393429
560.000000	99.416406
559.000000	99.440917
558.000000	99.422670
557.000000	99.407468
556.000000	99.450874
555.000000	99.518164
554.000000	99.549869
553.000000	99.560408
552.000000	99.584972
551.000000	99.597689
550.000000	99.567100
549.000000	99.528665
548.000000	99.517600
547.000000	99.501359
546.000000	99.455690
545.000000	99.433123
544.000000	99.470868
543.000000	99.514801
542.000000	99.513592
541.000000	99.507202
540.000000	99.540896
539.000000	99.574096
538.000000	99.560564
537.000000	99.538505
536.000000	99.552417
535.000000	99.563275
534.000000	99.531400
533.000000	99.505084
532.000000	99.531607
531.000000	99.559690
530.000000	99.528215
529.000000	99.476270
528.000000	99.469450
527.000000	99.490657
526.000000	99.491934
525.000000	99.493529
524.000000	99.527298
523.000000	99.556071
522.000000	99.547029
521.000000	99.544613
520.000000	99.590487
519.000000	99.638183
518.000000	99.631883
517.000000	99.606212
516.000000	99.604659
515.000000	99.589837
514.000000	99.533773
513.000000	99.494539
512.000000	99.523200
511.000000	99.577225
510.000000	99.601811
509.000000	99.615544
508.000000	99.636705
507.000000	99.618763
506.000000	99.551289
505.000000	99.519307
504.000000	99.570196
503.000000	99.628356
502.000000	99.623671
501.000000	99.612083
500.000000	99.653625
499.000000	99.694213
498.000000	99.677215
497.000000	99.648061
496.000000	99.658680
495.000000	99.668858
494.000000	99.639039
493.000000	99.620376
492.000000	99.647138
491.000000	99.648348
490.000000	99.580258
489.000000	99.527850
488.000000	99.560300
487.000000	99.611461
486.000000	99.606198
485.000000	99.594356
484.000000	99.640466
483.000000	99.683341
482.000000	99.652746
481.000000	99.601989
480.000000	99.594767
479.000000	99.587133
478.000000	99.539696
477.000000	99.528793
476.000000	99.614377
475.000000	99.708293
474.000000	99.703219
473.000000	99.637628
472.000000	99.598678
471.000000	99.553978
470.000000	99.466573
469.000000	99.429509
468.000000	99.519700
467.000000	99.649776
466.000000	99.699131
465.000000	99.696110
464.000000	99.708992
463.000000	99.694350
462.000000	99.608392
461.000000	99.545079
460.000000	99.602761
459.000000	99.719841
458.000000	99.770416
457.000000	99.754647
456.000000	99.732042
455.000000	99.675675
454.000000	99.588441
453.000000	99.574350
452.000000	99.664364
451.000000	99.716071
450.000000	99.653240
