PE UV       SUBTECH     SPECTRUM    ASCII       PEDS        4.00        
   -1
couverture_veau_fleur_1.Sample.asc
23/09/14
15:01:11.00
23/09/14
15:01:11.00
Administrator

250.000000
1
Lambda 750
750N8071901
PerkinElmer UV WinLab 6.0.4.0738 / 1.61.00 Lambda 900

0
0
3350/servo 860.8/2
0
0
UV/VIS
1
1
1
CommonBeamDepol,150mm sphere / downward view
0
0
0
0
Program
Program
3350/servo 860.8/2
3350/0.2 860.8/0.2
3350/0.2 860.8/0.2
0
1
 
 
 
0
 
860.8
319.2
860.8
Front
100
on
 
 
0
0
0
 
0
 
 
 
0
 
 
0
0
0
0
0
 
 
 
 
0
0


0
0
#HDR
-1
-1
#GR
nm
%R
1.0
0.0
2500.000000
-10.000000
226
8
60.850915
3.988576
#DATA
2500.000000	18.897549
2490.000000	20.003765
2480.000000	21.459831
2470.000000	20.948626
2460.000000	21.681344
2450.000000	22.238881
2440.000000	22.971316
2430.000000	24.011130
2420.000000	24.507362
2410.000000	24.566497
2400.000000	24.935732
2390.000000	24.791110
2380.000000	25.032534
2370.000000	25.058644
2360.000000	25.484793
2350.000000	25.152297
2340.000000	25.282700
2330.000000	24.629714
2320.000000	24.344650
2310.000000	23.989235
2300.000000	24.009139
2290.000000	24.171086
2280.000000	24.630171
2270.000000	25.721446
2260.000000	27.867597
2250.000000	28.521935
2240.000000	28.900474
2230.000000	28.335023
2220.000000	27.993326
2210.000000	27.185521
2200.000000	27.036855
2190.000000	27.041977
2180.000000	27.766418
2170.000000	28.836256
2160.000000	29.761091
2150.000000	30.840106
2140.000000	31.232084
2130.000000	31.588750
2120.000000	31.571513
2110.000000	31.587736
2100.000000	31.317146
2090.000000	30.451017
2080.000000	29.502753
2070.000000	28.320703
2060.000000	27.498017
2050.000000	27.839749
2040.000000	28.459069
2030.000000	28.339871
2020.000000	27.597522
2010.000000	26.639759
2000.000000	25.550043
1990.000000	24.643514
1980.000000	23.674063
1970.000000	22.980477
1960.000000	22.678981
1950.000000	23.244566
1940.000000	24.669230
1930.000000	27.265288
1920.000000	31.374794
1910.000000	36.020553
1900.000000	40.134964
1890.000000	43.407659
1880.000000	45.299270
1870.000000	45.971914
1860.000000	46.205702
1850.000000	46.024835
1840.000000	45.676533
1830.000000	45.439622
1820.000000	45.089891
1810.000000	44.857922
1800.000000	44.703349
1790.000000	44.463736
1780.000000	44.241007
1770.000000	43.973381
1760.000000	43.677816
1750.000000	43.453663
1740.000000	43.770854
1730.000000	44.581772
1720.000000	45.135472
1710.000000	45.336139
1700.000000	45.913974
1690.000000	47.132339
1680.000000	48.289088
1670.000000	48.749188
1660.000000	48.903044
1650.000000	48.681007
1640.000000	48.302799
1630.000000	47.857347
1620.000000	47.319660
1610.000000	46.831375
1600.000000	46.388400
1590.000000	45.949052
1580.000000	45.608330
1570.000000	45.359637
1560.000000	45.008388
1550.000000	44.347036
1540.000000	43.643895
1530.000000	43.234737
1520.000000	42.973341
1510.000000	42.838123
1500.000000	42.873826
1490.000000	43.051076
1480.000000	43.291055
1470.000000	43.674207
1460.000000	44.239514
1450.000000	45.125011
1440.000000	46.364859
1430.000000	48.042647
1420.000000	50.070337
1410.000000	51.992513
1400.000000	53.450341
1390.000000	54.314071
1380.000000	54.817504
1370.000000	55.280612
1360.000000	55.718059
1350.000000	56.133097
1340.000000	56.494990
1330.000000	56.891078
1320.000000	57.229584
1310.000000	57.417271
1300.000000	57.411597
1290.000000	57.338834
1280.000000	57.355780
1270.000000	57.373230
1260.000000	57.381540
1250.000000	57.343241
1240.000000	57.290266
1230.000000	57.159448
1220.000000	56.912127
1210.000000	56.722033
1200.000000	56.733523
1190.000000	56.974955
1180.000000	57.342674
1170.000000	57.896279
1160.000000	58.313754
1150.000000	58.655121
1140.000000	58.904739
1130.000000	59.015673
1120.000000	59.020445
1110.000000	59.101550
1100.000000	59.178716
1090.000000	59.196491
1080.000000	59.174173
1070.000000	59.152154
1060.000000	59.158621
1050.000000	59.131092
1040.000000	59.107915
1030.000000	59.102108
1020.000000	59.152956
1010.000000	59.244917
1000.000000	59.338874
990.000000	59.424382
980.000000	59.532136
970.000000	59.692391
960.000000	59.850425
950.000000	59.919742
940.000000	60.034919
930.000000	60.109917
920.000000	60.154882
910.000000	60.289230
900.000000	60.588031
890.000000	60.533198
880.000000	60.674533
870.000000	60.707848
860.000000	60.850915
850.000000	59.715170
840.000000	60.009095
830.000000	59.608541
820.000000	59.282534
810.000000	59.056850
800.000000	59.119621
790.000000	59.190099
780.000000	58.954493
770.000000	58.626364
760.000000	58.578361
750.000000	58.199888
740.000000	57.938633
730.000000	57.697840
720.000000	57.392106
710.000000	57.015284
700.000000	56.710263
690.000000	56.277113
680.000000	55.717559
670.000000	55.291046
660.000000	54.817519
650.000000	54.245480
640.000000	53.617107
630.000000	52.931309
620.000000	52.256376
610.000000	51.436981
600.000000	50.645949
590.000000	49.726444
580.000000	48.705782
570.000000	47.701307
560.000000	46.545171
550.000000	45.302668
540.000000	43.908451
530.000000	42.516316
520.000000	40.974992
510.000000	39.373502
500.000000	37.756578
490.000000	36.073534
480.000000	34.382738
470.000000	32.593651
460.000000	30.808064
450.000000	28.735670
440.000000	26.728633
430.000000	24.608305
420.000000	22.388154
410.000000	20.173105
400.000000	17.979762
390.000000	15.956537
380.000000	13.922355
370.000000	12.011621
360.000000	10.573346
350.000000	9.129351
340.000000	7.885435
330.000000	6.843070
320.000000	6.311302
310.000000	5.086123
300.000000	4.467757
290.000000	4.077786
280.000000	3.988576
270.000000	4.161128
260.000000	4.547278
250.000000	4.842447
