PE UV       SUBTECH     SPECTRUM    ASCII       PEDS        4.00        
   -1
couverture_veau_chair_1.Sample.asc
23/09/14
14:54:28.00
23/09/14
14:54:28.00
Administrator

250.000000
1
Lambda 750
750N8071901
PerkinElmer UV WinLab 6.0.4.0738 / 1.61.00 Lambda 900

0
0
3350/servo 860.8/2
0
0
UV/VIS
1
1
1
CommonBeamDepol,150mm sphere / downward view
0
0
0
0
Program
Program
3350/servo 860.8/2
3350/0.2 860.8/0.2
3350/0.2 860.8/0.2
0
1
 
 
 
0
 
860.8
319.2
860.8
Front
100
on
 
 
0
0
0
 
0
 
 
 
0
 
 
0
0
0
0
0
 
 
 
 
0
0


0
0
#HDR
-1
-1
#GR
nm
%R
1.0
0.0
2500.000000
-10.000000
226
8
58.885517
4.443373
#DATA
2500.000000	10.067074
2490.000000	11.258060
2480.000000	12.237923
2470.000000	12.444230
2460.000000	13.777967
2450.000000	14.374730
2440.000000	14.747227
2430.000000	15.541808
2420.000000	15.184251
2410.000000	16.217338
2400.000000	15.503289
2390.000000	16.069299
2380.000000	16.320887
2370.000000	16.267127
2360.000000	16.949759
2350.000000	16.595026
2340.000000	16.869885
2330.000000	16.606492
2320.000000	15.979629
2310.000000	15.460617
2300.000000	15.285065
2290.000000	15.834456
2280.000000	16.178062
2270.000000	17.630384
2260.000000	19.605457
2250.000000	20.452050
2240.000000	20.809183
2230.000000	20.303975
2220.000000	19.817656
2210.000000	19.072386
2200.000000	18.349301
2190.000000	18.198165
2180.000000	19.399867
2170.000000	20.221801
2160.000000	21.308347
2150.000000	22.400584
2140.000000	22.896634
2130.000000	23.372067
2120.000000	23.539484
2110.000000	23.469864
2100.000000	23.171972
2090.000000	22.106937
2080.000000	21.033194
2070.000000	19.620150
2060.000000	18.887312
2050.000000	19.416191
2040.000000	20.060032
2030.000000	19.877004
2020.000000	19.125394
2010.000000	18.184099
2000.000000	17.036308
1990.000000	16.085808
1980.000000	15.163767
1970.000000	14.625662
1960.000000	14.104411
1950.000000	14.711195
1940.000000	16.274408
1930.000000	18.944516
1920.000000	23.463947
1910.000000	28.996699
1900.000000	34.121909
1890.000000	38.272183
1880.000000	40.800852
1870.000000	41.669868
1860.000000	41.875304
1850.000000	41.695943
1840.000000	41.222599
1830.000000	40.906016
1820.000000	40.459675
1810.000000	40.164061
1800.000000	39.847715
1790.000000	39.570067
1780.000000	39.180340
1770.000000	38.832602
1760.000000	38.414964
1750.000000	38.061455
1740.000000	38.446243
1730.000000	39.503280
1720.000000	40.199128
1710.000000	40.445440
1700.000000	41.184415
1690.000000	42.848710
1680.000000	44.361900
1670.000000	44.943402
1660.000000	45.122798
1650.000000	44.819391
1640.000000	44.264189
1630.000000	43.689202
1620.000000	42.947365
1610.000000	42.253885
1600.000000	41.605519
1590.000000	41.037643
1580.000000	40.557508
1570.000000	40.193797
1560.000000	39.718105
1550.000000	38.822270
1540.000000	37.927766
1530.000000	37.374022
1520.000000	37.009395
1510.000000	36.811516
1500.000000	36.819453
1490.000000	37.014472
1480.000000	37.329311
1470.000000	37.777563
1460.000000	38.519572
1450.000000	39.656092
1440.000000	41.285480
1430.000000	43.508595
1420.000000	46.189039
1410.000000	48.739365
1400.000000	50.684249
1390.000000	51.858534
1380.000000	52.511507
1370.000000	53.205840
1360.000000	53.804729
1350.000000	54.330259
1340.000000	54.810058
1330.000000	55.215151
1320.000000	55.591723
1310.000000	55.782256
1300.000000	55.787568
1290.000000	55.709080
1280.000000	55.732316
1270.000000	55.763262
1260.000000	55.721517
1250.000000	55.625881
1240.000000	55.532560
1230.000000	55.400171
1220.000000	55.057060
1210.000000	54.743194
1200.000000	54.654242
1190.000000	54.952365
1180.000000	55.512717
1170.000000	56.222085
1160.000000	56.815971
1150.000000	57.249903
1140.000000	57.555022
1130.000000	57.706847
1120.000000	57.756618
1110.000000	57.841223
1100.000000	57.865248
1090.000000	57.859691
1080.000000	57.828272
1070.000000	57.771786
1060.000000	57.739213
1050.000000	57.703023
1040.000000	57.675696
1030.000000	57.616459
1020.000000	57.624241
1010.000000	57.708322
1000.000000	57.804911
990.000000	57.883923
980.000000	57.949187
970.000000	58.086641
960.000000	58.212598
950.000000	58.288790
940.000000	58.381429
930.000000	58.349084
920.000000	58.361815
910.000000	58.412851
900.000000	58.643262
890.000000	58.707352
880.000000	58.727782
870.000000	58.830357
860.000000	58.885517
850.000000	57.732775
840.000000	57.704900
830.000000	57.208242
820.000000	56.836772
810.000000	56.766617
800.000000	56.625860
790.000000	56.671415
780.000000	56.375393
770.000000	56.076333
760.000000	55.926168
750.000000	55.548707
740.000000	55.236688
730.000000	54.838133
720.000000	54.571840
710.000000	54.155732
700.000000	53.846786
690.000000	53.300326
680.000000	52.670049
670.000000	52.125000
660.000000	51.571650
650.000000	50.970330
640.000000	50.381274
630.000000	49.661767
620.000000	49.012869
610.000000	48.162604
600.000000	47.366797
590.000000	46.460052
580.000000	45.362686
570.000000	44.384849
560.000000	43.238366
550.000000	42.015032
540.000000	40.760173
530.000000	39.425349
520.000000	37.971607
510.000000	36.402231
500.000000	34.876915
490.000000	33.292932
480.000000	31.734063
470.000000	29.973433
460.000000	28.186415
450.000000	26.315770
440.000000	24.360417
430.000000	22.302522
420.000000	20.229495
410.000000	17.963997
400.000000	15.872842
390.000000	14.137796
380.000000	12.470890
370.000000	10.764425
360.000000	9.281004
350.000000	8.075524
340.000000	7.244778
330.000000	6.534055
320.000000	5.955151
310.000000	5.483981
300.000000	4.881364
290.000000	4.463205
280.000000	4.443373
270.000000	4.676733
260.000000	5.126668
250.000000	5.527384
