PE UV       SUBTECH     SPECTRUM    ASCII       PEDS        4.00        
   -1
veau_histo2_chair_2.Sample.asc
23/09/14
11:56:47.00
23/09/14
11:56:47.00
Administrator

250.000000
1
Lambda 750
750N8071901
PerkinElmer UV WinLab 6.0.4.0738 / 1.61.00 Lambda 900

0
0
3350/servo 860.8/2
0
0
UV/VIS
1
1
1
CommonBeamDepol,150mm sphere / downward view
0
0
0
0
Program
Program
3350/servo 860.8/2
3350/0.2 860.8/0.2
3350/0.2 860.8/0.2
0
1
 
 
 
0
 
860.8
319.2
860.8
Front
100
on
 
 
0
0
0
 
0
 
 
 
0
 
 
0
0
0
0
0
 
 
 
 
0
0


0
0
#HDR
-1
-1
#GR
nm
%R
1.0
0.0
2500.000000
-10.000000
226
8
74.172061
12.086897
#DATA
2500.000000	27.995712
2490.000000	28.709995
2480.000000	28.975971
2470.000000	29.219744
2460.000000	30.152951
2450.000000	30.249877
2440.000000	31.261058
2430.000000	31.929515
2420.000000	32.712613
2410.000000	32.761931
2400.000000	32.756392
2390.000000	33.476795
2380.000000	33.461426
2370.000000	32.796309
2360.000000	33.148731
2350.000000	33.321751
2340.000000	32.619604
2330.000000	33.126921
2320.000000	32.487765
2310.000000	31.861783
2300.000000	31.455648
2290.000000	31.692754
2280.000000	32.542534
2270.000000	33.725853
2260.000000	35.379805
2250.000000	35.931932
2240.000000	36.537688
2230.000000	36.332450
2220.000000	36.217631
2210.000000	35.367844
2200.000000	35.121177
2190.000000	35.165691
2180.000000	35.588339
2170.000000	36.973924
2160.000000	38.002961
2150.000000	38.742669
2140.000000	39.146487
2130.000000	39.542432
2120.000000	39.602095
2110.000000	39.789708
2100.000000	39.436348
2090.000000	38.537286
2080.000000	37.684955
2070.000000	36.628153
2060.000000	36.038109
2050.000000	36.440364
2040.000000	36.970023
2030.000000	36.880825
2020.000000	36.279614
2010.000000	35.447013
2000.000000	34.494620
1990.000000	33.641324
1980.000000	32.902470
1970.000000	32.085320
1960.000000	31.942430
1950.000000	32.523420
1940.000000	34.140666
1930.000000	36.322754
1920.000000	39.879362
1910.000000	44.037736
1900.000000	47.811904
1890.000000	51.154521
1880.000000	53.019716
1870.000000	53.820423
1860.000000	53.942340
1850.000000	53.619720
1840.000000	53.353983
1830.000000	52.960016
1820.000000	52.633629
1810.000000	52.396270
1800.000000	52.211169
1790.000000	51.963519
1780.000000	51.674624
1770.000000	51.379623
1760.000000	51.020626
1750.000000	50.783100
1740.000000	51.061526
1730.000000	52.016916
1720.000000	52.585411
1710.000000	52.831439
1700.000000	53.612335
1690.000000	55.125619
1680.000000	56.560637
1670.000000	57.171185
1660.000000	57.343275
1650.000000	57.042489
1640.000000	56.577328
1630.000000	55.979966
1620.000000	55.305816
1610.000000	54.709319
1600.000000	54.182292
1590.000000	53.747819
1580.000000	53.353395
1570.000000	53.104382
1560.000000	52.740577
1550.000000	51.954160
1540.000000	51.289055
1530.000000	50.955355
1520.000000	50.737893
1510.000000	50.689372
1500.000000	50.773289
1490.000000	50.979195
1480.000000	51.239810
1470.000000	51.599612
1460.000000	52.231191
1450.000000	53.142075
1440.000000	54.501995
1430.000000	56.453302
1420.000000	58.923064
1410.000000	61.424355
1400.000000	63.383151
1390.000000	64.637553
1380.000000	65.480477
1370.000000	66.284622
1360.000000	67.072552
1350.000000	67.838011
1340.000000	68.450793
1330.000000	68.965274
1320.000000	69.363488
1310.000000	69.530112
1300.000000	69.486249
1290.000000	69.458243
1280.000000	69.480701
1270.000000	69.554673
1260.000000	69.527826
1250.000000	69.319179
1240.000000	69.096353
1230.000000	68.805635
1220.000000	68.310969
1210.000000	67.937489
1200.000000	67.792291
1190.000000	68.134090
1180.000000	68.997860
1170.000000	69.995087
1160.000000	70.889087
1150.000000	71.547677
1140.000000	72.038599
1130.000000	72.261307
1120.000000	72.336098
1110.000000	72.441635
1100.000000	72.454228
1090.000000	72.417201
1080.000000	72.361623
1070.000000	72.306610
1060.000000	72.210867
1050.000000	72.159967
1040.000000	72.114026
1030.000000	72.093397
1020.000000	72.155042
1010.000000	72.262749
1000.000000	72.384758
990.000000	72.498386
980.000000	72.681745
970.000000	72.899484
960.000000	73.105912
950.000000	73.165426
940.000000	73.315792
930.000000	73.269333
920.000000	73.374764
910.000000	73.544605
900.000000	73.773232
890.000000	73.826288
880.000000	74.040299
870.000000	74.172061
860.000000	73.946820
850.000000	73.383620
840.000000	73.625342
830.000000	73.535968
820.000000	73.336656
810.000000	73.157719
800.000000	73.354726
790.000000	73.280104
780.000000	73.285350
770.000000	73.141878
760.000000	73.165048
750.000000	73.120593
740.000000	72.990194
730.000000	73.057020
720.000000	72.866158
710.000000	72.966136
700.000000	72.857409
690.000000	72.728815
680.000000	72.489688
670.000000	72.337468
660.000000	72.147260
650.000000	71.879420
640.000000	71.627160
630.000000	71.316475
620.000000	71.040841
610.000000	70.689074
600.000000	70.204014
590.000000	69.744962
580.000000	69.092383
570.000000	68.527825
560.000000	67.721136
550.000000	66.877186
540.000000	65.886536
530.000000	64.834945
520.000000	63.727910
510.000000	62.459499
500.000000	61.204136
490.000000	59.650477
480.000000	58.243950
470.000000	56.651291
460.000000	54.594671
450.000000	52.120847
440.000000	49.680549
430.000000	47.634292
420.000000	45.577611
410.000000	43.088993
400.000000	40.368938
390.000000	37.681678
380.000000	34.845412
370.000000	31.851093
360.000000	29.279529
350.000000	26.672526
340.000000	24.341150
330.000000	21.457831
320.000000	18.333577
310.000000	16.180967
300.000000	13.987471
290.000000	12.530123
280.000000	12.086897
270.000000	12.495450
260.000000	13.376633
250.000000	14.373004
