PE UV       SUBTECH     SPECTRUM    ASCII       PEDS        4.00        
   -1
couverture_veau_fleur_2.Sample.asc
23/09/14
15:04:03.00
23/09/14
15:04:03.00
Administrator

250.000000
1
Lambda 750
750N8071901
PerkinElmer UV WinLab 6.0.4.0738 / 1.61.00 Lambda 900

0
0
3350/servo 860.8/2
0
0
UV/VIS
1
1
1
CommonBeamDepol,150mm sphere / downward view
0
0
0
0
Program
Program
3350/servo 860.8/2
3350/0.2 860.8/0.2
3350/0.2 860.8/0.2
0
1
 
 
 
0
 
860.8
319.2
860.8
Front
100
on
 
 
0
0
0
 
0
 
 
 
0
 
 
0
0
0
0
0
 
 
 
 
0
0


0
0
#HDR
-1
-1
#GR
nm
%R
1.0
0.0
2500.000000
-10.000000
226
8
59.305745
4.238996
#DATA
2500.000000	17.546702
2490.000000	18.059412
2480.000000	19.452680
2470.000000	19.317520
2460.000000	20.028876
2450.000000	21.153479
2440.000000	21.611360
2430.000000	22.541921
2420.000000	22.733680
2410.000000	23.152847
2400.000000	22.798815
2390.000000	23.287229
2380.000000	23.227662
2370.000000	23.168957
2360.000000	23.247092
2350.000000	23.556927
2340.000000	23.191401
2330.000000	23.476773
2320.000000	22.633512
2310.000000	22.061720
2300.000000	21.853556
2290.000000	22.187709
2280.000000	22.936746
2270.000000	23.972684
2260.000000	26.080634
2250.000000	26.926584
2240.000000	27.101758
2230.000000	26.602020
2220.000000	26.267895
2210.000000	25.603900
2200.000000	25.248505
2190.000000	24.971670
2180.000000	26.112545
2170.000000	27.052909
2160.000000	27.827184
2150.000000	29.014038
2140.000000	29.516341
2130.000000	29.820777
2120.000000	29.865359
2110.000000	29.704616
2100.000000	29.411898
2090.000000	28.648287
2080.000000	27.614265
2070.000000	26.240021
2060.000000	25.589767
2050.000000	25.906661
2040.000000	26.548575
2030.000000	26.487391
2020.000000	25.682896
2010.000000	24.781364
2000.000000	23.635094
1990.000000	22.715848
1980.000000	21.734353
1970.000000	21.116724
1960.000000	20.847759
1950.000000	21.214440
1940.000000	22.813746
1930.000000	25.420913
1920.000000	29.449621
1910.000000	34.256738
1900.000000	38.421195
1890.000000	41.731760
1880.000000	43.784732
1870.000000	44.508653
1860.000000	44.662485
1850.000000	44.550498
1840.000000	44.169082
1830.000000	43.858700
1820.000000	43.546308
1810.000000	43.290558
1800.000000	43.064061
1790.000000	42.910978
1780.000000	42.583808
1770.000000	42.354586
1760.000000	42.066704
1750.000000	41.742556
1740.000000	42.113688
1730.000000	42.945018
1720.000000	43.489308
1710.000000	43.683383
1700.000000	44.282071
1690.000000	45.591621
1680.000000	46.753088
1670.000000	47.205191
1660.000000	47.362745
1650.000000	47.115574
1640.000000	46.716803
1630.000000	46.257734
1620.000000	45.717553
1610.000000	45.187672
1600.000000	44.713157
1590.000000	44.249299
1580.000000	43.893060
1570.000000	43.651958
1560.000000	43.266582
1550.000000	42.563586
1540.000000	41.853773
1530.000000	41.429475
1520.000000	41.137527
1510.000000	40.980098
1500.000000	41.023086
1490.000000	41.221428
1480.000000	41.411039
1470.000000	41.807454
1460.000000	42.399925
1450.000000	43.319106
1440.000000	44.615830
1430.000000	46.342364
1420.000000	48.448437
1410.000000	50.428578
1400.000000	51.906320
1390.000000	52.815497
1380.000000	53.319383
1370.000000	53.848639
1360.000000	54.254576
1350.000000	54.655660
1340.000000	55.026129
1330.000000	55.413892
1320.000000	55.811362
1310.000000	56.031861
1300.000000	56.028794
1290.000000	55.989420
1280.000000	55.987204
1270.000000	55.998476
1260.000000	55.996377
1250.000000	55.937179
1240.000000	55.888890
1230.000000	55.774454
1220.000000	55.504635
1210.000000	55.291724
1200.000000	55.294925
1190.000000	55.552531
1180.000000	55.925511
1170.000000	56.502547
1160.000000	56.966293
1150.000000	57.302204
1140.000000	57.529071
1130.000000	57.642509
1120.000000	57.688924
1110.000000	57.759550
1100.000000	57.802993
1090.000000	57.812256
1080.000000	57.788598
1070.000000	57.764467
1060.000000	57.757009
1050.000000	57.700663
1040.000000	57.691264
1030.000000	57.633941
1020.000000	57.687202
1010.000000	57.785895
1000.000000	57.868475
990.000000	57.969954
980.000000	58.052269
970.000000	58.204643
960.000000	58.360087
950.000000	58.440411
940.000000	58.520887
930.000000	58.627391
920.000000	58.657491
910.000000	58.784314
900.000000	59.102196
890.000000	59.084146
880.000000	59.305745
870.000000	59.169493
860.000000	59.255509
850.000000	58.403413
840.000000	58.925444
830.000000	58.419822
820.000000	58.271979
810.000000	58.115535
800.000000	58.222081
790.000000	58.127497
780.000000	57.917797
770.000000	57.865441
760.000000	57.738601
750.000000	57.438677
740.000000	57.300300
730.000000	56.884794
720.000000	56.845421
710.000000	56.530286
700.000000	56.268854
690.000000	55.924405
680.000000	55.419012
670.000000	54.998292
660.000000	54.610081
650.000000	54.065751
640.000000	53.638161
630.000000	52.953118
620.000000	52.470645
610.000000	51.698854
600.000000	51.038502
590.000000	50.195700
580.000000	49.302017
570.000000	48.431807
560.000000	47.352485
550.000000	46.270952
540.000000	45.076949
530.000000	43.813640
520.000000	42.450584
510.000000	40.918395
500.000000	39.454088
490.000000	37.783243
480.000000	36.241453
470.000000	34.543126
460.000000	32.820546
450.000000	30.833465
440.000000	28.830083
430.000000	26.657256
420.000000	24.352291
410.000000	22.069035
400.000000	19.702260
390.000000	17.564472
380.000000	15.390506
370.000000	13.326527
360.000000	11.441798
350.000000	9.996900
340.000000	8.606336
330.000000	7.527208
320.000000	6.613371
310.000000	5.355617
300.000000	4.558063
290.000000	4.238996
280.000000	4.291028
270.000000	4.744965
260.000000	5.377401
250.000000	5.827589
