PE UV       SUBTECH     SPECTRUM    ASCII       PEDS        4.00        
   -1
couverture_veau_chair_2.Sample.asc
23/09/14
14:58:09.00
23/09/14
14:58:09.00
Administrator

250.000000
1
Lambda 750
750N8071901
PerkinElmer UV WinLab 6.0.4.0738 / 1.61.00 Lambda 900

0
0
3350/servo 860.8/2
0
0
UV/VIS
1
1
1
CommonBeamDepol,150mm sphere / downward view
0
0
0
0
Program
Program
3350/servo 860.8/2
3350/0.2 860.8/0.2
3350/0.2 860.8/0.2
0
1
 
 
 
0
 
860.8
319.2
860.8
Front
100
on
 
 
0
0
0
 
0
 
 
 
0
 
 
0
0
0
0
0
 
 
 
 
0
0


0
0
#HDR
-1
-1
#GR
nm
%R
1.0
0.0
2500.000000
-10.000000
226
8
61.806472
3.862119
#DATA
2500.000000	12.093399
2490.000000	12.074915
2480.000000	13.908786
2470.000000	14.004059
2460.000000	13.942512
2450.000000	15.188727
2440.000000	15.824235
2430.000000	16.582994
2420.000000	17.385233
2410.000000	17.106558
2400.000000	16.878542
2390.000000	17.419077
2380.000000	17.201815
2370.000000	17.393847
2360.000000	17.715620
2350.000000	17.730592
2340.000000	17.459961
2330.000000	17.627848
2320.000000	17.149254
2310.000000	16.567514
2300.000000	16.286279
2290.000000	16.611375
2280.000000	17.173635
2270.000000	18.440543
2260.000000	20.908626
2250.000000	21.504296
2240.000000	21.858760
2230.000000	21.306311
2220.000000	21.015202
2210.000000	20.189734
2200.000000	19.776080
2190.000000	19.733267
2180.000000	20.423941
2170.000000	21.437342
2160.000000	22.629844
2150.000000	23.590876
2140.000000	24.254537
2130.000000	24.372406
2120.000000	24.494665
2110.000000	24.638704
2100.000000	24.195859
2090.000000	23.307605
2080.000000	22.199572
2070.000000	21.002031
2060.000000	20.140489
2050.000000	20.702292
2040.000000	21.353547
2030.000000	21.282585
2020.000000	20.542811
2010.000000	19.535600
2000.000000	18.457779
1990.000000	17.544583
1980.000000	16.701516
1970.000000	16.114103
1960.000000	15.826128
1950.000000	16.204543
1940.000000	17.802191
1930.000000	20.395717
1920.000000	24.845981
1910.000000	30.466958
1900.000000	35.753687
1890.000000	40.147888
1880.000000	42.811807
1870.000000	43.739575
1860.000000	43.973390
1850.000000	43.755668
1840.000000	43.255018
1830.000000	42.917223
1820.000000	42.441701
1810.000000	42.097846
1800.000000	41.848094
1790.000000	41.518119
1780.000000	41.115386
1770.000000	40.748791
1760.000000	40.268888
1750.000000	39.861081
1740.000000	40.348235
1730.000000	41.449530
1720.000000	42.211344
1710.000000	42.486985
1700.000000	43.285822
1690.000000	45.124970
1680.000000	46.759725
1670.000000	47.373750
1660.000000	47.523600
1650.000000	47.200435
1640.000000	46.624283
1630.000000	45.972211
1620.000000	45.178677
1610.000000	44.395450
1600.000000	43.746474
1590.000000	43.129672
1580.000000	42.597755
1570.000000	42.235884
1560.000000	41.751638
1550.000000	40.760496
1540.000000	39.814484
1530.000000	39.246466
1520.000000	38.885867
1510.000000	38.670711
1500.000000	38.699361
1490.000000	38.901018
1480.000000	39.210391
1470.000000	39.701890
1460.000000	40.494128
1450.000000	41.690604
1440.000000	43.463645
1430.000000	45.858268
1420.000000	48.797573
1410.000000	51.597116
1400.000000	53.760398
1390.000000	55.087528
1380.000000	55.830625
1370.000000	56.573730
1360.000000	57.272336
1350.000000	57.926441
1340.000000	58.440051
1330.000000	58.892168
1320.000000	59.282388
1310.000000	59.474710
1300.000000	59.459365
1290.000000	59.391223
1280.000000	59.391172
1270.000000	59.450035
1260.000000	59.414474
1250.000000	59.284659
1240.000000	59.135841
1230.000000	58.952597
1220.000000	58.533959
1210.000000	58.205717
1200.000000	58.114078
1190.000000	58.441629
1180.000000	59.085021
1170.000000	59.880343
1160.000000	60.534695
1150.000000	61.046945
1140.000000	61.392197
1130.000000	61.539423
1120.000000	61.554235
1110.000000	61.623452
1100.000000	61.664232
1090.000000	61.665950
1080.000000	61.569663
1070.000000	61.489771
1060.000000	61.425272
1050.000000	61.352258
1040.000000	61.280722
1030.000000	61.231008
1020.000000	61.229952
1010.000000	61.311796
1000.000000	61.367640
990.000000	61.422729
980.000000	61.470930
970.000000	61.586052
960.000000	61.683869
950.000000	61.723304
940.000000	61.701350
930.000000	61.692539
920.000000	61.652668
910.000000	61.630133
900.000000	61.806472
890.000000	61.725029
880.000000	61.689975
870.000000	61.619890
860.000000	61.537783
850.000000	60.703062
840.000000	60.500721
830.000000	59.932645
820.000000	59.564170
810.000000	59.483176
800.000000	59.123211
790.000000	58.668140
780.000000	58.430103
770.000000	58.026637
760.000000	57.479990
750.000000	56.845924
740.000000	56.309540
730.000000	55.715395
720.000000	55.102105
710.000000	54.354412
700.000000	53.708660
690.000000	52.854659
680.000000	51.815610
670.000000	50.932650
660.000000	49.985286
650.000000	49.011726
640.000000	47.908375
630.000000	46.701203
620.000000	45.598717
610.000000	44.286112
600.000000	42.999930
590.000000	41.583061
580.000000	40.062542
570.000000	38.595605
560.000000	37.031014
550.000000	35.473577
540.000000	33.888552
530.000000	32.350344
520.000000	30.742660
510.000000	29.084647
500.000000	27.542438
490.000000	25.971194
480.000000	24.459237
470.000000	22.892396
460.000000	21.437547
450.000000	19.841184
440.000000	18.330931
430.000000	16.798692
420.000000	15.280260
410.000000	13.825613
400.000000	12.405514
390.000000	11.135284
380.000000	9.955337
370.000000	8.769482
360.000000	7.808885
350.000000	6.862755
340.000000	6.147567
330.000000	5.407249
320.000000	5.261341
310.000000	4.609016
300.000000	4.300914
290.000000	3.949440
280.000000	3.862119
270.000000	4.084726
260.000000	4.614562
250.000000	4.845963
