PE UV       SUBTECH     SPECTRUM    ASCII       PEDS        4.00        
   -1
chevre_PC2_chair_1.Sample.asc
23/09/14
11:39:29.00
23/09/14
11:39:29.00
Administrator

250.000000
1
Lambda 750
750N8071901
PerkinElmer UV WinLab 6.0.4.0738 / 1.61.00 Lambda 900

0
0
3350/servo 860.8/2
0
0
UV/VIS
1
1
1
CommonBeamDepol,150mm sphere / downward view
0
0
0
0
Program
Program
3350/servo 860.8/2
3350/0.2 860.8/0.2
3350/0.2 860.8/0.2
0
1
 
 
 
0
 
860.8
319.2
860.8
Front
100
on
 
 
0
0
0
 
0
 
 
 
0
 
 
0
0
0
0
0
 
 
 
 
0
0


0
0
#HDR
-1
-1
#GR
nm
%R
1.0
0.0
2500.000000
-10.000000
226
8
63.964216
13.580951
#DATA
2500.000000	26.007771
2490.000000	26.543209
2480.000000	26.716561
2470.000000	26.806765
2460.000000	28.056279
2450.000000	29.963089
2440.000000	29.402714
2430.000000	30.525260
2420.000000	31.356438
2410.000000	30.865292
2400.000000	30.892260
2390.000000	31.200399
2380.000000	31.766932
2370.000000	31.123457
2360.000000	31.475115
2350.000000	31.883554
2340.000000	31.444388
2330.000000	31.449767
2320.000000	30.540733
2310.000000	30.046422
2300.000000	29.728352
2290.000000	29.525323
2280.000000	30.669816
2270.000000	31.959677
2260.000000	34.052826
2250.000000	34.765495
2240.000000	35.098855
2230.000000	34.876860
2220.000000	34.332595
2210.000000	33.470352
2200.000000	33.125739
2190.000000	33.010798
2180.000000	33.765971
2170.000000	35.304979
2160.000000	36.396549
2150.000000	37.501821
2140.000000	37.950681
2130.000000	38.018654
2120.000000	38.079271
2110.000000	38.169713
2100.000000	37.864024
2090.000000	36.870643
2080.000000	35.473215
2070.000000	34.057462
2060.000000	33.476548
2050.000000	33.790756
2040.000000	34.434143
2030.000000	34.351161
2020.000000	33.532099
2010.000000	32.405187
2000.000000	31.250108
1990.000000	30.117893
1980.000000	29.089240
1970.000000	28.151463
1960.000000	27.790690
1950.000000	28.515776
1940.000000	30.478242
1930.000000	33.330253
1920.000000	37.508691
1910.000000	42.118100
1900.000000	46.056206
1890.000000	48.991916
1880.000000	50.728875
1870.000000	51.406475
1860.000000	51.466565
1850.000000	51.271504
1840.000000	51.017996
1830.000000	50.668370
1820.000000	50.386491
1810.000000	50.145095
1800.000000	49.944328
1790.000000	49.698337
1780.000000	49.406452
1770.000000	49.152500
1760.000000	48.876611
1750.000000	48.577156
1740.000000	48.806530
1730.000000	49.632794
1720.000000	50.180030
1710.000000	50.340258
1700.000000	50.981220
1690.000000	52.121009
1680.000000	53.155377
1670.000000	53.520450
1660.000000	53.702115
1650.000000	53.441889
1640.000000	53.114307
1630.000000	52.676545
1620.000000	52.184383
1610.000000	51.691581
1600.000000	51.248298
1590.000000	50.878256
1580.000000	50.526500
1570.000000	50.309105
1560.000000	49.932637
1550.000000	49.231494
1540.000000	48.588996
1530.000000	48.211370
1520.000000	47.966541
1510.000000	47.839016
1500.000000	47.887609
1490.000000	48.079172
1480.000000	48.322705
1470.000000	48.659796
1460.000000	49.241435
1450.000000	50.065999
1440.000000	51.221400
1430.000000	52.748783
1420.000000	54.548531
1410.000000	56.216259
1400.000000	57.412816
1390.000000	58.119108
1380.000000	58.559527
1370.000000	58.983986
1360.000000	59.310651
1350.000000	59.643000
1340.000000	59.964840
1330.000000	60.318953
1320.000000	60.573895
1310.000000	60.714384
1300.000000	60.698953
1290.000000	60.641127
1280.000000	60.629769
1270.000000	60.614854
1260.000000	60.610295
1250.000000	60.591901
1240.000000	60.523114
1230.000000	60.366154
1220.000000	60.115682
1210.000000	59.981423
1200.000000	59.977051
1190.000000	60.190310
1180.000000	60.574809
1170.000000	61.042000
1160.000000	61.457116
1150.000000	61.731007
1140.000000	61.927904
1130.000000	62.023815
1120.000000	62.101572
1110.000000	62.156601
1100.000000	62.189889
1090.000000	62.157983
1080.000000	62.153727
1070.000000	62.182679
1060.000000	62.183365
1050.000000	62.186549
1040.000000	62.173519
1030.000000	62.136847
1020.000000	62.188316
1010.000000	62.300660
1000.000000	62.380520
990.000000	62.481699
980.000000	62.620023
970.000000	62.783335
960.000000	62.925598
950.000000	62.964545
940.000000	63.074048
930.000000	63.169985
920.000000	63.271908
910.000000	63.460950
900.000000	63.615549
890.000000	63.646082
880.000000	63.856311
870.000000	63.944767
860.000000	63.964216
850.000000	63.290785
840.000000	63.408294
830.000000	63.214508
820.000000	63.162236
810.000000	62.995506
800.000000	63.024679
790.000000	63.298459
780.000000	63.126832
770.000000	63.259402
760.000000	63.039444
750.000000	63.079921
740.000000	63.053286
730.000000	62.992216
720.000000	62.886357
710.000000	62.874734
700.000000	62.849326
690.000000	62.783260
680.000000	62.665180
670.000000	62.443111
660.000000	62.383384
650.000000	62.134612
640.000000	62.020280
630.000000	61.782095
620.000000	61.597054
610.000000	61.361768
600.000000	61.042081
590.000000	60.817800
580.000000	60.466134
570.000000	60.151744
560.000000	59.826147
550.000000	59.450080
540.000000	58.992678
530.000000	58.525126
520.000000	58.046130
510.000000	57.405861
500.000000	56.938158
490.000000	56.289918
480.000000	55.716085
470.000000	54.924619
460.000000	53.848910
450.000000	52.982352
440.000000	51.830046
430.000000	50.421954
420.000000	48.773673
410.000000	46.832449
400.000000	44.487537
390.000000	42.175801
380.000000	39.597736
370.000000	36.625760
360.000000	33.934326
350.000000	30.962671
340.000000	28.530987
330.000000	25.838168
320.000000	23.531311
310.000000	21.583830
300.000000	20.113368
290.000000	16.217515
280.000000	13.580951
270.000000	13.603869
260.000000	14.037757
250.000000	14.690390
