PE UV       SUBTECH     SPECTRUM    ASCII       PEDS        4.00        
   -1
chevre1_chair_1.Sample.asc
23/09/14
10:28:25.00
23/09/14
10:28:25.00
Administrator

250.000000
1
Lambda 750
750N8071901
PerkinElmer UV WinLab 6.0.4.0738 / 1.61.00 Lambda 900

0
0
3350/servo 860.8/2
0
0
UV/VIS
1
1
1
CommonBeamDepol,150mm sphere / downward view
0
0
0
0
Program
Program
3350/servo 860.8/2
3350/0.2 860.8/0.2
3350/0.2 860.8/0.2
0
1
 
 
 
0
 
860.8
319.2
860.8
Front
100
on
 
 
0
0
0
 
0
 
 
 
0
 
 
0
0
0
0
0
 
 
 
 
0
0


0
0
#HDR
-1
-1
#GR
nm
%R
1.0
0.0
2500.000000
-10.000000
226
8
64.640104
21.075542
#DATA
2500.000000	21.075542
2490.000000	22.310087
2480.000000	22.174631
2470.000000	22.654666
2460.000000	23.599544
2450.000000	24.810399
2440.000000	24.744986
2430.000000	25.531173
2420.000000	26.470433
2410.000000	26.427583
2400.000000	26.120181
2390.000000	26.059613
2380.000000	26.749366
2370.000000	26.145217
2360.000000	26.287202
2350.000000	26.761203
2340.000000	26.839838
2330.000000	25.980497
2320.000000	25.546476
2310.000000	25.129173
2300.000000	24.724608
2290.000000	25.003643
2280.000000	25.776349
2270.000000	26.973289
2260.000000	28.631532
2250.000000	29.357334
2240.000000	29.933974
2230.000000	29.227443
2220.000000	29.175458
2210.000000	28.112426
2200.000000	27.855118
2190.000000	27.783642
2180.000000	28.325757
2170.000000	29.864415
2160.000000	31.078411
2150.000000	31.939536
2140.000000	32.309014
2130.000000	32.592801
2120.000000	32.700549
2110.000000	32.837384
2100.000000	32.390162
2090.000000	31.557325
2080.000000	30.361247
2070.000000	29.047586
2060.000000	28.478282
2050.000000	28.893911
2040.000000	29.321373
2030.000000	29.184290
2020.000000	28.419764
2010.000000	27.424329
2000.000000	26.431662
1990.000000	25.475171
1980.000000	24.644422
1970.000000	23.932885
1960.000000	23.685109
1950.000000	24.357189
1940.000000	26.056027
1930.000000	28.733940
1920.000000	32.701509
1910.000000	37.596913
1900.000000	41.767878
1890.000000	45.260299
1880.000000	47.458984
1870.000000	48.321273
1860.000000	48.373345
1850.000000	48.052413
1840.000000	47.660960
1830.000000	47.281120
1820.000000	46.956497
1810.000000	46.639675
1800.000000	46.455711
1790.000000	46.268364
1780.000000	45.933871
1770.000000	45.552646
1760.000000	45.203220
1750.000000	44.899005
1740.000000	45.219823
1730.000000	46.121068
1720.000000	46.763170
1710.000000	46.950027
1700.000000	47.662316
1690.000000	49.108887
1680.000000	50.461048
1670.000000	50.983801
1660.000000	51.108904
1650.000000	50.798708
1640.000000	50.309587
1630.000000	49.700929
1620.000000	49.017485
1610.000000	48.368645
1600.000000	47.790649
1590.000000	47.290393
1580.000000	46.812496
1570.000000	46.509974
1560.000000	46.091410
1550.000000	45.219809
1540.000000	44.462823
1530.000000	43.984512
1520.000000	43.694341
1510.000000	43.526325
1500.000000	43.534355
1490.000000	43.687626
1480.000000	43.919684
1470.000000	44.314018
1460.000000	44.974963
1450.000000	45.995518
1440.000000	47.420757
1430.000000	49.406020
1420.000000	51.792126
1410.000000	54.093559
1400.000000	55.793899
1390.000000	56.846495
1380.000000	57.486482
1370.000000	58.084029
1360.000000	58.664981
1350.000000	59.221249
1340.000000	59.648169
1330.000000	60.109340
1320.000000	60.475392
1310.000000	60.653212
1300.000000	60.657991
1290.000000	60.586347
1280.000000	60.557691
1270.000000	60.569415
1260.000000	60.555904
1250.000000	60.472765
1240.000000	60.335013
1230.000000	60.103667
1220.000000	59.750592
1210.000000	59.511437
1200.000000	59.440210
1190.000000	59.749936
1180.000000	60.297369
1170.000000	61.002088
1160.000000	61.627152
1150.000000	62.066321
1140.000000	62.352660
1130.000000	62.476429
1120.000000	62.577386
1110.000000	62.656752
1100.000000	62.659198
1090.000000	62.630081
1080.000000	62.600955
1070.000000	62.572458
1060.000000	62.522743
1050.000000	62.512248
1040.000000	62.469088
1030.000000	62.433816
1020.000000	62.490834
1010.000000	62.592128
1000.000000	62.718443
990.000000	62.839872
980.000000	62.981785
970.000000	63.182782
960.000000	63.379798
950.000000	63.426939
940.000000	63.587635
930.000000	63.634382
920.000000	63.754209
910.000000	63.964135
900.000000	64.194623
890.000000	64.281558
880.000000	64.382713
870.000000	64.640104
860.000000	64.443837
850.000000	63.936276
840.000000	63.930038
830.000000	63.976668
820.000000	63.916765
810.000000	63.778225
800.000000	63.951168
790.000000	63.878903
780.000000	64.040804
770.000000	64.059618
760.000000	63.831877
750.000000	63.916918
740.000000	63.938562
730.000000	64.057617
720.000000	63.960672
710.000000	63.953737
700.000000	63.950144
690.000000	64.016595
680.000000	63.785330
670.000000	63.729879
660.000000	63.768781
650.000000	63.596646
640.000000	63.549490
630.000000	63.373713
620.000000	63.340268
610.000000	63.222439
600.000000	63.062419
590.000000	62.923747
580.000000	62.724746
570.000000	62.530599
560.000000	62.423893
550.000000	62.133693
540.000000	61.884892
530.000000	61.586360
520.000000	61.341071
510.000000	60.933546
500.000000	60.535683
490.000000	60.024891
480.000000	59.616765
470.000000	58.905422
460.000000	57.991973
450.000000	57.144233
440.000000	56.166738
430.000000	54.935200
420.000000	53.687376
410.000000	52.476130
400.000000	51.321855
390.000000	50.014745
380.000000	48.376673
370.000000	46.571554
360.000000	45.110690
350.000000	43.231874
340.000000	41.336464
330.000000	39.405339
320.000000	37.094585
310.000000	35.997356
300.000000	33.039606
290.000000	27.007510
280.000000	22.922540
270.000000	23.930180
260.000000	25.196625
250.000000	24.859607
