PE UV       SUBTECH     SPECTRUM    ASCII       PEDS        4.00        
   -1
chevre2_fleur_2.Sample.asc
23/09/14
10:53:00.00
23/09/14
10:53:00.00
Administrator

250.000000
1
Lambda 750
750N8071901
PerkinElmer UV WinLab 6.0.4.0738 / 1.61.00 Lambda 900

0
0
3350/servo 860.8/2
0
0
UV/VIS
1
1
1
CommonBeamDepol,150mm sphere / downward view
0
0
0
0
Program
Program
3350/servo 860.8/2
3350/0.2 860.8/0.2
3350/0.2 860.8/0.2
0
1
 
 
 
0
 
860.8
319.2
860.8
Front
100
on
 
 
0
0
0
 
0
 
 
 
0
 
 
0
0
0
0
0
 
 
 
 
0
0


0
0
#HDR
-1
-1
#GR
nm
%R
1.0
0.0
2500.000000
-10.000000
226
8
63.908287
8.764977
#DATA
2500.000000	25.772811
2490.000000	26.675235
2480.000000	27.987040
2470.000000	27.984858
2460.000000	28.636468
2450.000000	29.091935
2440.000000	29.864168
2430.000000	30.231117
2420.000000	31.474209
2410.000000	31.294695
2400.000000	31.379526
2390.000000	31.455787
2380.000000	32.114228
2370.000000	31.296158
2360.000000	31.499389
2350.000000	31.578357
2340.000000	31.306050
2330.000000	31.068822
2320.000000	30.408449
2310.000000	30.263030
2300.000000	30.054204
2290.000000	30.413195
2280.000000	31.243454
2270.000000	32.371839
2260.000000	34.271249
2250.000000	35.049583
2240.000000	35.352977
2230.000000	35.017082
2220.000000	34.541201
2210.000000	33.952701
2200.000000	33.596125
2190.000000	33.332792
2180.000000	34.399303
2170.000000	35.638724
2160.000000	36.798668
2150.000000	37.749404
2140.000000	38.081605
2130.000000	38.341936
2120.000000	38.409919
2110.000000	38.500729
2100.000000	37.955470
2090.000000	37.194952
2080.000000	36.041020
2070.000000	34.923018
2060.000000	34.517287
2050.000000	34.818259
2040.000000	35.254651
2030.000000	35.091903
2020.000000	34.359026
2010.000000	33.310572
2000.000000	32.288179
1990.000000	31.246569
1980.000000	30.437748
1970.000000	29.638671
1960.000000	29.410805
1950.000000	30.041919
1940.000000	31.896540
1930.000000	34.546538
1920.000000	38.297902
1910.000000	42.439191
1900.000000	45.834501
1890.000000	48.419276
1880.000000	49.859374
1870.000000	50.426539
1860.000000	50.489319
1850.000000	50.178058
1840.000000	49.930091
1830.000000	49.645578
1820.000000	49.382353
1810.000000	49.243362
1800.000000	49.131918
1790.000000	48.945602
1780.000000	48.693978
1770.000000	48.421504
1760.000000	48.063558
1750.000000	47.778391
1740.000000	47.996139
1730.000000	48.786364
1720.000000	49.308640
1710.000000	49.552139
1700.000000	50.254887
1690.000000	51.332914
1680.000000	52.331839
1670.000000	52.721705
1660.000000	52.874657
1650.000000	52.642054
1640.000000	52.349880
1630.000000	51.955864
1620.000000	51.507550
1610.000000	51.083326
1600.000000	50.684188
1590.000000	50.382544
1580.000000	50.087982
1570.000000	49.881039
1560.000000	49.541623
1550.000000	48.928240
1540.000000	48.369233
1530.000000	48.048064
1520.000000	47.852116
1510.000000	47.803724
1500.000000	47.863727
1490.000000	48.011090
1480.000000	48.214213
1470.000000	48.479361
1460.000000	48.993459
1450.000000	49.731801
1440.000000	50.766518
1430.000000	52.208541
1420.000000	53.868289
1410.000000	55.468016
1400.000000	56.640303
1390.000000	57.393174
1380.000000	57.902889
1370.000000	58.334023
1360.000000	58.747768
1350.000000	59.123889
1340.000000	59.453376
1330.000000	59.858606
1320.000000	60.147259
1310.000000	60.290953
1300.000000	60.259541
1290.000000	60.210440
1280.000000	60.187550
1270.000000	60.199780
1260.000000	60.185731
1250.000000	60.135211
1240.000000	60.035381
1230.000000	59.803156
1220.000000	59.560170
1210.000000	59.401970
1200.000000	59.404169
1190.000000	59.689865
1180.000000	60.139402
1170.000000	60.657227
1160.000000	61.139974
1150.000000	61.466121
1140.000000	61.747967
1130.000000	61.833367
1120.000000	61.912620
1110.000000	61.995117
1100.000000	62.010456
1090.000000	61.986754
1080.000000	61.994373
1070.000000	61.989596
1060.000000	61.951484
1050.000000	61.964692
1040.000000	61.946923
1030.000000	61.931261
1020.000000	61.985277
1010.000000	62.087970
1000.000000	62.175226
990.000000	62.299927
980.000000	62.441163
970.000000	62.585677
960.000000	62.737671
950.000000	62.790209
940.000000	62.923450
930.000000	62.971071
920.000000	63.125155
910.000000	63.327115
900.000000	63.426906
890.000000	63.502761
880.000000	63.798891
870.000000	63.908287
860.000000	63.741956
850.000000	62.873054
840.000000	63.272131
830.000000	63.034910
820.000000	62.837527
810.000000	62.763299
800.000000	62.823365
790.000000	62.828398
780.000000	62.868249
770.000000	62.848126
760.000000	62.668348
750.000000	62.707566
740.000000	62.616602
730.000000	62.694431
720.000000	62.442157
710.000000	62.461090
700.000000	62.366930
690.000000	62.292092
680.000000	62.125493
670.000000	62.098750
660.000000	61.990854
650.000000	61.730811
640.000000	61.490412
630.000000	61.428552
620.000000	61.208096
610.000000	60.977002
600.000000	60.657870
590.000000	60.449305
580.000000	60.182926
570.000000	59.812281
560.000000	59.514715
550.000000	59.162754
540.000000	58.681513
530.000000	58.299128
520.000000	57.824618
510.000000	57.287733
500.000000	56.716651
490.000000	55.936692
480.000000	55.246584
470.000000	54.346967
460.000000	53.134148
450.000000	51.751536
440.000000	50.296832
430.000000	48.532181
420.000000	46.693141
410.000000	45.178452
400.000000	43.886066
390.000000	42.410719
380.000000	40.394935
370.000000	38.296268
360.000000	35.937388
350.000000	33.562312
340.000000	30.764452
330.000000	27.960078
320.000000	25.311154
310.000000	22.788089
300.000000	17.267158
290.000000	10.684840
280.000000	8.764977
270.000000	8.879312
260.000000	9.225734
250.000000	9.602234
