PE UV       SUBTECH     SPECTRUM    ASCII       PEDS        4.00        
   -1
chevre2_chair_1.Sample.asc
23/09/14
10:44:09.00
23/09/14
10:44:09.00
Administrator

250.000000
1
Lambda 750
750N8071901
PerkinElmer UV WinLab 6.0.4.0738 / 1.61.00 Lambda 900

0
0
3350/servo 860.8/2
0
0
UV/VIS
1
1
1
CommonBeamDepol,150mm sphere / downward view
0
0
0
0
Program
Program
3350/servo 860.8/2
3350/0.2 860.8/0.2
3350/0.2 860.8/0.2
0
1
 
 
 
0
 
860.8
319.2
860.8
Front
100
on
 
 
0
0
0
 
0
 
 
 
0
 
 
0
0
0
0
0
 
 
 
 
0
0


0
0
#HDR
-1
-1
#GR
nm
%R
1.0
0.0
2500.000000
-10.000000
226
8
63.953935
4.195193
#DATA
2500.000000	4.195193
2490.000000	5.471906
2480.000000	6.187051
2470.000000	6.506341
2460.000000	6.926094
2450.000000	7.876204
2440.000000	6.935326
2430.000000	8.466632
2420.000000	9.799779
2410.000000	8.349423
2400.000000	8.719897
2390.000000	9.443441
2380.000000	9.398405
2370.000000	9.378344
2360.000000	9.380464
2350.000000	10.177171
2340.000000	9.275227
2330.000000	9.510188
2320.000000	8.821906
2310.000000	8.373861
2300.000000	8.165634
2290.000000	8.741167
2280.000000	9.179070
2270.000000	10.119876
2260.000000	12.041261
2250.000000	12.750389
2240.000000	13.046495
2230.000000	12.607028
2220.000000	12.194005
2210.000000	11.385497
2200.000000	11.204477
2190.000000	11.064844
2180.000000	11.547402
2170.000000	12.842847
2160.000000	13.787403
2150.000000	14.673467
2140.000000	15.199851
2130.000000	15.520666
2120.000000	16.083371
2110.000000	16.070725
2100.000000	15.716750
2090.000000	14.594050
2080.000000	13.254352
2070.000000	12.094294
2060.000000	11.701288
2050.000000	12.114821
2040.000000	12.550978
2030.000000	12.560494
2020.000000	11.920987
2010.000000	11.028156
2000.000000	10.079236
1990.000000	9.244677
1980.000000	8.618771
1970.000000	8.131596
1960.000000	7.978202
1950.000000	8.467791
1940.000000	9.924282
1930.000000	12.484822
1920.000000	16.619537
1910.000000	22.544285
1900.000000	27.981920
1890.000000	32.624928
1880.000000	35.613654
1870.000000	36.838361
1860.000000	36.926527
1850.000000	36.537764
1840.000000	36.080775
1830.000000	35.490527
1820.000000	34.985066
1810.000000	34.548245
1800.000000	34.280056
1790.000000	33.847536
1780.000000	33.319677
1770.000000	32.754228
1760.000000	32.150628
1750.000000	31.623509
1740.000000	32.007004
1730.000000	33.375981
1720.000000	34.332449
1710.000000	34.706107
1700.000000	35.918174
1690.000000	38.251877
1680.000000	40.335786
1670.000000	41.164762
1660.000000	41.358829
1650.000000	40.829055
1640.000000	40.074138
1630.000000	39.167697
1620.000000	38.141197
1610.000000	37.101816
1600.000000	36.269467
1590.000000	35.494160
1580.000000	34.825493
1570.000000	34.341721
1560.000000	33.708439
1550.000000	32.495722
1540.000000	31.391270
1530.000000	30.759303
1520.000000	30.333025
1510.000000	30.103542
1500.000000	30.103887
1490.000000	30.287825
1480.000000	30.601279
1470.000000	31.112023
1460.000000	32.039476
1450.000000	33.449342
1440.000000	35.522806
1430.000000	38.481794
1420.000000	42.220853
1410.000000	45.961599
1400.000000	48.951962
1390.000000	50.880991
1380.000000	52.046407
1370.000000	53.288320
1360.000000	54.476123
1350.000000	55.551566
1340.000000	56.397678
1330.000000	57.108228
1320.000000	57.670003
1310.000000	57.915857
1300.000000	57.893947
1290.000000	57.837673
1280.000000	57.857214
1270.000000	57.916983
1260.000000	57.857917
1250.000000	57.553920
1240.000000	57.196540
1230.000000	56.762550
1220.000000	56.089722
1210.000000	55.543847
1200.000000	55.354274
1190.000000	55.911546
1180.000000	57.110640
1170.000000	58.547204
1160.000000	59.777592
1150.000000	60.678882
1140.000000	61.356486
1130.000000	61.621133
1120.000000	61.760917
1110.000000	61.896438
1100.000000	61.915597
1090.000000	61.851928
1080.000000	61.767345
1070.000000	61.684542
1060.000000	61.530866
1050.000000	61.474859
1040.000000	61.401698
1030.000000	61.336402
1020.000000	61.403324
1010.000000	61.556194
1000.000000	61.696341
990.000000	61.866675
980.000000	62.103856
970.000000	62.422253
960.000000	62.647173
950.000000	62.788909
940.000000	62.900925
930.000000	62.931150
920.000000	63.051532
910.000000	63.238711
900.000000	63.456924
890.000000	63.651842
880.000000	63.824638
870.000000	63.953935
860.000000	63.807945
850.000000	63.275334
840.000000	63.305109
830.000000	63.323612
820.000000	63.155339
810.000000	63.052477
800.000000	63.045530
790.000000	62.976936
780.000000	62.930848
770.000000	62.885787
760.000000	62.695062
750.000000	62.779513
740.000000	62.568775
730.000000	62.591848
720.000000	62.415149
710.000000	62.209377
700.000000	62.176477
690.000000	61.940560
680.000000	61.705353
670.000000	61.430199
660.000000	61.164619
650.000000	60.873083
640.000000	60.502821
630.000000	60.112309
620.000000	59.788965
610.000000	59.276361
600.000000	58.804911
590.000000	58.238432
580.000000	57.663516
570.000000	57.132893
560.000000	56.492578
550.000000	55.793867
540.000000	54.928338
530.000000	54.113689
520.000000	53.237300
510.000000	52.117409
500.000000	51.044631
490.000000	49.728949
480.000000	48.417436
470.000000	46.695570
460.000000	44.742894
450.000000	42.661571
440.000000	40.596905
430.000000	38.320374
420.000000	36.035966
410.000000	34.091075
400.000000	32.456481
390.000000	30.672023
380.000000	28.793397
370.000000	26.917628
360.000000	25.497656
350.000000	24.094878
340.000000	22.504734
330.000000	21.231754
320.000000	19.976038
310.000000	19.099905
300.000000	17.795468
290.000000	15.754740
280.000000	14.531319
270.000000	15.357527
260.000000	16.459988
250.000000	16.672685
