PE UV       SUBTECH     SPECTRUM    ASCII       PEDS        4.00        
   -1
veau1_chair_2.Sample.asc
23/09/14
11:14:27.00
23/09/14
11:14:27.00
Administrator

250.000000
1
Lambda 750
750N8071901
PerkinElmer UV WinLab 6.0.4.0738 / 1.61.00 Lambda 900

0
0
3350/servo 860.8/2
0
0
UV/VIS
1
1
1
CommonBeamDepol,150mm sphere / downward view
0
0
0
0
Program
Program
3350/servo 860.8/2
3350/0.2 860.8/0.2
3350/0.2 860.8/0.2
0
1
 
 
 
0
 
860.8
319.2
860.8
Front
100
on
 
 
0
0
0
 
0
 
 
 
0
 
 
0
0
0
0
0
 
 
 
 
0
0


0
0
#HDR
-1
-1
#GR
nm
%R
1.0
0.0
2500.000000
-10.000000
226
8
52.987103
8.458772
#DATA
2500.000000	8.458772
2490.000000	9.711915
2480.000000	11.023489
2470.000000	10.254514
2460.000000	11.410179
2450.000000	12.073905
2440.000000	11.456454
2430.000000	12.834504
2420.000000	13.574151
2410.000000	12.997004
2400.000000	13.100477
2390.000000	13.420818
2380.000000	13.782290
2370.000000	13.914973
2360.000000	13.728439
2350.000000	14.278712
2340.000000	14.407283
2330.000000	13.801746
2320.000000	13.097036
2310.000000	12.762168
2300.000000	12.825376
2290.000000	12.534063
2280.000000	13.313841
2270.000000	14.261392
2260.000000	16.257174
2250.000000	17.072957
2240.000000	17.364517
2230.000000	17.238696
2220.000000	16.732359
2210.000000	15.747039
2200.000000	15.367435
2190.000000	15.397366
2180.000000	15.790849
2170.000000	17.112530
2160.000000	18.075151
2150.000000	18.992513
2140.000000	19.428738
2130.000000	19.755904
2120.000000	20.068168
2110.000000	19.919416
2100.000000	19.580086
2090.000000	18.622673
2080.000000	17.666604
2070.000000	16.299768
2060.000000	15.925373
2050.000000	16.255899
2040.000000	16.738775
2030.000000	16.680155
2020.000000	16.006156
2010.000000	15.057135
2000.000000	14.142966
1990.000000	13.321283
1980.000000	12.531232
1970.000000	11.825215
1960.000000	11.510630
1950.000000	12.164759
1940.000000	13.695931
1930.000000	16.206506
1920.000000	20.005575
1910.000000	24.898485
1900.000000	29.348668
1890.000000	32.881810
1880.000000	35.060737
1870.000000	35.957640
1860.000000	36.056793
1850.000000	35.772223
1840.000000	35.476074
1830.000000	35.112441
1820.000000	34.746097
1810.000000	34.458296
1800.000000	34.253801
1790.000000	33.971722
1780.000000	33.639570
1770.000000	33.216148
1760.000000	32.798012
1750.000000	32.521649
1740.000000	32.762185
1730.000000	33.741412
1720.000000	34.379324
1710.000000	34.590450
1700.000000	35.394442
1690.000000	36.926153
1680.000000	38.338338
1670.000000	38.916763
1660.000000	39.036205
1650.000000	38.725073
1640.000000	38.221762
1630.000000	37.639863
1620.000000	36.929059
1610.000000	36.283785
1600.000000	35.672180
1590.000000	35.168681
1580.000000	34.666890
1570.000000	34.376644
1560.000000	33.913684
1550.000000	33.026765
1540.000000	32.253986
1530.000000	31.760577
1520.000000	31.457967
1510.000000	31.282473
1500.000000	31.289675
1490.000000	31.408735
1480.000000	31.641814
1470.000000	32.012065
1460.000000	32.703440
1450.000000	33.723232
1440.000000	35.207291
1430.000000	37.249824
1420.000000	39.751465
1410.000000	42.145956
1400.000000	43.938603
1390.000000	45.041253
1380.000000	45.728627
1370.000000	46.340561
1360.000000	46.956122
1350.000000	47.522870
1340.000000	47.978520
1330.000000	48.416780
1320.000000	48.845570
1310.000000	49.068960
1300.000000	49.079627
1290.000000	49.022152
1280.000000	48.954343
1270.000000	48.976952
1260.000000	48.975238
1250.000000	48.872586
1240.000000	48.745709
1230.000000	48.485701
1220.000000	48.129705
1210.000000	47.889735
1200.000000	47.841447
1190.000000	48.111682
1180.000000	48.641437
1170.000000	49.359985
1160.000000	49.986808
1150.000000	50.467965
1140.000000	50.772739
1130.000000	50.880262
1120.000000	50.959223
1110.000000	51.024947
1100.000000	51.058933
1090.000000	51.021047
1080.000000	50.973252
1070.000000	50.959071
1060.000000	50.889992
1050.000000	50.857952
1040.000000	50.808357
1030.000000	50.778956
1020.000000	50.849540
1010.000000	50.958685
1000.000000	51.052642
990.000000	51.178222
980.000000	51.323967
970.000000	51.503386
960.000000	51.657295
950.000000	51.788565
940.000000	51.907389
930.000000	51.989587
920.000000	52.042500
910.000000	52.283900
900.000000	52.498759
890.000000	52.541903
880.000000	52.664019
870.000000	52.987103
860.000000	52.798868
850.000000	51.712808
840.000000	52.110900
830.000000	51.827535
820.000000	51.952994
810.000000	51.765346
800.000000	51.897771
790.000000	51.824863
780.000000	51.863010
770.000000	51.738365
760.000000	51.599021
750.000000	51.717643
740.000000	51.522957
730.000000	51.539931
720.000000	51.389562
710.000000	51.303362
700.000000	51.177295
690.000000	51.033274
680.000000	50.766739
670.000000	50.581332
660.000000	50.331004
650.000000	49.995189
640.000000	49.630942
630.000000	49.477975
620.000000	49.343097
610.000000	49.009641
600.000000	48.736540
590.000000	48.479403
580.000000	48.233718
570.000000	48.101843
560.000000	47.935785
550.000000	47.642359
540.000000	47.408968
530.000000	47.209723
520.000000	46.856409
510.000000	46.410560
500.000000	45.904612
490.000000	45.103801
480.000000	44.389743
470.000000	43.433857
460.000000	42.098273
450.000000	40.644339
440.000000	39.203460
430.000000	37.377221
420.000000	35.685667
410.000000	34.286890
400.000000	33.139158
390.000000	32.185524
380.000000	30.786575
370.000000	29.352512
360.000000	27.500717
350.000000	25.493362
340.000000	23.402164
330.000000	21.094984
320.000000	19.034301
310.000000	17.522066
300.000000	15.540558
290.000000	12.001021
280.000000	10.780617
270.000000	11.410220
260.000000	12.011253
250.000000	11.635319
