PE UV       SUBTECH     SPECTRUM    ASCII       PEDS        4.00        
   -1
veau1_fleur_1.Sample.asc
23/09/14
11:17:26.00
23/09/14
11:17:26.00
Administrator

250.000000
1
Lambda 750
750N8071901
PerkinElmer UV WinLab 6.0.4.0738 / 1.61.00 Lambda 900

0
0
3350/servo 860.8/2
0
0
UV/VIS
1
1
1
CommonBeamDepol,150mm sphere / downward view
0
0
0
0
Program
Program
3350/servo 860.8/2
3350/0.2 860.8/0.2
3350/0.2 860.8/0.2
0
1
 
 
 
0
 
860.8
319.2
860.8
Front
100
on
 
 
0
0
0
 
0
 
 
 
0
 
 
0
0
0
0
0
 
 
 
 
0
0


0
0
#HDR
-1
-1
#GR
nm
%R
1.0
0.0
2500.000000
-10.000000
226
8
52.331430
4.243106
#DATA
2500.000000	4.243106
2490.000000	5.412674
2480.000000	5.599654
2470.000000	6.507313
2460.000000	6.503873
2450.000000	7.499970
2440.000000	7.249629
2430.000000	7.565185
2420.000000	9.058141
2410.000000	8.887494
2400.000000	8.440475
2390.000000	8.716105
2380.000000	9.847181
2370.000000	8.897615
2360.000000	9.416382
2350.000000	9.233368
2340.000000	9.267735
2330.000000	8.823577
2320.000000	8.357114
2310.000000	7.946501
2300.000000	7.944125
2290.000000	8.153965
2280.000000	8.781530
2270.000000	9.453198
2260.000000	11.626377
2250.000000	12.252560
2240.000000	12.744200
2230.000000	12.247669
2220.000000	11.879201
2210.000000	11.235313
2200.000000	10.965444
2190.000000	10.591813
2180.000000	11.077275
2170.000000	12.342609
2160.000000	13.105582
2150.000000	14.046194
2140.000000	14.515137
2130.000000	14.677549
2120.000000	15.071046
2110.000000	15.204748
2100.000000	14.580227
2090.000000	13.832209
2080.000000	12.604831
2070.000000	11.222136
2060.000000	10.843618
2050.000000	11.175129
2040.000000	11.645538
2030.000000	11.550245
2020.000000	10.931217
2010.000000	9.952223
2000.000000	9.072876
1990.000000	8.195705
1980.000000	7.518179
1970.000000	6.795441
1960.000000	6.550724
1950.000000	7.169420
1940.000000	8.639469
1930.000000	11.188532
1920.000000	15.060313
1910.000000	20.332276
1900.000000	25.220174
1890.000000	29.231953
1880.000000	31.790846
1870.000000	32.825615
1860.000000	32.934447
1850.000000	32.688393
1840.000000	32.300748
1830.000000	31.886662
1820.000000	31.469565
1810.000000	31.082016
1800.000000	30.829160
1790.000000	30.542392
1780.000000	30.124731
1770.000000	29.631153
1760.000000	29.173632
1750.000000	28.811629
1740.000000	29.114995
1730.000000	30.198480
1720.000000	30.950208
1710.000000	31.213857
1700.000000	32.131476
1690.000000	33.927337
1680.000000	35.563682
1670.000000	36.177855
1660.000000	36.367311
1650.000000	35.963597
1640.000000	35.332784
1630.000000	34.666174
1620.000000	33.802919
1610.000000	33.026211
1600.000000	32.276496
1590.000000	31.656513
1580.000000	31.091664
1570.000000	30.743126
1560.000000	30.178610
1550.000000	29.184398
1540.000000	28.229793
1530.000000	27.689772
1520.000000	27.304138
1510.000000	27.076298
1500.000000	27.045062
1490.000000	27.149513
1480.000000	27.386970
1470.000000	27.814428
1460.000000	28.603812
1450.000000	29.800917
1440.000000	31.530388
1430.000000	33.968400
1420.000000	36.941424
1410.000000	39.826798
1400.000000	42.017102
1390.000000	43.331274
1380.000000	44.169828
1370.000000	44.954191
1360.000000	45.688497
1350.000000	46.373137
1340.000000	46.936704
1330.000000	47.388538
1320.000000	47.737118
1310.000000	47.881253
1300.000000	47.837675
1290.000000	47.808592
1280.000000	47.781172
1270.000000	47.830429
1260.000000	47.790156
1250.000000	47.634961
1240.000000	47.470718
1230.000000	47.245106
1220.000000	46.791185
1210.000000	46.436537
1200.000000	46.306265
1190.000000	46.633703
1180.000000	47.396996
1170.000000	48.251128
1160.000000	49.017791
1150.000000	49.568502
1140.000000	49.950348
1130.000000	50.139526
1120.000000	50.242433
1110.000000	50.321407
1100.000000	50.315747
1090.000000	50.295684
1080.000000	50.271472
1070.000000	50.263310
1060.000000	50.201660
1050.000000	50.209224
1040.000000	50.167923
1030.000000	50.120855
1020.000000	50.191703
1010.000000	50.305838
1000.000000	50.412672
990.000000	50.530876
980.000000	50.709780
970.000000	50.897520
960.000000	51.077242
950.000000	51.174340
940.000000	51.312373
930.000000	51.314785
920.000000	51.458745
910.000000	51.583158
900.000000	51.792942
890.000000	51.969692
880.000000	52.068248
870.000000	52.331430
860.000000	52.101387
850.000000	50.757928
840.000000	50.559526
830.000000	50.435356
820.000000	50.416623
810.000000	50.260003
800.000000	50.334217
790.000000	50.288926
780.000000	50.199146
770.000000	50.309508
760.000000	50.010030
750.000000	50.003626
740.000000	49.875186
730.000000	49.756164
720.000000	49.511105
710.000000	49.305477
700.000000	49.150234
690.000000	48.900023
680.000000	48.504851
670.000000	48.044201
660.000000	47.634675
650.000000	47.115764
640.000000	46.671733
630.000000	46.373005
620.000000	46.025226
610.000000	45.610773
600.000000	45.161300
590.000000	44.755904
580.000000	44.467981
570.000000	44.286208
560.000000	43.957901
550.000000	43.644040
540.000000	43.344050
530.000000	43.078060
520.000000	42.634585
510.000000	41.991198
500.000000	41.292949
490.000000	40.425016
480.000000	39.387262
470.000000	38.029066
460.000000	36.362352
450.000000	34.546361
440.000000	32.632731
430.000000	30.557823
420.000000	28.591081
410.000000	27.090780
400.000000	26.092119
390.000000	25.230011
380.000000	23.996844
370.000000	22.442895
360.000000	20.865781
350.000000	18.587081
340.000000	16.572388
330.000000	14.432907
320.000000	13.021099
310.000000	11.227572
300.000000	9.563024
290.000000	7.201111
280.000000	6.844307
270.000000	7.314170
260.000000	7.824829
250.000000	7.679582
