PE UV       SUBTECH     SPECTRUM    ASCII       PEDS        4.00        
   -1
chevre2_chair_2.Sample.asc
23/09/14
10:47:18.00
23/09/14
10:47:18.00
Administrator

250.000000
1
Lambda 750
750N8071901
PerkinElmer UV WinLab 6.0.4.0738 / 1.61.00 Lambda 900

0
0
3350/servo 860.8/2
0
0
UV/VIS
1
1
1
CommonBeamDepol,150mm sphere / downward view
0
0
0
0
Program
Program
3350/servo 860.8/2
3350/0.2 860.8/0.2
3350/0.2 860.8/0.2
0
1
 
 
 
0
 
860.8
319.2
860.8
Front
100
on
 
 
0
0
0
 
0
 
 
 
0
 
 
0
0
0
0
0
 
 
 
 
0
0


0
0
#HDR
-1
-1
#GR
nm
%R
1.0
0.0
2500.000000
-10.000000
226
8
62.537686
3.596538
#DATA
2500.000000	3.596538
2490.000000	5.399535
2480.000000	6.123117
2470.000000	5.646337
2460.000000	5.978063
2450.000000	7.121578
2440.000000	7.347876
2430.000000	8.387167
2420.000000	9.147485
2410.000000	8.328787
2400.000000	7.612494
2390.000000	8.346859
2380.000000	8.925701
2370.000000	8.721428
2360.000000	8.923535
2350.000000	9.266045
2340.000000	8.499821
2330.000000	8.716020
2320.000000	7.976483
2310.000000	7.626251
2300.000000	7.552190
2290.000000	7.617761
2280.000000	8.433978
2270.000000	9.441130
2260.000000	11.454257
2250.000000	12.230915
2240.000000	12.344476
2230.000000	11.906136
2220.000000	11.665831
2210.000000	10.858983
2200.000000	10.385816
2190.000000	10.466004
2180.000000	10.885435
2170.000000	12.106564
2160.000000	13.114163
2150.000000	14.164929
2140.000000	14.599450
2130.000000	14.991492
2120.000000	15.412860
2110.000000	15.485238
2100.000000	14.946442
2090.000000	13.907258
2080.000000	12.808096
2070.000000	11.432220
2060.000000	11.107151
2050.000000	11.529280
2040.000000	11.967784
2030.000000	11.889904
2020.000000	11.231144
2010.000000	10.296880
2000.000000	9.348574
1990.000000	8.431794
1980.000000	7.824707
1970.000000	7.299995
1960.000000	7.053287
1950.000000	7.717633
1940.000000	9.215622
1930.000000	11.647805
1920.000000	16.096723
1910.000000	21.817781
1900.000000	27.156114
1890.000000	31.739430
1880.000000	34.564910
1870.000000	35.743995
1860.000000	35.878177
1850.000000	35.556623
1840.000000	35.093153
1830.000000	34.566566
1820.000000	34.022343
1810.000000	33.626380
1800.000000	33.302827
1790.000000	32.935731
1780.000000	32.402258
1770.000000	31.861613
1760.000000	31.256463
1750.000000	30.755516
1740.000000	31.120632
1730.000000	32.470368
1720.000000	33.413108
1710.000000	33.781820
1700.000000	34.935451
1690.000000	37.198509
1680.000000	39.257647
1670.000000	40.108129
1660.000000	40.245733
1650.000000	39.747544
1640.000000	39.037429
1630.000000	38.135264
1620.000000	37.112950
1610.000000	36.142044
1600.000000	35.277485
1590.000000	34.552307
1580.000000	33.866692
1570.000000	33.415640
1560.000000	32.791257
1550.000000	31.611612
1540.000000	30.530689
1530.000000	29.881014
1520.000000	29.464871
1510.000000	29.216544
1500.000000	29.220677
1490.000000	29.388665
1480.000000	29.677236
1470.000000	30.189174
1460.000000	31.092081
1450.000000	32.464190
1440.000000	34.505460
1430.000000	37.376646
1420.000000	41.048202
1410.000000	44.750696
1400.000000	47.675392
1390.000000	49.568791
1380.000000	50.734826
1370.000000	51.949042
1360.000000	53.110784
1350.000000	54.182194
1340.000000	55.025578
1330.000000	55.712215
1320.000000	56.235318
1310.000000	56.491202
1300.000000	56.448780
1290.000000	56.412013
1280.000000	56.419687
1270.000000	56.502163
1260.000000	56.415561
1250.000000	56.105588
1240.000000	55.775694
1230.000000	55.347631
1220.000000	54.687447
1210.000000	54.149004
1200.000000	53.973871
1190.000000	54.505000
1180.000000	55.694281
1170.000000	57.105848
1160.000000	58.306530
1150.000000	59.220806
1140.000000	59.883609
1130.000000	60.161969
1120.000000	60.317036
1110.000000	60.420627
1100.000000	60.430057
1090.000000	60.407942
1080.000000	60.323945
1070.000000	60.233166
1060.000000	60.117135
1050.000000	60.057847
1040.000000	59.973559
1030.000000	59.923292
1020.000000	60.011664
1010.000000	60.164588
1000.000000	60.277269
990.000000	60.459921
980.000000	60.718653
970.000000	60.997961
960.000000	61.251127
950.000000	61.407527
940.000000	61.506675
930.000000	61.529439
920.000000	61.596537
910.000000	61.864566
900.000000	62.054315
890.000000	62.277696
880.000000	62.422747
870.000000	62.537686
860.000000	62.352731
850.000000	61.538046
840.000000	61.735444
830.000000	61.630567
820.000000	61.524710
810.000000	61.271005
800.000000	61.489726
790.000000	61.558144
780.000000	61.441854
770.000000	61.204613
760.000000	61.101665
750.000000	61.166071
740.000000	61.023276
730.000000	60.881625
720.000000	60.756747
710.000000	60.599213
700.000000	60.409411
690.000000	60.258896
680.000000	59.903422
670.000000	59.696194
660.000000	59.414785
650.000000	59.071422
640.000000	58.663357
630.000000	58.342088
620.000000	57.965622
610.000000	57.483198
600.000000	56.985757
590.000000	56.384073
580.000000	55.817062
570.000000	55.216671
560.000000	54.569489
550.000000	53.871370
540.000000	53.020548
530.000000	52.222729
520.000000	51.324978
510.000000	50.319060
500.000000	49.162684
490.000000	47.885895
480.000000	46.500305
470.000000	44.850415
460.000000	42.975137
450.000000	40.855442
440.000000	38.747021
430.000000	36.428726
420.000000	34.152595
410.000000	32.278611
400.000000	30.682420
390.000000	28.969620
380.000000	27.082199
370.000000	25.223478
360.000000	23.787524
350.000000	22.312648
340.000000	20.891176
330.000000	19.392442
320.000000	18.460580
310.000000	17.579243
300.000000	15.925657
290.000000	14.113574
280.000000	13.022183
270.000000	13.752319
260.000000	14.864879
250.000000	15.213467
