PE UV       SUBTECH     SPECTRUM    ASCII       PEDS        4.00        
   -1
chevre1_chair_2.Sample.asc
23/09/14
10:31:55.00
23/09/14
10:31:55.00
Administrator

250.000000
1
Lambda 750
750N8071901
PerkinElmer UV WinLab 6.0.4.0738 / 1.61.00 Lambda 900

0
0
3350/servo 860.8/2
0
0
UV/VIS
1
1
1
CommonBeamDepol,150mm sphere / downward view
0
0
0
0
Program
Program
3350/servo 860.8/2
3350/0.2 860.8/0.2
3350/0.2 860.8/0.2
0
1
 
 
 
0
 
860.8
319.2
860.8
Front
100
on
 
 
0
0
0
 
0
 
 
 
0
 
 
0
0
0
0
0
 
 
 
 
0
0


0
0
#HDR
-1
-1
#GR
nm
%R
1.0
0.0
2500.000000
-10.000000
226
8
64.831575
14.293110
#DATA
2500.000000	14.293110
2490.000000	15.583715
2480.000000	15.721367
2470.000000	16.523423
2460.000000	16.806545
2450.000000	18.112313
2440.000000	17.317985
2430.000000	19.212187
2420.000000	19.766061
2410.000000	19.543200
2400.000000	19.563868
2390.000000	19.932604
2380.000000	20.174899
2370.000000	19.226520
2360.000000	19.689947
2350.000000	20.512279
2340.000000	20.276197
2330.000000	20.296112
2320.000000	19.150875
2310.000000	18.525899
2300.000000	18.217034
2290.000000	18.502328
2280.000000	19.076241
2270.000000	20.302158
2260.000000	22.449816
2250.000000	23.270827
2240.000000	23.509026
2230.000000	23.148338
2220.000000	22.906331
2210.000000	21.850137
2200.000000	21.693153
2190.000000	21.433730
2180.000000	22.143989
2170.000000	23.556069
2160.000000	24.655043
2150.000000	25.633417
2140.000000	26.148325
2130.000000	26.335233
2120.000000	26.652183
2110.000000	26.640914
2100.000000	26.206163
2090.000000	25.176456
2080.000000	24.048900
2070.000000	22.537896
2060.000000	22.070763
2050.000000	22.358779
2040.000000	22.915302
2030.000000	22.737877
2020.000000	22.059225
2010.000000	20.962256
2000.000000	19.952454
1990.000000	18.931981
1980.000000	18.201300
1970.000000	17.401759
1960.000000	17.271349
1950.000000	17.841350
1940.000000	19.608138
1930.000000	22.497073
1920.000000	26.746195
1910.000000	32.255832
1900.000000	37.207576
1890.000000	41.270510
1880.000000	43.963423
1870.000000	44.998746
1860.000000	45.060604
1850.000000	44.793314
1840.000000	44.334994
1830.000000	43.849112
1820.000000	43.410068
1810.000000	43.070862
1800.000000	42.778484
1790.000000	42.449625
1780.000000	42.087634
1770.000000	41.679731
1760.000000	41.185886
1750.000000	40.857701
1740.000000	41.116316
1730.000000	42.340218
1720.000000	43.074733
1710.000000	43.291112
1700.000000	44.212641
1690.000000	46.017247
1680.000000	47.674167
1670.000000	48.321638
1660.000000	48.436247
1650.000000	48.026497
1640.000000	47.414928
1630.000000	46.700271
1620.000000	45.827160
1610.000000	44.988800
1600.000000	44.260118
1590.000000	43.642038
1580.000000	43.037516
1570.000000	42.680634
1560.000000	42.142745
1550.000000	41.116196
1540.000000	40.138564
1530.000000	39.576109
1520.000000	39.208648
1510.000000	39.008384
1500.000000	38.988018
1490.000000	39.139533
1480.000000	39.427481
1470.000000	39.873067
1460.000000	40.699015
1450.000000	41.913549
1440.000000	43.688575
1430.000000	46.139691
1420.000000	49.136608
1410.000000	52.008766
1400.000000	54.189335
1390.000000	55.492691
1380.000000	56.305128
1370.000000	57.123720
1360.000000	57.862314
1350.000000	58.560216
1340.000000	59.130691
1330.000000	59.654371
1320.000000	60.015182
1310.000000	60.176773
1300.000000	60.149528
1290.000000	60.088541
1280.000000	60.079434
1270.000000	60.115772
1260.000000	60.077583
1250.000000	59.945523
1240.000000	59.775989
1230.000000	59.490216
1220.000000	59.064002
1210.000000	58.709901
1200.000000	58.611675
1190.000000	58.946300
1180.000000	59.695183
1170.000000	60.585468
1160.000000	61.363931
1150.000000	61.930064
1140.000000	62.312500
1130.000000	62.480285
1120.000000	62.608393
1110.000000	62.658104
1100.000000	62.669173
1090.000000	62.649786
1080.000000	62.607267
1070.000000	62.575244
1060.000000	62.516462
1050.000000	62.492836
1040.000000	62.460991
1030.000000	62.438524
1020.000000	62.480927
1010.000000	62.599976
1000.000000	62.695779
990.000000	62.828017
980.000000	63.030491
970.000000	63.220642
960.000000	63.433233
950.000000	63.543463
940.000000	63.662187
930.000000	63.720763
920.000000	63.806515
910.000000	64.065913
900.000000	64.291740
890.000000	64.343944
880.000000	64.536805
870.000000	64.831575
860.000000	64.727401
850.000000	63.743419
840.000000	63.798031
830.000000	63.881939
820.000000	63.786551
810.000000	63.530490
800.000000	63.907897
790.000000	63.969192
780.000000	63.854773
770.000000	63.978316
760.000000	63.783698
750.000000	63.842711
740.000000	63.934403
730.000000	63.847517
720.000000	63.948024
710.000000	63.891213
700.000000	63.861757
690.000000	63.890760
680.000000	63.688810
670.000000	63.674646
660.000000	63.601475
650.000000	63.490717
640.000000	63.411364
630.000000	63.325231
620.000000	63.213415
610.000000	63.028414
600.000000	62.951638
590.000000	62.682786
580.000000	62.442697
570.000000	62.230260
560.000000	62.062698
550.000000	61.737387
540.000000	61.332589
530.000000	60.985466
520.000000	60.641094
510.000000	60.147982
500.000000	59.556449
490.000000	58.973231
480.000000	58.318288
470.000000	57.468482
460.000000	56.354276
450.000000	55.178856
440.000000	54.045045
430.000000	52.552952
420.000000	50.911468
410.000000	49.421870
400.000000	47.787161
390.000000	46.158179
380.000000	44.208257
370.000000	42.220827
360.000000	40.634121
350.000000	38.688895
340.000000	36.712992
330.000000	34.894689
320.000000	32.768629
310.000000	31.144986
300.000000	27.587613
290.000000	22.634190
280.000000	19.719631
270.000000	20.805106
260.000000	22.039781
250.000000	22.072607
