PE UV       SUBTECH     SPECTRUM    ASCII       PEDS        4.00        
   -1
veau1_chair_1.Sample.asc
23/09/14
11:11:36.00
23/09/14
11:11:36.00
Administrator

250.000000
1
Lambda 750
750N8071901
PerkinElmer UV WinLab 6.0.4.0738 / 1.61.00 Lambda 900

0
0
3350/servo 860.8/2
0
0
UV/VIS
1
1
1
CommonBeamDepol,150mm sphere / downward view
0
0
0
0
Program
Program
3350/servo 860.8/2
3350/0.2 860.8/0.2
3350/0.2 860.8/0.2
0
1
 
 
 
0
 
860.8
319.2
860.8
Front
100
on
 
 
0
0
0
 
0
 
 
 
0
 
 
0
0
0
0
0
 
 
 
 
0
0


0
0
#HDR
-1
-1
#GR
nm
%R
1.0
0.0
2500.000000
-10.000000
226
8
54.397079
8.634135
#DATA
2500.000000	8.634135
2490.000000	9.336391
2480.000000	11.364113
2470.000000	11.451718
2460.000000	11.385520
2450.000000	12.222046
2440.000000	12.216166
2430.000000	13.358408
2420.000000	14.519829
2410.000000	13.800049
2400.000000	13.465927
2390.000000	14.198575
2380.000000	14.766748
2370.000000	14.096717
2360.000000	13.816969
2350.000000	14.611031
2340.000000	14.300327
2330.000000	14.119868
2320.000000	13.748006
2310.000000	13.192239
2300.000000	12.585172
2290.000000	13.018071
2280.000000	13.763747
2270.000000	14.839788
2260.000000	16.624024
2250.000000	17.681175
2240.000000	17.926588
2230.000000	17.302393
2220.000000	17.333388
2210.000000	16.174696
2200.000000	15.969235
2190.000000	15.645737
2180.000000	16.086012
2170.000000	17.439538
2160.000000	18.553523
2150.000000	19.463104
2140.000000	19.627025
2130.000000	20.067132
2120.000000	20.414535
2110.000000	20.537940
2100.000000	19.976711
2090.000000	18.959851
2080.000000	18.043125
2070.000000	16.790722
2060.000000	16.205754
2050.000000	16.600666
2040.000000	17.113038
2030.000000	17.107315
2020.000000	16.378720
2010.000000	15.429624
2000.000000	14.515847
1990.000000	13.541086
1980.000000	12.703513
1970.000000	12.055843
1960.000000	11.848230
1950.000000	12.487155
1940.000000	14.072781
1930.000000	16.589686
1920.000000	20.489775
1910.000000	25.549196
1900.000000	30.107447
1890.000000	33.847027
1880.000000	35.948011
1870.000000	36.890754
1860.000000	36.937342
1850.000000	36.642668
1840.000000	36.313699
1830.000000	35.872254
1820.000000	35.501101
1810.000000	35.248558
1800.000000	35.024632
1790.000000	34.760951
1780.000000	34.413118
1770.000000	33.973741
1760.000000	33.553329
1750.000000	33.212103
1740.000000	33.507142
1730.000000	34.512948
1720.000000	35.183519
1710.000000	35.393066
1700.000000	36.226100
1690.000000	37.866307
1680.000000	39.299258
1670.000000	39.898903
1660.000000	40.009439
1650.000000	39.666819
1640.000000	39.145699
1630.000000	38.540874
1620.000000	37.780904
1610.000000	37.107271
1600.000000	36.479336
1590.000000	35.960536
1580.000000	35.430544
1570.000000	35.124579
1560.000000	34.660827
1550.000000	33.721461
1540.000000	32.915412
1530.000000	32.413480
1520.000000	32.104097
1510.000000	31.956118
1500.000000	31.958159
1490.000000	32.098739
1480.000000	32.316978
1470.000000	32.707905
1460.000000	33.422345
1450.000000	34.473531
1440.000000	36.034031
1430.000000	38.185521
1420.000000	40.789919
1410.000000	43.248674
1400.000000	45.112363
1390.000000	46.253691
1380.000000	46.988329
1370.000000	47.577698
1360.000000	48.235393
1350.000000	48.863942
1340.000000	49.311365
1330.000000	49.696705
1320.000000	50.022646
1310.000000	50.139094
1300.000000	50.104533
1290.000000	50.019146
1280.000000	50.006784
1270.000000	50.044751
1260.000000	50.029888
1250.000000	49.907532
1240.000000	49.755183
1230.000000	49.523217
1220.000000	49.148090
1210.000000	48.889110
1200.000000	48.758352
1190.000000	49.047872
1180.000000	49.707666
1170.000000	50.477851
1160.000000	51.117903
1150.000000	51.601281
1140.000000	51.956047
1130.000000	52.110512
1120.000000	52.190117
1110.000000	52.268048
1100.000000	52.294910
1090.000000	52.294842
1080.000000	52.276234
1070.000000	52.238829
1060.000000	52.206728
1050.000000	52.208817
1040.000000	52.185971
1030.000000	52.179274
1020.000000	52.247737
1010.000000	52.382699
1000.000000	52.502406
990.000000	52.602201
980.000000	52.764142
970.000000	52.942782
960.000000	53.134498
950.000000	53.262366
940.000000	53.343200
930.000000	53.387137
920.000000	53.478547
910.000000	53.738385
900.000000	53.923048
890.000000	54.036721
880.000000	54.158696
870.000000	54.397079
860.000000	54.100394
850.000000	52.795762
840.000000	53.241683
830.000000	52.888993
820.000000	52.863671
810.000000	52.768050
800.000000	52.897054
790.000000	52.855087
780.000000	52.745729
770.000000	52.648011
760.000000	52.660380
750.000000	52.560385
740.000000	52.396229
730.000000	52.351200
720.000000	52.221950
710.000000	52.130555
700.000000	51.934896
690.000000	51.697908
680.000000	51.341542
670.000000	51.032219
660.000000	50.721802
650.000000	50.331738
640.000000	49.987623
630.000000	49.769542
620.000000	49.524784
610.000000	49.218829
600.000000	48.850992
590.000000	48.546068
580.000000	48.288872
570.000000	48.081653
560.000000	47.798960
550.000000	47.507294
540.000000	47.216925
530.000000	46.877810
520.000000	46.510562
510.000000	46.012636
500.000000	45.412885
490.000000	44.625835
480.000000	43.708966
470.000000	42.564854
460.000000	41.004326
450.000000	39.301785
440.000000	37.526330
430.000000	35.472172
420.000000	33.585270
410.000000	32.227363
400.000000	31.386894
390.000000	30.616694
380.000000	29.341562
370.000000	27.757031
360.000000	26.313007
350.000000	24.007429
340.000000	21.865377
330.000000	19.828245
320.000000	18.034621
310.000000	16.030956
300.000000	13.805805
290.000000	10.599552
280.000000	9.582074
270.000000	10.176466
260.000000	10.770103
250.000000	10.282669
