PE UV       SUBTECH     SPECTRUM    ASCII       PEDS        4.00        
   -1
chevre3_chair_2.Sample.asc
23/09/14
11:01:44.00
23/09/14
11:01:44.00
Administrator

250.000000
1
Lambda 750
750N8071901
PerkinElmer UV WinLab 6.0.4.0738 / 1.61.00 Lambda 900

0
0
3350/servo 860.8/2
0
0
UV/VIS
1
1
1
CommonBeamDepol,150mm sphere / downward view
0
0
0
0
Program
Program
3350/servo 860.8/2
3350/0.2 860.8/0.2
3350/0.2 860.8/0.2
0
1
 
 
 
0
 
860.8
319.2
860.8
Front
100
on
 
 
0
0
0
 
0
 
 
 
0
 
 
0
0
0
0
0
 
 
 
 
0
0


0
0
#HDR
-1
-1
#GR
nm
%R
1.0
0.0
2500.000000
-10.000000
226
8
65.991017
4.746577
#DATA
2500.000000	4.746577
2490.000000	6.105337
2480.000000	6.709002
2470.000000	7.069960
2460.000000	7.591244
2450.000000	8.486249
2440.000000	7.562613
2430.000000	8.236324
2420.000000	9.560944
2410.000000	9.113391
2400.000000	9.079109
2390.000000	9.601704
2380.000000	9.592012
2370.000000	9.386625
2360.000000	9.894730
2350.000000	10.078598
2340.000000	9.894162
2330.000000	9.646773
2320.000000	8.854460
2310.000000	8.677632
2300.000000	8.538005
2290.000000	8.592409
2280.000000	9.138798
2270.000000	10.552260
2260.000000	12.546370
2250.000000	13.466831
2240.000000	13.614438
2230.000000	13.178785
2220.000000	12.860853
2210.000000	11.898556
2200.000000	11.456381
2190.000000	11.241540
2180.000000	11.873377
2170.000000	13.226475
2160.000000	14.251436
2150.000000	15.343799
2140.000000	15.921289
2130.000000	16.430784
2120.000000	16.596363
2110.000000	16.886283
2100.000000	16.060564
2090.000000	15.204929
2080.000000	13.946836
2070.000000	12.428416
2060.000000	12.144757
2050.000000	12.487096
2040.000000	13.110862
2030.000000	13.068043
2020.000000	12.379768
2010.000000	11.348973
2000.000000	10.323545
1990.000000	9.467500
1980.000000	8.713261
1970.000000	8.162368
1960.000000	7.971933
1950.000000	8.447282
1940.000000	10.053525
1930.000000	12.832348
1920.000000	17.236827
1910.000000	23.476248
1900.000000	28.999354
1890.000000	33.763870
1880.000000	36.900993
1870.000000	38.031513
1860.000000	38.241193
1850.000000	37.835011
1840.000000	37.320606
1830.000000	36.772551
1820.000000	36.213618
1810.000000	35.789855
1800.000000	35.431319
1790.000000	35.039376
1780.000000	34.509140
1770.000000	33.916566
1760.000000	33.267231
1750.000000	32.782197
1740.000000	33.114539
1730.000000	34.535007
1720.000000	35.514228
1710.000000	35.929790
1700.000000	37.153851
1690.000000	39.482845
1680.000000	41.695873
1670.000000	42.609514
1660.000000	42.741223
1650.000000	42.246988
1640.000000	41.474676
1630.000000	40.524725
1620.000000	39.471863
1610.000000	38.425941
1600.000000	37.521511
1590.000000	36.753782
1580.000000	36.041061
1570.000000	35.559500
1560.000000	34.928138
1550.000000	33.686293
1540.000000	32.556401
1530.000000	31.860523
1520.000000	31.417764
1510.000000	31.161243
1500.000000	31.180606
1490.000000	31.357513
1480.000000	31.689073
1470.000000	32.201984
1460.000000	33.149774
1450.000000	34.584150
1440.000000	36.694614
1430.000000	39.718122
1420.000000	43.557817
1410.000000	47.414639
1400.000000	50.489970
1390.000000	52.443448
1380.000000	53.653380
1370.000000	54.910895
1360.000000	56.137459
1350.000000	57.251350
1340.000000	58.122747
1330.000000	58.847867
1320.000000	59.432081
1310.000000	59.733410
1300.000000	59.713307
1290.000000	59.668491
1280.000000	59.685126
1270.000000	59.754063
1260.000000	59.697905
1250.000000	59.365894
1240.000000	58.993695
1230.000000	58.563193
1220.000000	57.889856
1210.000000	57.302253
1200.000000	57.112745
1190.000000	57.655896
1180.000000	58.879542
1170.000000	60.368306
1160.000000	61.644742
1150.000000	62.574881
1140.000000	63.279571
1130.000000	63.574293
1120.000000	63.744707
1110.000000	63.850150
1100.000000	63.860369
1090.000000	63.813853
1080.000000	63.711573
1070.000000	63.607224
1060.000000	63.459739
1050.000000	63.379958
1040.000000	63.290204
1030.000000	63.251761
1020.000000	63.326994
1010.000000	63.492214
1000.000000	63.601310
990.000000	63.824924
980.000000	64.092130
970.000000	64.380315
960.000000	64.630202
950.000000	64.795118
940.000000	64.907932
930.000000	64.908403
920.000000	65.026824
910.000000	65.201888
900.000000	65.469508
890.000000	65.552021
880.000000	65.832890
870.000000	65.991017
860.000000	65.805709
850.000000	64.995681
840.000000	65.177400
830.000000	64.975650
820.000000	64.994257
810.000000	64.869328
800.000000	64.865109
790.000000	64.989045
780.000000	64.932638
770.000000	64.830210
760.000000	64.649338
750.000000	64.553047
740.000000	64.553321
730.000000	64.514733
720.000000	64.307016
710.000000	64.238618
700.000000	63.996920
690.000000	63.795594
680.000000	63.534244
670.000000	63.310113
660.000000	63.092726
650.000000	62.698413
640.000000	62.288344
630.000000	61.946047
620.000000	61.602267
610.000000	61.062473
600.000000	60.594222
590.000000	60.072211
580.000000	59.436366
570.000000	58.801135
560.000000	58.174968
550.000000	57.383920
540.000000	56.534610
530.000000	55.590721
520.000000	54.647945
510.000000	53.539171
500.000000	52.309235
490.000000	50.839877
480.000000	49.411978
470.000000	47.723820
460.000000	45.691234
450.000000	43.531294
440.000000	41.378686
430.000000	38.999530
420.000000	36.570835
410.000000	34.455181
400.000000	32.593605
390.000000	30.671475
380.000000	28.540391
370.000000	26.604224
360.000000	25.172741
350.000000	23.575683
340.000000	22.293443
330.000000	21.047605
320.000000	19.768697
310.000000	18.245697
300.000000	17.397678
290.000000	15.473192
280.000000	14.362509
270.000000	15.275927
260.000000	16.457045
250.000000	16.606088
