PE UV       SUBTECH     SPECTRUM    ASCII       PEDS        4.00        
   -1
veau2_fleur_1.Sample.asc
23/09/14
11:31:01.00
23/09/14
11:31:01.00
Administrator

250.000000
1
Lambda 750
750N8071901
PerkinElmer UV WinLab 6.0.4.0738 / 1.61.00 Lambda 900

0
0
3350/servo 860.8/2
0
0
UV/VIS
1
1
1
CommonBeamDepol,150mm sphere / downward view
0
0
0
0
Program
Program
3350/servo 860.8/2
3350/0.2 860.8/0.2
3350/0.2 860.8/0.2
0
1
 
 
 
0
 
860.8
319.2
860.8
Front
100
on
 
 
0
0
0
 
0
 
 
 
0
 
 
0
0
0
0
0
 
 
 
 
0
0


0
0
#HDR
-1
-1
#GR
nm
%R
1.0
0.0
2500.000000
-10.000000
226
8
53.680703
-0.486677
#DATA
2500.000000	-0.374950
2490.000000	-0.486677
2480.000000	1.896539
2470.000000	1.740416
2460.000000	2.100980
2450.000000	2.617345
2440.000000	2.927414
2430.000000	2.539290
2420.000000	3.948778
2410.000000	3.626433
2400.000000	3.072010
2390.000000	4.586152
2380.000000	4.494284
2370.000000	3.443222
2360.000000	4.149276
2350.000000	4.089886
2340.000000	4.035672
2330.000000	4.306398
2320.000000	3.535643
2310.000000	3.226453
2300.000000	2.922121
2290.000000	2.958741
2280.000000	3.869924
2270.000000	4.489424
2260.000000	6.295958
2250.000000	6.682063
2240.000000	7.021815
2230.000000	6.611295
2220.000000	6.343931
2210.000000	5.553470
2200.000000	5.346008
2190.000000	4.958322
2180.000000	5.580228
2170.000000	6.624051
2160.000000	7.437572
2150.000000	8.181091
2140.000000	8.318267
2130.000000	8.658018
2120.000000	9.046313
2110.000000	9.195811
2100.000000	8.655630
2090.000000	7.949970
2080.000000	6.921819
2070.000000	5.741978
2060.000000	5.323902
2050.000000	5.669441
2040.000000	6.089221
2030.000000	6.127982
2020.000000	5.679426
2010.000000	4.780752
2000.000000	4.159512
1990.000000	3.445130
1980.000000	2.944393
1970.000000	2.299698
1960.000000	2.330881
1950.000000	2.655775
1940.000000	3.704091
1930.000000	5.709655
1920.000000	9.341568
1910.000000	14.289416
1900.000000	19.093224
1890.000000	23.403160
1880.000000	26.359699
1870.000000	27.465537
1860.000000	27.639693
1850.000000	27.331966
1840.000000	26.902683
1830.000000	26.351570
1820.000000	25.820257
1810.000000	25.404661
1800.000000	25.081418
1790.000000	24.737112
1780.000000	24.244946
1770.000000	23.729343
1760.000000	23.174399
1750.000000	22.771851
1740.000000	23.112827
1730.000000	24.404212
1720.000000	25.227309
1710.000000	25.501796
1700.000000	26.580108
1690.000000	28.746561
1680.000000	30.742032
1670.000000	31.546696
1660.000000	31.671644
1650.000000	31.179829
1640.000000	30.467511
1630.000000	29.575715
1620.000000	28.526682
1610.000000	27.566147
1600.000000	26.725507
1590.000000	25.989015
1580.000000	25.328995
1570.000000	24.938217
1560.000000	24.324313
1550.000000	23.184507
1540.000000	22.176898
1530.000000	21.579298
1520.000000	21.188244
1510.000000	20.906446
1500.000000	20.860991
1490.000000	20.954096
1480.000000	21.186748
1470.000000	21.611122
1460.000000	22.478964
1450.000000	23.782786
1440.000000	25.735981
1430.000000	28.574162
1420.000000	32.219959
1410.000000	35.964516
1400.000000	38.966815
1390.000000	40.850150
1380.000000	42.011987
1370.000000	43.265749
1360.000000	44.429976
1350.000000	45.476730
1340.000000	46.312543
1330.000000	46.971421
1320.000000	47.510127
1310.000000	47.795697
1300.000000	47.743515
1290.000000	47.712541
1280.000000	47.705702
1270.000000	47.799045
1260.000000	47.706721
1250.000000	47.388766
1240.000000	47.097895
1230.000000	46.696644
1220.000000	46.038530
1210.000000	45.448076
1200.000000	45.199589
1190.000000	45.718764
1180.000000	46.894877
1170.000000	48.302460
1160.000000	49.486646
1150.000000	50.374655
1140.000000	51.065645
1130.000000	51.341110
1120.000000	51.480090
1110.000000	51.580417
1100.000000	51.606790
1090.000000	51.557032
1080.000000	51.456179
1070.000000	51.355764
1060.000000	51.221235
1050.000000	51.167011
1040.000000	51.088553
1030.000000	51.022098
1020.000000	51.094046
1010.000000	51.234866
1000.000000	51.341375
990.000000	51.519171
980.000000	51.767377
970.000000	52.034940
960.000000	52.327546
950.000000	52.467403
940.000000	52.556325
930.000000	52.566913
920.000000	52.650631
910.000000	52.881880
900.000000	53.086956
890.000000	53.256752
880.000000	53.529793
870.000000	53.680703
860.000000	53.594665
850.000000	52.077113
840.000000	52.586363
830.000000	52.577255
820.000000	52.467508
810.000000	52.212023
800.000000	52.205647
790.000000	52.276865
780.000000	52.251723
770.000000	52.145809
760.000000	52.190675
750.000000	52.059110
740.000000	51.904535
730.000000	51.880229
720.000000	51.698724
710.000000	51.652577
700.000000	51.592062
690.000000	51.368322
680.000000	51.141114
670.000000	50.934530
660.000000	50.732385
650.000000	50.431510
640.000000	50.170442
630.000000	49.923663
620.000000	49.672297
610.000000	49.383978
600.000000	49.009389
590.000000	48.749349
580.000000	48.378026
570.000000	48.011712
560.000000	47.684166
550.000000	47.181806
540.000000	46.675135
530.000000	46.175434
520.000000	45.601689
510.000000	44.898832
500.000000	44.131021
490.000000	43.093917
480.000000	41.983548
470.000000	40.606740
460.000000	38.857290
450.000000	37.002516
440.000000	35.062048
430.000000	32.919267
420.000000	30.890503
410.000000	28.970895
400.000000	27.217070
390.000000	25.408596
380.000000	23.259128
370.000000	20.972223
360.000000	18.879334
350.000000	16.470154
340.000000	14.280231
330.000000	12.027646
320.000000	9.958066
310.000000	8.433186
300.000000	6.392783
290.000000	5.200966
280.000000	5.299781
270.000000	5.890067
260.000000	6.221970
250.000000	6.401888
