PE UV       SUBTECH     SPECTRUM    ASCII       PEDS        4.00        
   -1
veau2_chair_1.Sample.asc
23/09/14
11:24:39.00
23/09/14
11:24:39.00
Administrator

250.000000
1
Lambda 750
750N8071901
PerkinElmer UV WinLab 6.0.4.0738 / 1.61.00 Lambda 900

0
0
3350/servo 860.8/2
0
0
UV/VIS
1
1
1
CommonBeamDepol,150mm sphere / downward view
0
0
0
0
Program
Program
3350/servo 860.8/2
3350/0.2 860.8/0.2
3350/0.2 860.8/0.2
0
1
 
 
 
0
 
860.8
319.2
860.8
Front
100
on
 
 
0
0
0
 
0
 
 
 
0
 
 
0
0
0
0
0
 
 
 
 
0
0


0
0
#HDR
-1
-1
#GR
nm
%R
1.0
0.0
2500.000000
-10.000000
226
8
55.842183
11.936767
#DATA
2500.000000	12.305491
2490.000000	11.936767
2480.000000	13.474378
2470.000000	12.995083
2460.000000	14.180186
2450.000000	15.013859
2440.000000	15.405352
2430.000000	15.559505
2420.000000	17.160945
2410.000000	16.104905
2400.000000	16.510246
2390.000000	16.777280
2380.000000	17.242628
2370.000000	16.774391
2360.000000	16.784707
2350.000000	17.383296
2340.000000	17.221048
2330.000000	16.824067
2320.000000	15.997822
2310.000000	15.774941
2300.000000	15.216874
2290.000000	15.333390
2280.000000	16.283414
2270.000000	17.102385
2260.000000	19.174884
2250.000000	19.801496
2240.000000	20.087992
2230.000000	19.723013
2220.000000	19.668763
2210.000000	18.698211
2200.000000	18.220579
2190.000000	18.138865
2180.000000	18.717548
2170.000000	20.028647
2160.000000	20.918009
2150.000000	21.757128
2140.000000	22.182698
2130.000000	22.262450
2120.000000	22.511819
2110.000000	22.630709
2100.000000	22.233525
2090.000000	21.421427
2080.000000	20.358170
2070.000000	19.124162
2060.000000	18.568909
2050.000000	18.911980
2040.000000	19.486392
2030.000000	19.408851
2020.000000	18.773393
2010.000000	17.817303
2000.000000	17.034119
1990.000000	16.061597
1980.000000	15.407855
1970.000000	14.682805
1960.000000	14.442338
1950.000000	15.060893
1940.000000	16.579199
1930.000000	18.997797
1920.000000	22.550880
1910.000000	27.170307
1900.000000	31.369251
1890.000000	34.714690
1880.000000	36.879234
1870.000000	37.779940
1860.000000	37.879572
1850.000000	37.590236
1840.000000	37.241108
1830.000000	36.799641
1820.000000	36.448734
1810.000000	36.153289
1800.000000	35.998217
1790.000000	35.777084
1780.000000	35.442903
1770.000000	35.096885
1760.000000	34.682965
1750.000000	34.431514
1740.000000	34.661062
1730.000000	35.608163
1720.000000	36.215103
1710.000000	36.419693
1700.000000	37.217627
1690.000000	38.715998
1680.000000	40.141993
1670.000000	40.697970
1660.000000	40.809699
1650.000000	40.471270
1640.000000	39.964475
1630.000000	39.373284
1620.000000	38.618842
1610.000000	37.988096
1600.000000	37.376711
1590.000000	36.884295
1580.000000	36.409279
1570.000000	36.109150
1560.000000	35.678277
1550.000000	34.806316
1540.000000	34.037723
1530.000000	33.605474
1520.000000	33.326188
1510.000000	33.176206
1500.000000	33.164417
1490.000000	33.291893
1480.000000	33.496942
1470.000000	33.843694
1460.000000	34.525190
1450.000000	35.522715
1440.000000	37.000350
1430.000000	39.060731
1420.000000	41.578497
1410.000000	44.039722
1400.000000	45.949624
1390.000000	47.146250
1380.000000	47.894409
1370.000000	48.561659
1360.000000	49.271915
1350.000000	49.905122
1340.000000	50.400349
1330.000000	50.909148
1320.000000	51.387333
1310.000000	51.612199
1300.000000	51.620454
1290.000000	51.554579
1280.000000	51.524656
1270.000000	51.540410
1260.000000	51.536985
1250.000000	51.371601
1240.000000	51.215741
1230.000000	50.957833
1220.000000	50.511818
1210.000000	50.209646
1200.000000	50.132976
1190.000000	50.446213
1180.000000	51.116892
1170.000000	51.966557
1160.000000	52.700054
1150.000000	53.216825
1140.000000	53.593319
1130.000000	53.745634
1120.000000	53.845842
1110.000000	53.924580
1100.000000	53.912921
1090.000000	53.880706
1080.000000	53.812763
1070.000000	53.774003
1060.000000	53.694595
1050.000000	53.678315
1040.000000	53.621489
1030.000000	53.553089
1020.000000	53.609167
1010.000000	53.740064
1000.000000	53.832449
990.000000	53.958598
980.000000	54.118625
970.000000	54.337168
960.000000	54.532351
950.000000	54.606140
940.000000	54.759876
930.000000	54.803508
920.000000	54.919824
910.000000	55.086668
900.000000	55.389323
890.000000	55.465345
880.000000	55.681159
870.000000	55.842183
860.000000	55.571198
850.000000	55.062380
840.000000	55.127092
830.000000	54.858391
820.000000	54.888071
810.000000	54.757194
800.000000	54.873108
790.000000	54.957207
780.000000	54.883228
770.000000	54.916708
760.000000	54.848618
750.000000	54.898290
740.000000	54.758761
730.000000	54.794782
720.000000	54.762475
710.000000	54.670276
700.000000	54.680626
690.000000	54.587797
680.000000	54.507417
670.000000	54.418582
660.000000	54.347309
650.000000	54.179439
640.000000	54.005411
630.000000	53.955381
620.000000	53.821856
610.000000	53.675515
600.000000	53.525644
590.000000	53.389835
580.000000	53.141946
570.000000	52.966396
560.000000	52.843326
550.000000	52.544587
540.000000	52.296457
530.000000	52.013500
520.000000	51.726396
510.000000	51.355201
500.000000	50.970028
490.000000	50.439218
480.000000	49.898847
470.000000	49.187619
460.000000	48.183707
450.000000	47.097271
440.000000	46.094347
430.000000	44.710180
420.000000	43.384231
410.000000	42.159871
400.000000	40.883407
390.000000	39.489717
380.000000	37.878866
370.000000	36.055333
360.000000	34.106512
350.000000	32.284092
340.000000	30.101447
330.000000	27.606789
320.000000	25.863463
310.000000	23.751192
300.000000	20.504928
290.000000	16.378119
280.000000	13.825468
270.000000	14.317058
260.000000	14.487166
250.000000	13.970967
